 texplosion  fnickel    Pspin  log(Bfield)      Mns  thetaPB   mejecta    kappa  kappagamma     vejecta  temperature    alpha  cutoff_wavelength  log(nhhost)      A_V         MJD0  kenergy  mnickel              TSD   log(L0)  Peak_mag     Peak_MJD  log(E_rad)  log(Peak_lum)  Rise_Time     E_fold  tau_1  delta_m15     r_peak     frac 
  -21.80316  0.02332  5.45282     13.74798  1.55452  0.94876  12.89051  0.02498     0.12315   6399.3101   4551.54321  3.72923         2803.13338     17.06842    7e-05  56183.79684  3.14893  0.30058   13699347.88277   43.8505  21.55433  56243.48781    50.86438       43.76722   38.23587   109.4518  109.5    0.11791  -20.39803  0.93976 
  -20.78163  0.10251   5.7935     13.71395  1.56328  1.04853  11.64447  0.01583     0.06741  6087.90602    5059.6886  0.72132         3629.79188     16.98496    5e-05  56184.81837  2.57444  1.19362   18190122.98236  43.67717  21.58906      56242.4    50.92426       43.73061   37.57884  139.32178  130.5    0.07985  -20.33191  0.77425 
  -28.81926    0.005  5.18078     13.78081  1.59463  0.84166   7.81109  0.04409     0.09236  6221.19828   5375.14365  3.34392         2166.52216     18.53403   0.0019  56176.78074  1.80338  0.03906   10905649.30286  44.00506  21.57074      56239.5    50.82098        43.7828   32.45883  108.73708  127.5    0.09733  -20.39732  0.99286 
  -22.96071   0.0055  5.77439     13.81904   1.7504  0.99091   4.35894   0.0455      0.1289  5775.04339   5002.28504  0.74625         3692.36616     17.92605  0.00047  56182.63929   0.8672  0.02398   12470470.42207  43.89309  21.55552      56242.4    50.89913       43.80089   31.35669  111.46216  120.0    0.09486  -20.34033  0.99528 
  -24.99567  0.00989  5.67471     13.89459  1.80352  0.67763   5.23205  0.05921     0.44985  6161.21329   8964.66924  3.97395         2705.95443     19.62727  0.02355  56180.60433  1.18476  0.05175    8762906.88033  44.07443  21.59676      56242.4    50.92479       43.82163   35.91663   110.1481  118.5    0.10387  -20.38838  0.99033 
  -24.01221  0.00705  4.93738     13.74686  1.47116  0.75433   8.31751   0.0269     0.05796  5964.08368   3462.56373   1.4694         2919.97122     16.64838    2e-05  56181.58779  1.76485  0.05865    10684292.7242  44.02077  21.59413      56241.4    50.85852       43.72699   39.20178  139.32178  107.0    0.09288  -20.33995  0.98889 
  -21.03052  0.09029  6.46083     13.93539  1.75151  0.97259  12.90256  0.01461      0.0382  5892.32026   3193.46234  0.30902         4722.91343     19.91009  0.04517  56184.56948  2.67224  1.16504    9141503.90004  43.93066  21.57754  56243.48781    50.83578       43.80899   34.29369  103.65633   98.5    0.09305  -20.39227  0.78182 
  -20.88622  0.04941  5.73223      13.8912  1.59178  0.60431    13.952  0.01811     0.04427  5902.34031   8418.29042   3.5742         2930.00888     16.21028    1e-05  56184.71378  2.89943   0.6893    8015837.61651  44.05013  21.58838      56242.4    50.77876       43.77835   37.95342   95.12778  124.5    0.10433  -20.31595   0.8611 
  -20.35475  0.01627  5.18795     13.58015  1.84197  1.15719   3.66475  0.04514     0.03237  5610.84144   7415.54516    3.686         3158.25162     17.91063  0.00045  56185.24525  0.68822  0.05962   31825841.89606  43.60136  21.58638      56242.4    50.77598       43.81201   34.08177   87.63884   98.0    0.07858  -20.32162  0.98997 
  -17.91275  0.25881  6.37768     13.97027  1.77036  0.67259   4.53234  0.04344      0.1151  5030.47195   6261.92837  3.07938         3277.32838     20.36871  0.12985  56187.68725  0.68418  1.17303    7667580.33266  44.02292  21.59937      56241.4    50.82864       43.81531   32.97963  100.10157  143.5    0.10728  -20.39883  0.77992 
  -22.28061  0.03631  6.12605      13.8885  1.86858  0.76342  15.06984  0.01636     0.09003  6072.60592   8233.92364  2.95409         2768.46044     18.20047  0.00088  56183.31939  3.31502  0.54721   10881555.52726   43.9293  21.57772  56243.48781    50.84054       43.79443   35.91663   92.29574  131.5    0.09625  -20.34896  0.89698 
  -21.31453   0.3419  6.96483     13.78867  1.90779  1.56238   4.75101  0.04969     0.13843  5853.83456   3168.72792  1.29582         3200.59453     18.08046  0.00067  56184.28547  0.97117  1.62437   22742333.30583  43.50672  21.57113      56242.4    50.83142       43.81475   34.60257  101.72451  112.0    0.08628  -20.33819  0.70036 
   -25.7158  0.02124   5.0281     13.77897  1.43144  0.79152   7.69728  0.04253     0.29816  5950.93857   4875.05811  0.98438         3467.70926     19.18993   0.0086   56179.8842  1.62606  0.16348     9299313.5823  44.05336   21.5751      56242.4    51.03187       43.86484   36.33048  137.32425  113.5    0.10865  -20.40291  0.96819 
  -26.53691  0.00187  6.22736     13.94645  1.95459  0.87584   6.06474  0.04123     0.31985  5729.15713   5785.36209   0.3548         3636.74112     16.84159    4e-05  56179.06309  1.18747  0.01135    9006927.09857  44.01672  21.56597      56242.4     50.7999       43.80511   33.70236   96.13295  130.0    0.09814   -20.3354  0.99782 
  -19.86399  0.15477  5.95934     13.65731  1.67727  1.25664   6.55891  0.03507     0.14112  5583.65123    6918.9736  3.81039         3150.48756     19.25196  0.00992  56185.73601  1.21982  1.01511    26804072.3829  43.51485  21.61955      56242.4    50.90274       43.78058   35.91663  115.01692  159.0    0.10446  -20.31604  0.80261 
  -24.49288  0.03712  6.20697     13.73075  2.00094  1.38434   7.70947  0.03948     0.04923  5894.11428   4331.66554  4.57923         2984.76875     16.13298    1e-05  56181.10712  1.59768  0.28614   24735346.39671    43.591  21.59885      56239.5    50.86379       43.78847   32.67075  119.88575  111.0    0.09983  -20.36137  0.94598 
  -23.10697   0.0085    5.852     13.78014  2.09156  0.94192   4.91468  0.04138     0.07876  6658.14328   8607.58465  2.76035          2564.3003     16.17189    1e-05  56182.49303  1.29966  0.04175    18306934.4131  43.79209  21.56076  56243.48781    50.95458       43.81592   37.57884  134.45295  112.5    0.07851  -20.38548  0.99297 
  -22.21956  0.17318  6.29014     13.92275  1.59773  0.75071   9.52814   0.0312       0.029  7200.68172    6285.4129  0.22959         2902.83865     16.93846    5e-05  56183.38044  2.94701  1.65004    8378142.21414  43.95188  21.58323      56242.4     50.8906       43.92273   32.45883   82.77001   91.5    0.11003  -20.43728  0.69349 
  -23.74757  0.01124  4.82777     13.81533  1.42482  0.54523  19.10407  0.01297     0.12248  5682.18864   5839.42922  3.90146         2780.84399     19.08001  0.00668  56181.85243  3.67946  0.21473    7217899.20045   44.1967  21.59364      56241.4    50.82301       43.76802   35.70471   113.6059  161.0    0.09141  -20.32809  0.95948 
  -19.78594  0.15032  6.92342     14.10945  1.69865  0.42744  15.67116   0.0139     0.04209  6031.01246   5467.56161  0.91584         3466.04527     19.66681   0.0258  56185.81406  3.40023  2.35576    4567283.45294  44.15865  21.59552  56243.48781    50.89827       43.78502   38.95059  115.22884  133.0    0.08575  -20.34891  0.57412 
  -27.54451  0.00115  5.58342     13.81891   1.6972  1.50275   5.93759  0.04009     0.27373  5163.26493   4952.66763  0.30924         4690.25854     20.05168  0.06258  56178.05549  0.94425  0.00682   11311905.34606  43.95124  21.57843  56245.95793    50.83175       43.73395   42.19648  107.11413  104.5    0.10629  -20.37191  0.99874 
  -21.72777  0.00499  5.26145     13.69141  1.74601  1.20569   4.97121  0.03979      0.1863  6096.69221   8344.89274  1.87106         3191.41721     20.42963   0.1494  56183.87223  1.10225  0.02483   18588710.30795  43.79943  21.54618      56242.4    50.88684       43.75887   37.95342  114.60307  128.5    0.09399  -20.48708  0.99583 
  -20.72162  0.27919  6.51646     13.92898  1.78649  0.68072    5.0296  0.06601     0.42688  6634.73166   3929.34249  3.60312         2791.85407     18.49587  0.00174  56184.87838  1.32071   1.4042    9769505.80897  43.90295  21.58906      56242.4    50.86421        43.8316   33.35421   94.85816  107.0    0.10594  -20.39961  0.73522 
  -22.16539  0.12968  6.20792     13.80454  1.64753  1.03657  10.69602  0.03357     0.28401  7366.61837   8611.06557  2.52185         2226.48221      18.7167  0.00289  56183.43461  3.46247  1.38709    14502971.2159  43.73833  21.57772  56243.48781    50.86566       43.76289   36.33048  117.84896   99.0    0.11056   -20.4519  0.74074 
  -27.62829  0.04202  5.54746     13.84126  1.66849   0.8075    4.9903  0.06356     0.18192  6024.08582   6140.98752  1.30677         2848.95396     18.42348  0.00147  56177.97171  1.08028  0.20968    9904117.38875  44.00716  21.58848      56241.4    50.90301       43.80014   34.60257  108.21628  132.5    0.10064  -20.37321  0.96032 
  -24.64167  0.00413  5.06409     13.67428  1.64561  1.00043    11.368  0.02647      0.2206  6721.71064   7262.49193  4.32197         2363.63954     19.75587  0.03167  56180.95833  3.06387  0.04695   17562125.21042  43.83159   21.6392      56242.4    50.87865       43.79443   34.01124  125.03702  145.0    0.09315  -20.44137  0.99189 
  -21.97387  0.40752  7.05525     13.93808  1.61641  0.70593  11.82825  0.02163     0.38492  6165.07925   9646.77309  0.63634         3137.27776      20.6282  0.23601  56183.62613  2.68179  4.82022    9936378.59291  43.78314  21.61876      56241.4     50.8935       43.84631   31.73127  106.21875  104.5    0.06535  -20.60848  0.37616 
  -17.73824  0.03395   5.8677     13.82391  1.96702  0.88633   4.33651  0.03618     0.42056  8107.09989   9031.02929  2.04312         2017.04273     16.12069    1e-05  56187.86176  1.70019  0.14721    14149486.0163  43.87498  21.56846   56241.0177    50.77055       43.77609   31.77054   98.06478  119.5    0.09024  -20.44174  0.97417 
   -19.4517  0.21344  6.33077     13.70056  1.69704  0.70628  14.14421  0.03047      0.1062  6052.15054   8179.26499  4.29684         2978.67855     17.64987  0.00025   56186.1483  3.09048  3.01893   25078716.17254  43.49632  21.59068      56241.4    50.87034       43.85064   30.83589   92.50766  149.5    0.08884  -20.39477  0.50803 
  -23.36868  0.01629  5.77054     13.74588  1.68402  1.45618   9.73029  0.02766     0.08022   6346.4657   6479.71169  2.24168         2362.00494     17.08017    7e-05  56182.23132  2.33785  0.15849    16781769.2898  43.74792  21.58084      56242.4    50.82402       43.80818   32.67075  103.65633  121.5    0.10886  -20.34857  0.96815 
  -21.87196  0.03425  5.87269     13.71734  1.72034  1.13259  16.05043  0.01768     0.04291  5703.51078   7421.71754  3.80063         3105.77285     18.01519  0.00058  56183.72804  3.11457  0.54968   20250201.55249  43.66036  21.59323  56243.48781    50.79433       43.77216   39.57636    99.9966  141.0    0.10508  -20.35697   0.8922 
  -21.20971   0.2746  7.17154     14.16716  1.16975  0.34951  15.80872   0.0224     0.02694  6305.96137   4355.36546  1.43316         3079.90525     20.44642  0.15529  56184.39029  3.74996  4.34103    2587110.40101   44.2129  21.55132      56241.4    50.90288       43.76779   36.33048  122.71778  100.5    0.10019  -20.50819  0.29179 
   -22.4351  0.00316  5.42965     13.67419  1.79335  1.57063   4.81542  0.04745     0.16842  6838.35824   8654.00966  1.73698         2409.73708     19.38098  0.01336   56183.1649  1.34328   0.0152   22011161.18676  43.71033  21.60367   56241.0177    50.93725       43.79537   34.29369  123.13163  112.0    0.08834  -20.43905  0.99736 
  -24.17894  0.00131  5.55082     14.00107  1.81006  0.49521   6.58131   0.0419     0.28681  6817.82354   8204.14168  2.23258          2616.9959     19.12564  0.00742  56181.42106  1.82487  0.00861    5153180.77002  44.32575  21.57614  56245.95793    50.87073       43.82505    38.2623   89.95007  126.0    0.10036   -20.4224  0.99845 
  -20.35458   0.0315  5.42264     13.66311  1.73421  0.98368  14.34663  0.01612     0.02105  6448.01264   8529.03987  4.77413          2760.4047     16.90588    4e-05  56185.24542  3.55819  0.45188     22342115.905   43.6904  21.61238      56242.4    50.93032       43.81673   31.73127  137.05464  109.0    0.09511   -20.3542  0.91915 
   -26.6124  0.00917  4.88623     13.74259  1.49895   1.0413   5.47356  0.05186     0.42714  5846.76677   6252.21501  1.40307         2246.29328     20.22266  0.09276   56178.9876  1.11617  0.05019   10873760.91013  44.03031  21.60174      56242.4    50.76879       43.76382   35.01642   98.06478  121.5    0.09698  -20.43803  0.99138 
  -26.16068  0.00165    4.909     13.71024  1.44137  0.88609   5.67786  0.05768     0.31047  6396.14378   7816.91025  3.00956         2335.50551     16.71064    3e-05  56179.43932  1.38563  0.00935   12249143.59956  43.95753  21.59422  56245.95793    50.92401       43.84605   42.19648  107.11413  116.0    0.10627  -20.38477   0.9982 
  -25.64118   0.2237  5.68579     13.74547  1.53858  1.23621   3.91965  0.09096     0.16994   6236.5419   5932.92816  3.32634         2108.86808     16.73026    3e-05  56179.95882  0.90941  0.87684   14913278.11414  43.77281  21.55216      56242.4    50.91294       43.81312   33.39348  109.42537  119.0      0.105  -20.38122  0.83273 
  -22.97064  0.08851  5.83944     13.77408  1.89538  0.83195   4.84095  0.04851     0.11669   5393.0065    4127.2537  4.90303          3012.7398     16.75157    3e-05  56182.62936  0.83988  0.42846   16985964.24153  43.78371  21.57794  56245.95793    50.88742       43.76114   38.23587  122.43533  132.5    0.08963  -20.31069  0.92184 
  -24.83724  0.04346  4.64027     13.91404  1.36591  0.39045   8.01774  0.03093     0.09895  5855.21711   4300.36443  2.15554         2827.00013      19.0195  0.00581  56180.76276   1.6397  0.34841    4057349.87919  44.46294  21.58641   56241.0177    50.81489       43.74791   35.54204  118.63739  119.5    0.08511  -20.33832  0.93659 
  -28.55951  0.12101  6.46646     13.82727  1.97686  1.18075   4.67145  0.06921     0.11036  5421.67453   3096.73567  2.01548         3011.62192     18.33897  0.00121  56177.04049  0.81912  0.56529   17005668.34672  43.71289  21.56458  56243.48781    50.75008       43.73286   40.57354   97.37649  114.0    0.09056  -20.33199  0.89324 
   -20.6576  0.00244  5.86739     13.77801  1.90421  1.15668   4.23126   0.0403       0.327  6861.07505   9353.90908  0.35665         4391.97349     16.41413    1e-05   56184.9424  1.18818  0.01032   16919879.89133  43.78327  21.57361  56243.48781    50.81319       43.72982   38.95059  118.47472  106.5    0.09024  -20.42772   0.9981 
  -26.75849  0.00494  6.03739     13.76708  1.95627  1.35988   8.68162  0.03797     0.19169  5816.59898   5269.70914  4.38749         2799.43993     20.03689  0.06048  56178.84151  1.75213  0.04287   19354420.63137   43.7118  21.57553   56241.0177    50.77207       43.74533   35.70471  103.86825  140.5    0.10034  -20.40379  0.99202 
  -22.85426  0.15556  7.92015     14.12535  1.52921  0.76584  19.82161  0.01591      0.0387   4959.3239   4130.48735  1.46462         3514.23113     20.25038  0.09888  56182.74574  2.90811  3.08345    5000911.43203   43.9568  21.60207      56242.4    50.79563       43.83362   33.70236   86.39531  107.5    0.10842  -20.39181  0.43025 
  -20.35162  0.22567  6.23467     13.73771  1.98603  1.12816    2.6087  0.08471     0.19515  6237.81211   3727.25826  2.80853         3174.60027     16.79836    3e-05  56185.24838   0.6055   0.5887   23988577.71467   43.5972  21.54817      56242.4    50.72516        43.7422    35.9559   90.63354  115.5    0.09679  -20.34237  0.89049 
  -24.25595  0.07958  6.53961     13.90938  1.71815  1.06709  11.79986  0.03669     0.09366  6254.92709    5893.1602  2.51675         2715.18822     18.39918  0.00139  56181.34405   2.7539  0.93904   10356652.50655  43.85758  21.58595  56243.48781    50.82517        43.8207   32.07942  102.62472  110.0    0.11998  -20.40504  0.80829 
   -22.6234  0.30513  7.41171     13.84529  1.99689  1.25161   6.12869   0.0598     0.20918   7063.6849   8817.43141   1.6399         2730.24276     16.12169    1e-05   56182.9766  1.82414  1.87004   20769632.38734  43.51193  21.57781   56241.0177     50.8855       43.72008   35.70471  137.95002  109.0    0.10557   -20.4159  0.65621 
  -27.74524  0.00598    5.778     13.74366  1.77686  1.43279  13.15602   0.0235     0.02826  5756.32768   6757.63101  1.86044         2832.92717     18.91614  0.00458  56177.85476  2.60041  0.07873   17935057.17282  43.74124  21.55658  56243.48781    50.84407        43.7697   37.32765   97.37649  117.5    0.09864   -20.3577  0.98494 
  -20.94097   0.0028  5.71617     13.82575  1.77365  0.89925   4.03977  0.05572     0.37149  6837.44704   8382.40741  1.04447         2933.68337     18.48349  0.00169  56184.65903  1.12661   0.0113    12005695.1504  43.92412  21.61005      56239.5    50.92308       43.75726   34.29369  134.49222  111.0    0.10519  -20.39886  0.99783 
  -24.34274  0.01356  6.16329     13.82844  1.83658  1.29173  14.49231  0.02391     0.08233  6244.22287   4961.22303  2.58735         2696.03374     19.50347  0.01771  56181.25726  3.37071  0.19649   14275027.65663  43.79865  21.60764  56243.48781    50.79176       43.77948    38.2623   98.06478  112.0    0.11878  -20.40783  0.96098 
  -21.85721  0.00122  5.52265     13.68021  1.79821   1.3102   6.25498  0.03523     0.03328  6799.96584   6323.57147  2.53279         2623.77882     18.56076  0.00202  56183.74279  1.72531  0.00761   22208847.49353  43.69286  21.57745      56242.4    50.79956       43.76123   37.16499   107.2768   94.0      0.094  -20.40278  0.99862 
  -21.38845  0.17982  6.43646     13.66316  1.57081  1.40062   13.5356  0.02865     0.04974  6484.20655   8862.26381  3.41644         2604.42608      18.8946  0.00436  56184.21155  3.39483  2.43402   28504853.97404  43.39276  21.59923  56243.48781    50.86117       43.73054   42.19648  115.22884  111.0    0.09584  -20.40738  0.57046 
  -17.46367  0.45685  5.91085     13.46961  1.52035  1.48524   5.59563  0.05682     0.03512  6565.72034   8166.32044  2.91041         3100.53588     17.04043    6e-05  56188.13633  1.43893  2.55634   56733484.45348  43.15365  21.58497      56241.4    50.74089       43.78477   35.01642   85.08125   97.5    0.10804  -20.34658  0.54999 
  -17.86848  0.29571  6.60725     14.00707   2.0387  0.32755  10.54485  0.03643     0.02959  7372.35769   9016.64254  3.96679         2631.17979     18.05145  0.00063  56187.73152  3.41885  3.11817    7999562.70488  44.03509  21.56991  56243.48781    50.90155       43.73411   43.81942  124.96649  101.5    0.10297  -20.40273  0.51547 
  -21.58309  0.13396  5.58569     13.61536  1.68599  1.41186   5.56705  0.05611     0.06455  7118.76037   8024.56021  4.73879         2763.42558     18.48642   0.0017  56184.01691  1.68291  0.74579   28714557.11656  43.54345  21.58468      56242.4    50.88002       43.77765   37.95342  112.98013  106.0    0.10996  -20.42221  0.86401 
  -21.68141   0.1687  8.22649     13.89148  1.89378  1.20304  15.06955  0.02171     0.06629  6028.44293   3257.40583  1.29519         3319.45121     17.65261  0.00025  56183.91859  3.26692  2.54226   19615775.74924  43.42314  21.59094   56241.0177     50.9451       43.77638   33.39348  137.01537  107.5    0.10002  -20.35119  0.51479 
   -14.9583  0.24385  5.66399     13.61314  1.69253  0.73324   9.21658  0.02769     0.02548  6388.88526   6191.71664  3.04915         3170.79388     17.02527    6e-05   56190.6417  2.24413  2.24746    29944865.9807  43.51481  21.54493      56242.4    50.89253       43.79098   35.54204  105.65386  121.5    0.10829  -20.32069  0.62423 
  -25.23161  0.03065  4.26639     13.43055  1.30471   1.5017   5.33215  0.04795     0.06336  5846.17631   8447.40581     2.84         2948.72519     19.86264  0.04049  56180.36839  1.08711  0.16341   30363764.87384  43.64188  21.61258  56243.48781    50.97921       44.02227   30.83589   69.78648  118.0    0.08947  -20.39714  0.97176 
