 texplosion  fnickel    Pspin  log(Bfield)      Mns  thetaPB   mejecta    kappa  kappagamma     vejecta  temperature    alpha  cutoff_wavelength  log(nhhost)      A_V         MJD0   kenergy  mnickel            TSD   log(L0)  Peak_mag     Peak_MJD  log(E_rad)  log(Peak_lum)  Rise_Time    E_fold  tau_1  delta_m15     r_peak     frac 
   -82.7064  0.06375  0.91469     13.98492  1.79931  1.49804  56.93745  0.04464     0.01809  3902.61823    7859.2745  2.25698         3536.41746      16.6067    2e-05   52480.0936   5.17294  3.62953   149837.93059  47.42579  19.16188  52565.90351    51.50153       44.47896   42.66761  87.27466   93.0    0.03952  -21.70476  0.98568 
  -92.24292  0.04971  1.53959     13.88989  1.76264  1.41134  78.01757  0.02901     0.10239  3678.86002   6399.17988  3.91967         3368.55661     17.64557  0.00025  52470.55708   6.29863  3.87815   644170.53549   46.3312  19.10764      52562.8     51.4685       44.42199   58.18311  81.45635  102.5    0.04365  -21.73173  0.95484 
  -82.77523  0.00347  1.63366     13.96387  1.89972   1.0429  58.16434  0.03899     0.04237  3755.44609   8755.44123  2.50453         3572.24404     18.54572  0.00195  52480.02477   4.89336   0.2017   556005.58651  46.37613  19.08046  52552.66394    51.57407       44.55348   42.66761  87.27466   87.5    0.04657  -21.69944  0.99753 
  -79.35146  0.17604  0.88845     14.12861  1.65773  0.71581  17.36184  0.18813     0.24518  4870.79907   9370.23121  3.21237          3323.8305      19.4356  0.01515  52483.44854    2.4571  3.05636     67202.4331  47.76371  19.13499  52563.25559    51.50899       44.48549    52.3648  81.45635   84.5    0.04685  -21.78775  0.98712 
  -92.44526   0.1046  1.97659     14.00159  1.78441  0.73026  28.33733  0.07762     0.06828  3834.34028   6933.12773  4.93422         3249.09737     17.22208    9e-05  52470.35474   2.48523  2.96409   642644.44162  46.12054  19.09293  52555.31185     51.4444       44.39478   50.42536  91.15353  102.0    0.04694  -21.74169  0.94431 
  -82.32158  0.05175  1.04571      13.9643  1.68484  0.96083  19.63833   0.1575     0.18158  4370.03525   8074.49009  4.09673         3163.44829     20.08166  0.06705  52480.47842   2.23718  1.01622    201645.1132    47.152  19.11111  52550.01603    51.49074       44.42961    52.3648  93.09297   91.5    0.04314   -21.8181  0.99399 
  -89.50217  0.07976  0.80001     14.27181  1.88573  0.51067  37.99245  0.07868     0.08316  4369.66937   7666.83125  1.45069         3493.06995      20.0515  0.06255  52473.29783   4.32735  3.03029    32052.86338  48.23226  19.14567      52562.8    51.45451       44.40693   50.42536   89.2141   89.0    0.04567  -21.78404  0.99149 
  -81.61803  0.00161  1.22857     13.96647  1.91358  1.35406  52.76492  0.03836     0.10457   3205.1416   7429.22023  2.23045         3791.55611     17.60399  0.00022  52481.18197   3.23346  0.08514   312990.53951  46.87636  19.12606      52562.8    51.54682       44.51362   46.54649  87.27466   92.0    0.04847    -21.685  0.99942 
  -94.74246  0.05877   1.2185     14.05887  1.74592  0.68524  30.82476  0.08247     0.06438  3984.43214   7664.71396  2.30934         3381.73748     17.73095   0.0003  52468.05754   2.91917  1.81169   183548.94454  47.07547  19.19504  52571.19933    51.54135       44.51332   48.48592  87.27466   94.0    0.04457  -21.64539  0.98621 
  -92.45171  0.01302  1.57831     13.85262  1.34305  0.55559  47.05306  0.03467     0.01251  3319.37978   5985.87812  2.49053         3637.20142     16.86165    4e-05  52470.34829   3.09264  0.61284   612414.03566  46.21351  19.19167  52565.90351    51.45198        44.3968    52.3648  91.15353  100.5    0.04942  -21.72566  0.98819 
  -96.73244  0.00481  2.04755     13.82233  1.90725  1.32446  19.29554  0.11566     0.01268   3716.1624   6762.57511  4.38179         3228.49196     16.64705    2e-05  52466.06756   1.58955  0.09282  1682785.65514  45.70075  19.15919  52560.60768    51.45615       44.38232   58.18311  95.03241   99.0    0.04553  -21.68504   0.9982 
  -76.09196  0.12941  1.84051     14.13408  1.71308  0.64497  43.23788  0.04109     0.01108  3649.24005   7553.51307  3.69833         3460.78273     16.38338    1e-05  52486.70804   3.43476  5.59545    290606.5349  46.50944  19.14589  52571.19933    51.55002       44.53539   50.42536  79.51691   99.5    0.05165   -21.6881  0.90748 
  -98.30825  0.00632  1.27635     13.83335  1.46644  0.86866  62.52111  0.03618     0.13162  3122.63647   7433.55153  4.15151         3399.76061        16.45    2e-05  52464.49175   3.63661  0.39531   477870.17278  46.54386  19.19454  52571.19933    51.41103       44.39502   50.42536  83.96706  103.5    0.03999  -21.56929  0.99565 
  -99.37153  0.05157  0.80658     13.95948  1.71616  1.32743  99.92906  0.02893     0.28077  3806.27918   6639.66558  3.35794         3398.77155      17.3991  0.00014  52463.42847   8.63615  5.15315   124941.49383   47.5934  19.06401  52563.25559    51.65399       44.66433   40.72817  79.51691  107.0    0.03572  -21.39787  0.98329 
  -66.99666  0.01282  1.67912     13.98261  1.77474  0.96938  22.80291  0.11155     0.04502  4477.73283   8632.60466  3.16224         3484.46538     17.05607    6e-05  52495.80334   2.72731  0.29224   503362.59364  46.36594  19.13864  52568.55142    51.49899       44.50109   44.60705  79.51691   81.0    0.05358  -21.71155  0.99582 
  -80.18298   0.0208  1.06402     13.97282  1.47904  0.72092  58.34167  0.05062     0.07149  4316.17541   7429.07014  2.64961         3432.72181     16.52865    2e-05  52482.61702   6.48342  1.21368   176218.21373  47.13887  19.11026  52555.31185    51.47064       44.39445   58.18311  91.15353   91.0     0.0473  -21.73646  0.99095 
  -83.46222  0.03299  1.04597     13.92914   1.7506  1.34609  80.51891  0.03162     0.42081  3911.02933   7856.35535   1.7473         3739.42881     17.03606    6e-05  52479.33778   7.34695  2.65629   246470.30616  47.08123   19.1235  52560.60768    51.47472        44.4319    52.3648  87.27466   92.0    0.04498  -21.70157  0.98534 
  -92.20222  0.00473  1.71942     13.86362  1.39584  0.57386  49.84627  0.03798     0.02851  3666.10295   7164.68203  3.30607         3428.35252     17.14681    8e-05  52470.59778    3.9964  0.23581   718074.74851  46.08675  19.17778  52565.90351     51.5863       44.56616   42.66761   89.2141   98.0    0.05085  -21.72906  0.99487 
  -91.93766   0.0012  1.30979     13.96037  1.57294  0.72537  45.20788  0.04814     0.11512  3110.58104    7762.3483   4.4309         3391.28682     19.15891  0.00801  52470.86234    2.6093  0.05417   300746.31381  46.75295   19.1539  52568.55142    51.48948       44.49375   40.72817  83.39579   98.5    0.04106  -21.70978  0.99943 
  -86.97188  0.04931  1.22078      14.2207  1.71417  0.48653  53.73435  0.05454     0.03071  3993.52226   7098.51772  3.64666         3384.47626     16.19416    1e-05  52475.82812   5.11201  2.64955    85852.54291  47.39587   19.1252      52562.8    51.43633       44.39649   48.48592   89.2141   99.0    0.03862  -21.75576  0.97939 
  -75.59104  0.00392   2.5681     14.03991  2.05797  0.73878  26.55373  0.05936     0.03666  4002.61871   6086.19176  3.26587         3400.05965     18.18088  0.00084  52487.20896   2.53771  0.10413  1048701.96792  45.74241  19.09804  52550.01603    51.47062        44.4064   48.48592  96.97184   92.5    0.05875  -21.70776  0.99716 
  -84.10709  0.00399   1.7699     13.84446  1.84354  1.32425  17.13067  0.12228     0.23341  4071.14464   7708.43307  2.31488          3448.8502     19.86678  0.04088  52478.69291   1.69369   0.0683  1097599.17846  45.99816  19.08173  52550.01603    51.45571       44.40649   48.48592  93.09297   88.0    0.05181  -21.75138  0.99897 
  -96.82282  0.01518  1.37998     13.84581   1.6143  1.02206   23.7824  0.11398     0.30031  3527.69869   7717.78623  4.60289          3339.1846     19.13293  0.00754  52465.97718   1.76549  0.36096    580647.1894  46.43317  19.13128      52562.8    51.55735       44.51662   50.42536   89.2141  101.5    0.04044  -21.62958  0.99598 
  -82.96763  0.01138  1.40832     13.69409  1.30961  1.07395  26.46995  0.08886     0.02985  3889.60425   7197.09863  4.24088         3316.05237     17.18544    9e-05  52479.83237   2.38886  0.30127   986702.00579   46.0944  19.14248  52552.66394    51.47701       44.39604    52.3648  98.91128   94.0    0.04679  -21.73955   0.9952 
   -96.0442  0.00394  1.36473       13.753  1.54508  1.16883  23.02123  0.10989     0.03568  3737.09454    8032.3045  3.33771         3373.78469     19.91632  0.04582   52466.7558   1.91789  0.09067    833394.0441  46.26685  19.11405  52565.90351    51.57356       44.54794   50.42536  83.39579   97.0    0.04235  -21.71138  0.99894 
  -92.67212  0.14781  0.96707     14.02529  1.50678  0.67041  32.83409  0.06512      0.0682  3591.37376   7232.59838  2.67427         3359.36672     19.45903  0.01599  52470.12788   2.52623  4.85329   116468.78971  47.40977  19.07868  52552.66394    51.45806       44.41511   48.48592  91.15353  101.5     0.0416  -21.66194  0.97167 
   -85.5026  0.20299  1.42661     13.94893  1.70106  1.39289  42.65288  0.04167     0.24143  3783.17324   6570.25116   2.3914          3549.5118     16.26446    1e-05   52477.2974   3.64156  8.65793   406710.03241  46.58167  19.19898  52565.90351    51.52849       44.51421   40.72817  85.33522  106.0    0.04661  -21.71695  0.91316 
  -78.94304  0.06078  1.75861     13.88071  1.79944  1.55325  33.98257  0.06506     0.01989  3777.23308   6835.55931  4.46054         3332.52636     19.83361  0.03787  52483.85696   2.89222  2.06538   895119.02564  46.08176  19.13139      52562.8    51.47247       44.42178   58.18311  87.27466   96.5    0.04696  -21.74277  0.96903 
  -79.05638  0.10706  0.73365     14.07565  1.94426  1.30596  35.37571  0.06174     0.11293  3729.27285   8450.28854  1.50804         3951.77762     17.05688    6e-05  52483.74362   2.93481  3.78726    68587.72339  47.99037  19.10789  52550.01603    51.49697       44.44852   40.72817  95.03241   85.0     0.0501  -21.69148  0.99217 
  -92.69445  0.08454  0.95369     13.92165  1.61413  1.53623  73.68033  0.03422     0.02163   3758.7547   6645.17623  4.68069         3336.33217     16.60657    2e-05  52470.10555   6.20964  6.22907    195557.2021   47.2267    19.149      52562.8    51.45273       44.39892    52.3648  91.15353  106.5    0.03835  -21.68771  0.96869 
  -83.32269  0.00105  1.60746     13.86123  1.57728  0.91296  33.59104  0.05806     0.04853  3449.14286   8043.81526  3.28588         3460.23698     16.41169    1e-05  52479.47731   2.38382  0.03533   717051.01121  46.19892  19.13005  52563.25559    51.41464       44.37661   44.60705   89.2141   93.0    0.04818  -21.69084  0.99944 
  -99.67726   0.0069  1.26622     13.86476  1.83353   1.2276  54.78629  0.04913     0.03412  3653.48598   7817.08769  2.60036         3431.04467     19.99621  0.05507  52463.12274   4.36228  0.37821   508860.46195  46.62052   19.1092  52555.31185    51.50693       44.43858   44.60705  98.91128   98.0    0.03946   -21.6093  0.99707 
  -81.93611  0.17996  1.01393     14.26781  1.70522  0.52142   33.3129  0.08117     0.03811  4283.03442   6755.08002  3.02717         3457.15627     17.07428    7e-05  52480.86389   3.64538  5.99499    47423.15095  47.81262  19.10491  52557.95977    51.45984       44.38773   58.18311  89.78538   99.0    0.04263  -21.77917  0.96863 
  -87.91365  0.23889  2.13913     13.89711  1.66347  0.81697  18.24557  0.10691     0.07932  4167.96036   5723.07558  3.29534         3419.79217     18.36053  0.00127  52474.88635   1.89074   4.3586  1135244.13974   45.7743   19.0719  52552.66394    51.55256       44.49324   46.54649  95.03241  101.0    0.05071  -21.76296  0.89813 
  -94.40809  0.00733  1.48049      13.8854  1.88208  1.45862  52.55838  0.04883     0.20198  3454.06838    7234.2798   3.6307         3446.00305     19.68389  0.02683  52468.39191   3.74051   0.3851   649320.07674  46.39022  19.14006  52560.60768    51.51421       44.47684   54.30423  83.39579  101.5     0.0399  -21.67233  0.99608 
  -88.19604  0.00259  0.73027     14.06098  2.01166  1.15785  46.81153  0.05462     0.07287  3363.14312   8460.78042  1.90126          3796.5494     17.59951  0.00022  52474.60396   3.15843  0.12129    75226.76831  47.96907  19.15737      52562.8    51.45212       44.38379   60.12254  91.15353   90.0    0.04234  -21.73314  0.99975 
   -99.2807  0.15905  0.93162     14.00957  1.83392   1.2862  50.94108  0.04972     0.03056  3673.03062   6643.59178  4.51528         3268.60126     20.03823  0.06067   52463.5193   4.09963  8.10233   141427.13786  47.44322  19.14752  52565.90351    51.47778       44.45284   46.54649   89.2141  115.0     0.0375  -21.51402  0.96828 
  -93.44509  0.00162   0.9339     13.78331  1.56081  1.52327  80.12954  0.02662     0.12786  3212.31552     8462.427  1.58368         4077.48418     18.13353  0.00076  52469.35491   4.93238  0.12963   342881.15981  46.98645  19.16087      52572.8    51.43751       44.42385    36.8493  85.33522   90.0    0.04198   -21.6366  0.99931 
  -83.49275  0.00538  1.10959      13.8625  1.51532    0.917  43.31535  0.05891     0.05231  4578.89095    8975.9656  0.99815         3971.96456     16.98292    5e-05  52479.30725   5.41738  0.23317   326325.03904  46.84538  19.10712  52550.01603    51.45737       44.41441   46.54649  93.09297   74.5    0.05162   -21.7421  0.99816 
  -77.51327  0.02036  1.44163     13.85763  1.48967  0.93723  25.40457  0.07145     0.46651  3121.43326   8571.60646  3.54318          3492.4987     17.24829   0.0001  52485.28673   1.47655  0.51728   553810.76332  46.38086   19.0677  52555.31185    51.50316       44.47585   48.48592  87.27466   92.5    0.04764  -21.65691  0.99292 
  -93.27868  0.11608  1.48138     14.39516   1.9534  0.41487   42.3659  0.04478      0.1404  3140.54192   7946.41809  4.69978         3365.67301     18.03082   0.0006  52469.52132    2.4926  4.91794    64508.98124  47.40868  19.11435      52574.7    51.44408       44.46455   46.54649   73.6986  103.5     0.0431  -21.66963   0.9548 
  -95.54151  0.01848  1.19766     13.86978  1.75104  1.25988  47.82774  0.05471     0.07147  3693.02844   7712.54139    2.031         3635.96703     16.13576    1e-05  52467.25849    3.8911  0.88368   424839.73709  46.72725  19.12928  52563.25559    51.48445        44.4604    52.3648  77.57748   95.0     0.0405  -21.60607  0.99348 
   -96.6324   0.0014  1.08447     13.88684   1.7737  0.98375  67.40076  0.02916      0.1646  3259.32375   8365.84867  2.09535         3524.19581     20.34303  0.12239   52466.1676   4.27117   0.0942   326175.51579  46.93384  19.17524  52568.55142      51.526       44.48975    52.3648  81.45635   94.0    0.04584  -21.70595  0.99944 
  -91.97316   0.0166  0.84997     14.08961  1.68359  0.71003  40.08503  0.05968     0.43774  2868.97993   7354.95563  4.30527         3408.19452     16.57926    2e-05  52470.82684   1.96818  0.66538    74755.32308  47.76263   19.1545  52557.95977     51.4859         44.463   38.78874  91.15353  103.0    0.03869  -21.59406  0.99744 
  -88.72423  0.00884   1.6738     13.95349  1.66079  0.74091  74.49205   0.0263      0.1955  3372.56972   7967.21322  3.98626         3401.82704     19.75315  0.03147  52474.07577   5.05428  0.65871   535248.53295   46.3132  19.10175  52557.95977    51.52817       44.50456   44.60705  87.27466   95.0     0.0476  -21.74945  0.98967 
  -68.10829  0.06917  0.80969     14.25428  1.48051  0.46894  57.62308  0.04767     0.04957   4814.4065   7700.86072  2.28352         3502.18305     18.02218  0.00058  52494.69171   7.96726  3.98551    27944.39572  48.17633  19.15442  52571.19933    51.40891       44.38377    52.3648  81.45635   86.0    0.04692   -21.7314  0.98381 
  -86.37357  0.04059  2.17427     13.76477  1.76289  1.18645  26.06536   0.0642     0.16613  3889.23743   6719.15879  3.07738         3404.23422     19.48551  0.01699  52476.42643    2.3519  1.05795   2286301.0007  45.48131  19.10543  52555.31185    51.52192        44.4937   42.66761  91.15353  100.5    0.05317  -21.77024  0.97447 
  -72.13699  0.00241  2.33528     13.91246  2.05861  1.46717  15.48583  0.12241     0.03899  3872.97677   7189.40417   3.9005         3355.83527     16.71808    3e-05  52490.66301   1.38564  0.03725  1560086.43783  45.65259  19.15571  52565.90351    51.53588       44.50411   54.30423  83.39579   90.5    0.05291  -21.69683  0.99916 
  -92.59651  0.00514  1.27958     13.90021  1.75723    1.203  77.18753  0.03189     0.20229  3604.33652    8204.3832   3.3691         3436.23007     16.66456    3e-05  52470.20349   5.98171  0.39677   423015.11978  46.67318  19.13683      52572.7      51.515       44.51976    52.3648  79.51691   93.0    0.04298  -21.71001  0.99666 
  -96.96813  0.00158  1.85042     13.74276  1.84123  1.21776  70.86366  0.02071      0.1288  3700.97076   6518.49816  1.10793          3935.0775     19.83136  0.03768  52465.83187   5.79005  0.11218  1914048.22192  45.71746  19.09259  52563.25559    51.56758       44.53988    52.3648  81.45635  106.0    0.05249  -21.72222  0.99813 
   -96.9421  0.01543  1.03556     13.78247  1.48679  1.28222   56.3737  0.05455      0.0529  3663.90755   7910.23265  3.52468         3371.95425     17.60629  0.00022   52465.8579   4.51432     0.87   403166.36752  46.80526  19.14066  52571.19933    51.41784       44.42269   42.66761  80.77942  100.0    0.03638  -21.52368  0.99388 
  -85.77478  0.00446  1.00995     14.14309  2.00553  0.83228  19.01779  0.18561     0.04446  4895.72084   9423.12133  2.12376         3536.12438     16.41433    1e-05  52477.02522   2.71907  0.08485    98278.95126  47.57001  19.09944  52557.95977    51.47752       44.39999   62.06198   89.2141   78.5     0.0408  -21.81655  0.99964 
  -96.50493  0.11764  0.74554     14.16977  1.14572  0.32527  50.73441  0.04537     0.02695  3384.03648   7588.96618  2.97135         3456.79788     16.68986    3e-05  52466.29507   3.46577  5.96862    27057.32049   48.1507  19.09456      52562.8    51.43874       44.38026   50.42536  91.15353  107.0    0.03615  -21.47089  0.96913 
  -80.52263  0.32292  1.38655     13.71512  1.19945  1.37513  23.99394  0.06931     0.09455  3759.22313   6082.18318  4.50969         3240.25464     16.13208    1e-05  52482.27737   2.02267  7.74812   795108.04387  46.16353  19.14052  52555.31185    51.50297       44.43548    52.3648  95.60369  105.0    0.04932  -21.72089  0.87985 
   -87.9849  0.08329  0.85433     14.04129  1.61768  0.76555  26.03494  0.10334     0.01577  3727.08291   7370.28472  2.44554         3513.23702     19.30246  0.01115   52474.8151   2.15736   2.1685    90653.71676   47.6571  19.14697  52579.14307    51.48371        44.5235    36.8493  77.57748   98.0    0.03469  -21.71235   0.9911 
  -87.67418  0.15946  1.02245     14.03027  1.86496  1.45036  28.89078  0.09184     0.02497  3420.89719   6404.43157  4.92909         3288.99118     16.53786    2e-05  52475.12582   2.01682  4.60689    157482.6523    47.323  19.14871  52560.60768    51.47373       44.39835   60.12254  91.72481  108.0    0.03321  -21.67196  0.97852 
  -79.88685  0.00573  1.41542     14.05195  1.83131  0.82252   73.5235  0.03147     0.39902  3655.47585   7982.63896  2.54184         3663.84253     18.93637   0.0048  52482.91315   5.86059  0.42128   268187.82186   46.8014  19.14096  52565.90351    51.55763       44.55137   40.72817  83.39579   89.0    0.04665  -21.69441  0.99593 
  -99.88824  0.01695  1.22826     13.77108  1.65704  1.54858  51.97676  0.05041     0.06801  3807.72405   7961.65925  2.77302         3361.09552     20.11647  0.07264  52462.91176   4.49539  0.88114   666130.58846  46.48604  19.14187  52557.95977    51.51641       44.47108   48.48592  91.15353   96.0    0.04176  -21.64656  0.99256 
