 log(Bfield)      Mns    Pspin  cutoff_power  cutoff_wavelength  fnickel    kappa  kappagamma   mejecta  log(nhhost)  temperature  texplosion  thetaPB      vejecta      A_V        MJD_0   log(KE)      M_Ni  Peak_mag     Peak_MJD 
    14.10653  2.11653  3.31566       0.49058         5690.68532  0.03343  0.08882     0.15773  14.37865     18.04041   3234.91806   -31.44534   0.9036   3637.39821  0.00061  54979.18766  51.75425   2.40551  19.73294  55069.46263 
    14.00662  1.93532  2.89092       4.80452          2363.8595  0.00648  0.04913      0.0127  25.52348     19.93744    3960.1449   -10.18999  0.94173   4733.26704   0.0481  55000.44301   52.0304   0.52001  19.22636    55081.227 
    13.58907  1.36567  2.38309       2.26795          2140.1804  0.05147  0.02811     0.01106  55.77238     20.29565    5782.0506   -14.27491  0.85177   9059.29233  0.10974  54996.35809   52.6515   4.71278  19.42249  55089.30274 
    14.10788  1.71369  1.81369       2.24409         3050.69053  0.00893  0.11517     0.05678  16.69969     16.67529   4828.69493    -5.23745  0.70941   5118.11592    3e-05  55005.39555  52.06376   0.66179  19.41338  55072.76932 
    13.78512  1.64399  3.12218       2.94329         2504.98533  0.08216   0.0734     0.01507   8.32577     17.65108   5928.43232   -13.73982  1.21285   4412.11007  0.00025  54996.89318  51.87144   5.26255  19.18923    55076.076 
    14.11254  1.86081  3.02962       0.81255         3176.94373  0.01559  0.08328     0.02677   9.24657     18.13514    3037.6767    -9.72952  0.41624   6627.48316  0.00076  55000.90348  52.23501   1.02198  19.13677  55079.38268 
    14.66553  1.87751  2.41666       4.10556         2033.87702  0.09831  0.04215     0.26786  48.28572      16.3776   4319.35368    -9.85706  0.20049   7306.32374    1e-05  55000.77594  52.45471   8.79571  19.10067  55069.46263 
    13.93173  1.68995  2.39994       4.04755         2315.94184  0.02849  0.04868      0.0135   26.6756     20.28964   4773.05814    -9.61039  1.31908   4636.58319  0.10823  55001.02261  52.01592   2.30474  19.93475  55069.46263 
    13.90268  1.50096  1.89344       2.35994         2386.65426  0.00294  0.23885     0.09959   8.83802     18.37071   5181.29181   -20.30195  0.72261   5228.39294   0.0013  54990.33105   52.0247   0.19068  19.27224  55085.99605 
    13.87977  2.04016  2.36731        1.7432         2302.02966  0.04405  0.13467     0.03918  26.55596     18.57887   3091.39176   -19.42692  1.42543   7577.78758  0.00211  54991.20608  52.44226   3.56015  19.37865  55066.15595 
    14.05347  1.69747  1.67108       0.23549          2566.8191  0.40746  0.15343     0.03304  10.02785     19.72714   3495.76618   -11.02823  1.56911   4567.57107  0.02964  54999.60477  51.91939  27.19382  19.92337    55076.076 
    13.89005  1.82035  2.91076        1.0855         2358.45204  0.26211  0.06196     0.01281   6.45254     19.65807   5533.19965   -20.38294  0.50921   6380.34695  0.02528  54990.25006  52.16609  15.82229  19.16189    55072.574 
    13.76373  1.47373   2.7068        3.1189         2240.94551  0.18509   0.0472     0.01432  27.52042     16.31347   6533.72712    -6.27817   0.6918   9108.98323    1e-05  55004.35483  52.60487  15.05537  19.70374  55089.30274 
    13.75548  1.47927  2.67451       1.53584         2841.28779  0.10023  0.10496     0.20388  11.77065      18.3692   3288.17778   -12.19673  0.98973   7084.40591   0.0013  54998.43627  52.31545   6.92159  19.60083  55069.46263 
    14.66765  1.78611  1.13409       4.08488         2030.59098  0.02795  0.18787     0.21174   15.2063     20.99012   5425.88042    -9.89116  0.12987   6444.06317  0.54306  55000.74184  52.25585   2.03372  19.31575  55066.15595 
    13.88268  1.68277  2.93448       2.94754         2221.94469  0.00939  0.05827     0.01936     12.68     19.04615   4745.40137   -12.72658  0.68678   5694.30498  0.00618  54997.90642  52.13244   0.65873  19.23266  55079.38268 
    13.85229  1.95157  3.26868       2.43018         2876.26904  0.13843  0.23808     0.13202   3.18996     20.69149   6289.93663   -12.05391  0.63491   8586.33811  0.27303  54998.57909  52.34374   6.94592  19.49475    55076.076 
    13.94817  1.64054  2.85747       1.25523          2734.1693  0.18645  0.05263     0.12434  37.30711     16.75572   3103.91402   -10.20803  0.82726  10898.66695    3e-05  55000.42497  52.78356  15.98652  19.45605    55076.076 
    13.90785  1.52346   1.6067       4.03175          2357.7509  0.01155   0.0959     0.07411  17.14854     18.49905    3658.7335    -5.72532  1.47381   3751.63807  0.00175  55004.90768  51.79622   0.86063  19.45433  55085.99605 
    13.52719  1.85768  2.50972       3.89927         2653.83237  0.00131  0.22603     0.01676   6.12226     16.45375   7979.29586    -20.3388   0.9707   6147.29953    2e-05   54990.2942  52.12827   0.07781  19.47011    55072.574 
    13.79742  1.69274  2.85142       3.63767          2528.2414  0.02951  0.10828     0.07473   9.08383     18.84384   3822.91531    -9.25024  1.34449   6321.21262  0.00388  55001.38276  52.19221   1.92705  19.35739  55069.46263 
    13.84059  1.53479  2.06909        1.3648          3479.2951  0.00104   0.0652     0.01688  27.39431      17.9578    6167.7497   -13.50254  1.27574   4185.53166   0.0005  54997.13046  51.92908   0.08419  19.28618  55082.68937 
    14.52502  1.55121  2.18646       3.59758         2426.77906  0.00432  0.08588     0.01106  13.00779     19.60997   4499.54822   -12.04591   0.1657   3921.19256  0.02263  54998.58709  51.81067   0.30435  19.29354  55079.38268 
    14.03818  1.87188  1.59354       0.90723         5645.92611  0.00236  0.11245     0.33531   18.5229     19.96741    5505.9056    -3.68001  1.04242   4754.94343  0.05154  55006.95299  52.00852   0.17864  19.24847  55062.84926 
    14.19216  1.95285  3.57411       3.69975         2244.45161  0.08556  0.07599     0.02534   7.22698     18.78402   4289.14318   -11.81964  0.39565    5832.6134  0.00338  54998.81336  52.09977   5.30509  19.35659    55072.583 
    14.11731  1.36983  1.49069       3.62484         2456.83258  0.00623  0.16563     0.03889  16.55696     20.13445   4572.05349    -4.54364  0.42539   5958.02889  0.07571  55006.08936  52.19502   0.46108  19.44059  55089.30274 
    14.79993  1.98637  2.35877         0.133         3648.79271  0.41751  0.03942     0.07301  47.83213     19.01118   3080.05476    -1.82364   0.9902  12070.40745   0.0057  55008.80936  52.89009  37.29785  19.12881  55082.68937 
     13.7787  1.40268  2.83178        3.3065         2291.59227  0.27264  0.08374     0.03827  14.27926     17.18295   6211.30112    -11.2136  0.95529   6207.34757    8e-05   54999.4194  52.21788  19.58989  19.21159  55082.68937 
    14.03004  1.10938  2.27395       3.16006         2300.68195  0.25034   0.2673     0.16513   4.34137     18.49179   4357.70207    -7.28721  0.31713   7145.17524  0.00172  55003.34579  52.22111  13.67658  19.24926  55069.46263 
    13.94624  1.64118  1.93172       2.50637         2841.21833  0.01297  0.08996     0.11683  14.09166     19.39401   4596.09984    -4.98589  1.37058   3754.72865  0.01376  55005.64711  51.78006   0.92931  19.69634  55069.46263 
    13.95749  1.60212  1.85949       2.39901         3036.97098  0.01381  0.05334     0.01897  46.84761     19.28531    3676.6167    -4.85884  0.95684   5606.87316  0.01072  55005.77416  52.22262    1.2294  19.21553    55076.076 
    13.38149   1.3732  2.07753       2.75001         2359.20628  0.00371  0.12396     0.01593    8.9796      16.4298   4164.98851   -11.19108  0.83412   7085.34005    1e-05  54999.44192  52.29022   0.24186  19.50552  55066.15595 
    14.33149  1.41399   2.6809       1.09031          3373.1856  0.05448  0.17084     0.14394  11.91519     17.89397   3862.89206    -7.78537  0.22654   7288.82783  0.00044  55002.84763  52.34126   3.77187   19.2091  55095.91611 
    14.70444  1.57285   0.7821       1.92839         2438.35402   0.0016  0.06071     0.01376  53.93223     19.94031   6795.38086   -11.22025  0.19147   4044.55659  0.04842  54999.41275  51.94875   0.14613  19.57444  55079.38268 
    13.99069  2.08319   1.6267       1.89922         2042.51728  0.00406  0.07446     0.12678  24.22009     20.74574   4950.10911   -13.29868  1.21642   4401.27781  0.30936  54997.33432  51.96311   0.32275  19.60232    55072.574 
    14.00543  1.92534  2.68777       2.13768         3334.05176  0.01212  0.03629     0.01143  35.99536     18.18311   4116.22131    -6.55863   1.4626   4823.15701  0.00085  55004.07437  52.07285   1.03298  19.49332  55059.54258 
    13.93367  1.62943   2.2399       1.56492         3528.02153  0.01405  0.03555     0.36815  41.58904     18.91714    3901.5766    -7.15676   1.1927   4215.44055  0.00459  55003.47624  51.96639   1.22702   19.3393  55072.76932 
    14.74358  1.83152  1.20435       0.03747         5920.99268  0.09263  0.13382     0.02941  32.67112     20.45344   3202.15974    -10.5231  0.18598   6525.05847  0.15782   55000.1099  52.32815   7.76426  19.57711    55076.076 
    14.05487  1.73101  2.80791       3.40514         2761.68231  0.00135  0.19206     0.04372   6.67171     18.39273   9031.45018    -5.60718  0.46682   6195.87448  0.00137  55005.02582  52.14407    0.0821  18.98471    55072.574 
    13.85604  1.69162  2.94118       0.94296         2698.51404  0.01224  0.07619     0.03105  19.78432      16.4946   6711.97148   -18.23811  0.90807   4725.36863    2e-05  54992.39489  52.00854   0.93688  19.43319  55072.76932 
    14.51152  1.71184  1.36727       3.36269         2093.31614  0.20864  0.16449     0.05927   16.6412      16.0958   4594.63535   -12.25409  0.33346   5213.59772    1e-05  54998.37891  52.07952  15.45271  19.72121  55066.15595 
    14.29618  2.16692  1.64629       1.44082         3078.75786  0.02065  0.05741     0.02857  24.71027      20.0989    7357.3578   -27.16812  0.83673   2952.98941  0.06976  54983.46488  51.61806   1.64783  19.63092    55076.076 
    13.72191  1.34624  2.53579       0.91247         2381.71875  0.31641  0.11961     0.34296  14.67952     19.42026   3689.72557    -9.48775  0.85709    11112.589  0.01462  55001.14525   52.7261  22.86128  19.52521  55072.76932 
    13.58343  1.88717  2.84262       4.47416         2104.58436  0.02157  0.13616     0.01352   7.51317      17.5517   8227.99769   -14.72687  1.13475   6258.70645   0.0002  54995.90613  52.16493   1.34933  19.35594  55059.54258 
    14.52632  1.94469  2.64595       0.07424         2528.17254  0.10811  0.27692     0.30231   7.10471     19.12263   4746.67464   -20.17725  0.24123   6368.40031  0.00737  54990.45575  52.17437   6.67649  19.64115  55066.15595 
    13.81249  1.79732  2.79932       2.34956         2161.62629  0.00246  0.19356      0.4256  10.78532      18.8452   5104.89818    -19.3195   0.9874   6845.78919  0.00389   54991.3135  52.27766   0.16646  19.48468  55062.84926 
    14.57271   1.7197  3.05844       4.69639         2274.06799  0.10768  0.12308     0.02235  11.89828     17.02414    3715.7783    -9.41577  0.14012    6322.4579    6e-05  55001.21723  52.21759   7.45264  19.29842    55072.574 
    13.99973  1.78397  3.07754       1.70866         3901.28295  0.11953  0.08902     0.07782   7.38226     17.21783   6659.16388    -4.56795  0.52315   7052.28177    9e-05  55006.06505  52.26685   7.44817  19.37472  55079.38268 
    14.34199  1.87693  1.18152       2.10728         3574.64733  0.00115  0.02767     0.09206  49.42734     17.13061   6744.65723     -2.9719  0.71901   2968.91165    8e-05   55007.6611  51.67414   0.10326  19.10555    55076.076 
    13.54342  1.97771   2.7338       1.09932         3880.82444  0.00959  0.17584     0.03319   7.66375     20.57738   9143.53119   -14.74765  1.26334   7795.46298  0.20995  54995.88535  52.35763   0.60284   19.6233  55046.31584 
    13.62149  1.40811  2.16639       0.17542         3988.88922   0.0658  0.20817     0.03014   4.54143     18.96236   3151.88101   -14.65002  0.43367   7648.78764  0.00509  54995.98298  52.28542   3.63777  19.43607  55069.46263 
    14.13989  1.62524  0.89874       4.38298         2361.26353   0.1611  0.07438     0.19402  26.43375     20.18671    3055.3234    -4.08365  1.00102   4704.32787   0.0854  55006.54935  52.02781  13.01018   19.4413  55079.38268 
    14.80203    1.964  1.60401       3.77876         2471.49164  0.03337  0.02166     0.14765  61.13788     17.05262   3082.01138     -3.8238  0.27177   3511.32618    6e-05   55006.8092  51.83451   3.09964   19.5912    55076.076 
    13.79654  1.57519  2.85524       4.92251          2493.1274  0.00958  0.04919     0.02361  14.61553     19.65015   4692.52808   -10.79512  1.54809   4555.76389  0.02482  54999.83788  51.95122   0.69153  19.37835  55059.54258 
    14.16178  1.70708  1.46294       4.90049         2366.37052  0.00157  0.11172     0.18547  21.39115     18.30499    3973.0103    -5.16191   0.6683   4882.60492  0.00112  55005.47109  52.04333   0.12164  19.50707  55069.46263 
    14.75326   1.6874   5.0799       4.41959         2016.51721  0.29808  0.02367     0.19248  43.97423     18.17183   3043.55429   -12.36571  0.91135   8495.45854  0.00083  54998.26729  52.57907  26.26647  19.57821    55072.574 
    13.55457   1.6923   2.6847       1.26633         2494.82167  0.00233  0.12154     0.02804   6.21856     16.21133   5620.60935   -12.29427  0.62357   7879.58263    1e-05  54998.33873  52.34555    0.1396  19.36998  55079.38268 
    13.47574  1.72759  2.79071       0.64483         4236.08729  0.28489  0.06185     0.01072  12.26031      18.2559   6552.21825    -8.01966  1.00399   6849.40101    0.001  55002.61334  52.28984  19.84142  18.31033  55095.91611 
    13.77123   1.7587  1.15498       0.88448         5353.59582  0.00838  0.25979     0.01262  16.64563     20.89017   6790.52454    -4.53623  1.43932   6467.43475  0.43142  55006.09677  52.26673    0.6206  18.97864  55092.60942 
    13.73081  1.72944  2.37084       0.35156          3654.4574  0.05607  0.12709     0.02329  11.98505     20.43339   4944.89237   -20.05705  1.25968   5455.49801   0.1507  54990.57595  52.09015   3.88663  19.30463    55076.076 
    13.92615  1.80082  2.81729       1.58362         2904.97279  0.00377  0.12804      0.3152  11.59957     19.37889   4964.40643   -13.46725  0.83788   7471.63387  0.01329  54997.16575  52.36034   0.25924  19.61537  55079.38268 
    14.46738  1.78521  1.30922       0.09708         2117.57712  0.18344  0.06441     0.02038    40.772     18.62789   3498.77298   -15.89098  0.43889   6585.44674  0.00236  54994.74202  52.35244  15.96404  19.72011    55081.227 
    14.13555  1.82848   2.4995       0.13166         3411.32098  0.19002  0.22371      0.1217  11.25481     18.69114   5469.67263    -7.66028  0.48891   8298.92465  0.00273  55002.97272  52.44879   12.9989  19.25526  55079.38268 
    15.09722  1.98537  1.32521       4.01354         2109.97369  0.14541  0.13701     0.37715  16.28995     16.93566   8067.88618   -13.05465  0.13403   3897.15002    5e-05  54997.57835  51.82492  10.72498  19.47204  55082.68937 
    14.04737  1.85615  1.65942       4.57075         2053.19989  0.00522  0.26804     0.12957   9.65152     18.20644   3846.36976    -5.28326  1.18908   6000.63409  0.00089  55005.34974  52.15279   0.34524  19.41342    55081.227 
    14.09901    1.484  2.22728       3.18849         2844.37429  0.00223   0.0369     0.29673  27.06778     20.52686   9143.62372    -8.45459  0.47245   4993.88323  0.18689  55002.17841  52.08153   0.18074   19.1298    55072.583 
    13.86424  1.65614  1.77865       4.88986         2114.47343  0.09245  0.19164     0.42546  18.39729     16.29386   4232.70686    -4.33177  1.53168   8188.46657    1e-05  55006.30123  52.48007   6.98177   19.2393    55076.076 
      13.714   1.5808  2.94792       0.02936         3240.35036  0.00765  0.13364     0.02161  12.27582     18.26167   4928.63359   -25.62055  0.70266   6680.05528  0.00101  54985.01245   52.2682   0.53263   19.4514  55095.91611 
    13.71129  1.65305  2.63643       0.58743         2242.76703  0.17897  0.09745     0.43512  42.38606     17.93776   3108.59944    -5.52662   1.2832  15217.35941  0.00048  55005.10638  53.08274  15.67513  19.54277  55069.46263 
    14.86535  1.78317  3.11692       3.27263          2416.8283  0.00184  0.02302     0.03817  44.51733     16.17642   5897.19129   -13.50634  0.10596   4092.01581    1e-05  54997.12666  51.94544   0.16255  19.30398  55095.91611 
    14.11634  1.53167  1.84904       4.13675         2374.34019  0.00224  0.04151      0.0361   42.4962     19.25122   7329.19068    -4.65418  0.59798   5039.50035  0.00991  55005.97882  52.12303   0.19656  19.15652  55082.68937 
    14.44768   1.5587   2.8045       3.00175         2604.11325  0.32834   0.1564     0.16115   8.61174     19.59151   4077.63017    -9.94924  0.19657   5966.02067  0.02169  55000.68376  52.13682   21.1904  19.06157  55062.84926 
    13.86938  1.35391  1.52034       1.84251         3938.22733  0.00524   0.0172     0.07767  74.19664     19.89691   3400.00715   -11.67941  1.20752    2756.0643  0.04382  54998.95359  51.63704   0.50092  19.43294  55089.30274 
    13.88784  1.73095  2.88935       1.69358         2367.79533  0.01279  0.02366     0.07214  77.86736      17.4255   3575.19512   -11.61408  1.09009   6848.99217  0.00015  54999.01892  52.43088   1.23258  19.30175    55081.227 
    14.20651  1.67639  3.15897       2.40411         2940.09649  0.41176  0.16973     0.14668   7.92331     16.79939   4527.88017   -10.92044  0.73808   4178.82775    4e-05  54999.71256  51.81937  26.07826  19.81897    55076.076 
    14.27927  1.65981  1.93648       2.72502         2723.84498    0.026  0.22078     0.10202   8.78222     16.61886   5844.47128    -2.83188  0.42839   5016.33072    2e-05  55007.80112  51.98812    1.6851  19.42105    55076.076 
    14.55491  1.64487  1.33601       4.32273         2703.75894  0.00446  0.11025     0.02097  15.86009     17.22959   4391.57007    -7.67687  0.29869   3509.41774    9e-05  55002.95613  51.73162   0.32732  19.19263  55066.15595 
    14.02555  1.89133  2.89071       2.57294         2367.02783  0.16285  0.20247     0.25816   6.78775     16.99242   3076.68041    -9.02499  1.17649   5506.55888    5e-05  55001.60801   52.0434    9.9494  19.44909  55079.38268 
    14.46257  1.80542  2.20852       3.13908         3025.77381  0.01782  0.02822     0.07011  42.02891     17.23978   3116.12885    -9.37559  0.34737   3503.64347   0.0001  55001.25741   51.8065   1.55867  19.35259    55076.076 
    14.04027  1.83084  1.99395       3.95945         2028.37398  0.02151  0.11328     0.06125  18.17332     20.86231   6902.95466    -6.88696    0.524   7293.12723  0.40461  55003.74604  52.37848   1.62074  19.16521    55081.227 
    13.37879  1.81706  2.38826       2.52275         2285.04441   0.0138  0.23321     0.02058   4.00086     18.85565   3271.22983   -15.41492  0.90563   6966.81681  0.00398  54995.21808  52.18966   0.73756  19.40463  55062.84926 
     13.5734  1.34349  2.59553       2.57959         2256.99479   0.0289  0.16251     0.40302   5.35946     19.71104   4076.69363    -9.94476   1.2322    8656.1286  0.02856  55000.68824   52.4113   1.66701  19.27558  55082.68937 
    13.98596  1.72103  2.50641       1.16525         2999.60135   0.0355  0.04444     0.36341  18.46014     20.33583   6691.54693    -4.07617   0.7991   5046.26185  0.12038  55006.55683  52.05989    2.6828  19.25247    55076.076 
    14.75709  1.26468  0.75662       2.69529         2344.47712  0.00193  0.09815     0.02463  34.36692     18.36927   3579.62259    -8.35243  0.10615    4348.7876   0.0013  55002.28057   51.9795   0.16343  19.40585    55076.076 
    13.75659  1.70106  2.27888       0.54443         4819.07981   0.0102   0.1774     0.16912  15.71948     20.13254   3848.58699    -9.00643  1.49082   8105.87577  0.07538  55001.62657  52.45798    0.7474  19.34923    55072.574 
