 texplosion  fnickel    Pspin  log(Bfield)      Mns  thetaPB   mejecta    kappa  kappagamma      vejecta  temperature    alpha  cutoff_wavelength  log(nhhost)      A_V         MJD0   kenergy  mnickel           TSD   log(L0)  Peak_mag     Peak_MJD  log(E_rad)  log(Peak_lum)  Rise_Time    E_fold  tau_1  delta_m15     r_peak     frac 
  -11.97149  0.49371  0.72691     14.84326  1.77756  1.38408  12.80935  0.07831     0.01932  18590.59414   5968.98797  4.40146         3998.84699     17.97607  0.00053  55913.56851  26.40832  6.32406    1795.08512  49.54162  18.21394  55934.69359    50.90631       44.28261   13.89666  33.74902   32.0     0.3743  -21.72329  0.99918 
  -31.41231   0.4763  1.32708     14.64226  1.84458  0.72586  11.78291  0.16493     0.01521  13321.29328    6421.0215  1.50395         4553.32051     20.27522   0.1047  55894.12769  12.47305  5.61223   15667.11299  48.09396  18.01714  55932.22197    51.03357       44.48073    9.92618  27.79331   42.0    0.27075  -21.12355  0.96961 
   -16.5094   0.4562  0.70864     14.85662  1.81615  1.07808  15.90218  0.07414     0.01374  17916.40987   6201.44121  4.28989         4162.05412     19.25772  0.01006   55909.0306   30.4499  7.25463    1638.94826  49.61258  18.15344  55927.27873    51.00321        44.3176   17.86713  39.70473   32.5    0.37751  -21.82065  0.99901 
  -11.47529  0.48006  0.88515     14.79696  1.55126  1.02008  13.36182  0.05686     0.01487   17013.7525   6387.23365   2.6779         4437.92375     18.83969  0.00384  55914.06471  23.07241  6.41451    2874.88871  49.10687  18.32168  55932.22197    51.04657       44.35589   19.85236  39.70473   31.5    0.42639  -21.79827  0.99702 
  -37.80244   0.4643  0.77642     14.68282  1.51927  0.46878  13.71402  0.13958     0.01375  13448.15966   5960.23124  1.02264         4989.45723     16.94147    5e-05  55887.73756  14.79509  6.36746    3664.46666  49.10628  18.14381  55934.69359    50.98929       44.36246   13.89666  33.74902   43.5    0.29083  -21.04669  0.99055 
  -16.24562  0.43333  0.70948     14.79645  1.60838  1.30902  16.77916  0.06081     0.01575  18813.01162   5905.27288  4.25681         4022.52034     18.58507  0.00214  55909.29438  35.42533  7.27084    1919.45403  49.49018  18.14505  55934.69359    50.96459       44.34907   13.89666  31.76378   33.0    0.33514  -21.88054   0.9989 
  -22.41458  0.45767  1.09033      14.7684  1.90816  1.04945  12.12212  0.11951      0.0247  16460.91145   6253.70731    3.731         4152.66864     18.65638  0.00252  55903.12542  19.59357  5.54793    6119.84938   48.6876  18.24713  55934.69359    50.90948       44.25366   17.86713  35.73426   41.5    0.29536  -21.34391  0.99365 
   -9.42538  0.49368  0.78419      14.9733  1.62665  0.63233  13.41403  0.06183     0.01859  20188.36461    6353.4581  2.40945         4464.79876     19.59668  0.02195  55916.11462  32.61285  6.62223     1050.3862  49.66995  18.25544  55927.27873    50.97155        44.2542   20.44103   41.1013   29.0    0.51209  -21.92056  0.99824 
  -11.93595  0.41023  0.70365     14.93398  1.95308   1.0945  16.32679  0.08447     0.01487  19791.84527   6066.99309  3.78269         4163.21423     16.80104    4e-05  55913.60405  38.15052  6.69771    1216.98549  49.77957  18.17415  55934.69359    50.99957        44.4155   13.89666  29.77855   32.5    0.38171  -21.69716  0.99939 
   -7.66622  0.46755  0.73857     14.88658  1.56946  1.06247  14.22461   0.0412     0.01712  19451.23877   6324.80381  2.69398         4349.43294      19.5963  0.02193  55917.87378  32.10421   6.6507     1340.2352  49.60064  18.24229  55932.22197     50.9093       44.25782   17.86713  33.74902   27.5    0.51222  -22.02376  0.99905 
  -48.85268   0.4122  2.29522     14.41111  2.18833   1.1986   6.93882  0.32741     0.04396  11782.94816   5989.54339  4.44271         3896.80182     20.00427   0.0561  55876.68732   5.74673  2.86017  161194.40392  46.67996  18.26287  55934.69359    50.96727       44.35451   13.89666  31.76378   48.5     0.2607  -20.82464  0.94811 
  -41.06278  0.48772  1.08317     14.70691  2.11212  0.76639  13.89908  0.16991      0.0154  13903.23347   5840.46665   1.9688         4284.26851     18.68557  0.00269  55884.47722  16.02673  6.77885    8873.73075  48.57607  18.28529  55934.69359    50.91681       44.27877   15.88189  33.74902   47.0    0.27743  -20.95103  0.98616 
  -15.19018  0.49357    0.911     14.77999   1.6151  0.92343  13.93301  0.06875       0.013   16399.0474   6389.21367   3.2341         4348.44395     18.66826  0.00259  55910.34982  22.35164  6.87691    3428.18325  49.02294  18.26216  55937.16521    50.90573       44.27965   13.89666  33.74902   30.5    0.39871  -22.06159  0.99561 
  -26.03237  0.46723  1.22694     14.89812  2.00172  0.55096  12.68083  0.16754     0.01313    14450.402   6140.99035   2.0975         4396.64116     19.44223  0.01538  55899.50763  15.79555  5.92487    4473.24565  48.74198  18.33027  55927.27873    50.98339       44.27122   17.86713  41.68997   40.5    0.29702  -21.13231  0.98505 
   -9.92083  0.47963  0.77021     14.84107  1.51633  0.92623  13.13134  0.07059     0.01764   18563.6876   6302.67716   3.6658         4193.61184     19.39138  0.01368  55915.61917  26.99384  6.29812    1736.56084  49.43673  18.22759  55934.69359    50.91981       44.28289   15.88189  33.74902   31.5    0.46761  -21.75917  0.99844 
   -6.61034  0.49463  0.79574     15.00161  1.86677  0.88324   11.6215  0.07439     0.02385  20556.36542   6278.20897  3.37384         4271.32135     18.52883  0.00188  55918.92966  29.29422  5.74839    1089.52042  49.70116  18.21809  55922.33549    51.01966       44.29495    21.8376   43.6752   26.0    0.45128  -22.23101  0.99917 
  -16.19209  0.48903   0.9003     14.80757  1.75801  1.04235  14.18949  0.08854     0.01305  17133.75342   6371.55448  3.65134         4185.91061     18.50662  0.00178  55909.34791  24.84843  6.93911    3209.74353  49.09862  18.19195  55932.22197    50.99991       44.36397   14.48532  35.14559   31.0    0.31941  -21.93867  0.99681 
  -21.21446  0.49223  0.76507     14.61302  1.47065  1.10565   11.4317   0.1567     0.01801   15047.0063   6178.01872  4.77647         3944.23256     19.22318  0.00929  55904.32554  15.43967  5.62705    4750.00745  48.99226  18.20178  55929.75035     50.9756        44.3061   17.86713  35.73426   41.0    0.26079  -21.18368  0.99693 
  -18.11387  0.46552  0.93963     14.66345  1.60384  1.18834  13.86479  0.09274     0.01376    15442.178   6143.76614  4.14909         3993.84628     19.98217  0.05332  55907.42613   19.7223   6.4544    6194.16674  48.73611  18.07808  55929.75035    50.97655       44.32884   15.88189  35.73426   36.0    0.29312  -21.59426  0.99417 
  -43.15567  0.48681   1.2503     14.43026  2.02103  1.20735    11.954  0.29208     0.01321  13454.94397   5889.49901  2.16383          4301.0179     19.04916  0.00622  55882.38433  12.90934  5.81928     40449.083  47.77348  18.40457  55934.69359    51.04244       44.39381   15.88189  35.73426   49.5    0.26835   -20.7131   0.9718 
   -8.81089  0.47926  0.92894     14.94326  1.58692  0.74994  11.97352  0.06253     0.02129  17587.65067   6087.77545  4.59442         4011.57082     18.19224  0.00086  55916.72911  22.09351  5.73837    1651.29465   49.3156  18.14118  55934.69359    50.95489       44.33517   15.88189  31.76378   32.5    0.42392  -21.82059  0.99742 
  -13.28902  0.47037  0.91421     14.77083  1.68717  1.31652  14.36668  0.05324     0.01095  15998.86308   6630.16259  2.69181          4495.9137     18.60074  0.00222  55912.25098  21.93623  6.75767    3761.84109  48.99852  18.18205  55934.69359    50.92788       44.29677   15.88189  31.76378   30.5    0.43589   -21.9195  0.99688 
  -18.36963  0.47584   0.9681      14.8685  1.77375  0.73787  14.98502  0.09581      0.0106  15649.63623   6078.24286  4.08717         4176.35734     19.01142   0.0057  55907.17037  21.89238  7.13046    2828.46092  49.09435  18.16946  55937.16521    50.92856       44.33937   13.89666  29.77855   34.5    0.30834  -21.62183  0.99461 
  -19.64121  0.49312  0.71929     14.74897  1.29268  0.57915  11.80839  0.14247     0.02678  18210.40087   5915.55387  3.56935         4033.32392     19.49192  0.01724  55905.89879  23.35914  5.82296    1973.22182  49.37136  18.21153  55929.75035    50.97637       44.27717   20.44103   41.1013   38.5    0.29718  -21.40363  0.99646 
  -15.32257  0.44473  0.94715     14.83024  1.94061  1.19276   14.6502  0.07476     0.01591  17636.00979   6233.25175  2.61413         4324.38739     18.20794   0.0009  55910.21743  27.18137  6.51543    3532.74878  49.05583  18.29482  55937.16521    50.88683       44.24023   15.88189  33.74902   32.0    0.31509  -21.85277  0.99714 
  -11.24962  0.49619  0.97228     14.90237  1.93648  1.31081  14.59944  0.04949     0.01398  17988.69395   5976.56706  2.03757         4420.64818     16.17733    1e-05  55914.29038  28.18141  7.24408    2664.82186   49.1546  18.16421  55934.69359    50.92768       44.30899   15.88189  31.76378   31.0    0.45765  -21.87528  0.99765 
  -11.55425  0.45636  0.87568     14.68322  1.46773   1.1548  13.59749  0.05443     0.01603  16789.19591   6384.10168  2.29934         4360.00742     20.01476  0.05748  55913.98575  22.86365  6.20529    4494.87457  48.89808  18.24682  55927.27873    50.99613       44.28742   17.86713   43.6752   27.0    0.45954  -22.48294  0.99598 
  -12.66666  0.42936  0.70108     14.82245  1.65639  1.33868  15.51259  0.06847     0.01586  18720.96331   6001.52697  4.68388         3952.92321     18.72564  0.00295  55912.87334  32.43157  6.66042    1712.44287  49.56286  18.29132  55929.75035    50.94801       44.25629   17.86713  39.70473   32.0    0.40659  -21.90007  0.99916 
  -36.41913   0.4152  0.99191     14.39536  1.52379  1.29152  14.52118  0.18666      0.0159  14601.99494   5984.34275  2.85692         4170.92005     17.76881  0.00033  55889.12087  18.46943  6.02924   22540.68547  48.10585  18.25353  55924.80711    51.00727       44.27188    21.8376   43.6752   48.5    0.26912  -20.87774  0.98172 
  -15.98628  0.49675  0.98167     14.57809  1.56054  1.22113  12.65453  0.07228     0.01481  15765.35301    6356.5369  1.24123         4871.33971     19.22199  0.00926  55909.55372  18.76206  6.28616    9746.36446  48.48935  18.08179  55934.69359    50.97661       44.46691    9.92618  23.82284   31.5    0.39043   -21.8216   0.9905 
  -26.13833   0.4794  1.04008     14.72775  1.49952  0.56054  13.18412  0.11999     0.01253  14126.53205   6225.64585  2.81116         4364.37971     19.10983  0.00715  55899.40167  15.69456  6.32045    5277.06971  48.68827  18.21377  55937.16521     50.8703        44.2709   11.91142  31.76378   39.0    0.30483  -21.29965  0.98252 
  -18.17898  0.47123  0.97082      14.9678  2.17292  1.11573  16.55441  0.07645     0.01302  18032.50263   6030.18892  2.05437         4245.98435     17.85441   0.0004  55907.36102  32.11092  7.80092    2205.62937  49.28808  18.22268  55919.86387    51.04111       44.28158   25.80807  45.66044   35.0    0.35361  -21.57742  0.99784 
  -11.29905  0.49993  0.74437     15.01817  1.75866  0.84825  14.19982  0.04368      0.0167  19454.57498   6066.25229  2.71461          4237.2368     16.50321    2e-05  55914.24095  32.05926  7.09897     832.23307   49.8502  18.11839  55932.22197    50.97937       44.33632   15.88189  35.73426   31.0    0.49921  -21.89421  0.99922 
  -23.62329  0.48577  0.90088     14.69526  1.74993  1.11511  15.96926   0.1351     0.01055  16217.88181   5867.20983  4.91028         3910.62404     19.09828  0.00697  55901.91671  25.05534  7.75737    5365.94555  48.87288  18.06574  55934.69359    50.94456       44.32805   15.88189  31.76378   39.5    0.32911  -21.27353  0.99453 
  -15.17212   0.4132  1.01587     15.02213  2.09206  0.76492  15.51775  0.05702       0.014  16829.11238   6244.96302  2.30505         4509.36341     16.79528    3e-05  55910.36788  26.21671  6.41193    1810.54492  49.31794  18.17589  55934.69359    50.91909       44.33001   13.89666  29.77855   30.5    0.42253  -22.00902  0.99723 
  -11.38865  0.49183  0.81049      14.8157  1.59317  1.06406   12.8741  0.05104     0.01484  16104.46942   6533.37006  2.16659         4672.28559     19.70328  0.02805  55914.15135  19.91759  6.33187    2270.79252  49.29744  18.23422  55932.22197    50.94595       44.29352   17.86713  35.73426   33.0    0.49541  -21.78779  0.99819 
  -16.23661  0.46169  0.81588     14.94373  2.09155  1.10163  16.78805  0.08399     0.01191  18090.96489   5993.17224  3.42605         4142.66848     18.54644  0.00196  55909.30339  32.77561  7.75085    1675.26981  49.54197  18.42535  55934.69359    50.91093       44.21396   17.86713  40.15233   32.5    0.29812  -21.82974  0.99879 
  -19.68576  0.49329  0.97286      14.5388  1.54374  1.27479  11.79602  0.11962     0.01705  15942.62616   6521.65879  2.53737         4391.64786     19.46191  0.01609  55905.85424  17.88473  5.81883    11347.5417  48.42641   18.1566  55934.69359    50.93943       44.33083   15.88189  29.77855   35.0    0.32947  -21.55439   0.9903 
   -8.01461  0.43885  0.91693     15.09215  1.79661  0.57206  15.45002  0.03584     0.01047  16797.38885   6521.25634  2.30101         4519.21953     19.70358  0.02807  55917.52539  26.00397  6.78027     917.59396  49.63598   18.2423  55934.69359    50.96303       44.30569   17.86713  35.73426   18.5    0.72068  -23.96186  0.99768 
  -31.27547  0.44812  1.00509      14.6333  1.85762  0.92554  14.84248  0.14163     0.01507  15600.87953   5986.49365    2.239         4333.47462     19.29115  0.01086  55894.26453  21.54923  6.65127    9431.42657  48.55881  18.27811  55937.16521    50.99054       44.35524   15.88189  33.74902   42.5    0.30621  -21.17941  0.98871 
  -14.45397  0.45658  0.81353     14.70164  1.56539  1.09475  12.44661  0.08566     0.02128  17432.55567    6226.0885  4.01077         4181.76514     18.88739  0.00429  55911.08603  22.56319  5.68284    3801.13013   49.0628   18.1632  55937.16521    50.96212        44.4037   11.91142  27.79331   33.5    0.36167  -21.86014  0.99732 
  -22.64339  0.44399  0.94631     14.60681  1.66282  1.12992   12.6541  0.13307     0.02112  17198.85835   6098.80586   3.7826         4082.27795     16.43536    2e-05  55902.89661  22.32841  5.61835    8454.99369  48.61051  18.09729  55932.22197    50.95179       44.34491   13.89666  31.76378   38.0    0.30673  -21.38221  0.99303 
  -22.98223  0.46971  0.90473     14.66108  1.67871  1.07007  15.60587  0.10262     0.01067  15513.62459   6198.46342  3.15934         4244.97879     19.62454   0.0234  55902.55777  22.40484   7.3303    6076.76128  48.79711  18.35804  55932.22197     51.0325       44.37663   17.86713  35.73426   37.5    0.32318   -21.4175   0.9936 
  -13.14753  0.47349  0.75645     14.80913  1.63264  1.01512  14.32388  0.07622     0.01349  17744.86398   6308.12874  3.58275         4314.39935     18.51438  0.00182  55912.39247  26.90501  6.78219    2089.33338  49.40417  18.17779  55934.69359    50.92171       44.31943   13.89666  29.77855   30.0    0.39051  -22.07283  0.99839 
  -24.95616   0.4462  0.74433     14.53259  1.51007  1.10825  14.44776  0.12547     0.01499  16110.05049   5984.96638   3.9448          4123.9161     18.75058  0.00313  55900.58384   22.3677  6.44666    6685.90619  48.87915  17.95086  55934.69359    51.01294       44.49509    9.92618  25.80807   39.0    0.30614  -21.33795  0.99551 
  -24.95412  0.46997  0.89926     14.59144  1.56448  1.09019  15.39381  0.09268     0.01226  15603.26876   6374.15782   4.0953         4204.47685     19.04909  0.00622  55900.58588  22.35654   7.2347    7710.40239  48.66836  18.10992  55932.22197    50.95147       44.33892   15.88189  31.76378   38.0    0.33699  -21.47564  0.99179 
  -45.35461  0.46676  1.02197     14.46216  1.67133  0.76641   13.5792  0.33475      0.0167  15434.37136   5675.39177  1.94667         3880.19713     18.05248  0.00063  55880.18539  19.29653  6.33825   19294.18843  48.18761  18.31445  55934.69359    51.01191       44.40187   14.48532  33.16035   53.5    0.08646  -20.53288  0.97538 
   -19.0994  0.42837  0.79833     14.72672  1.71616  1.04765  14.60807  0.09049     0.01614  16669.83459   6030.29775   2.6425         4281.18863      17.7422  0.00031   55906.4406   24.2149  6.25772     3575.1975  49.14574  18.21454  55937.16521    50.95571       44.42521    9.92618  25.80807   36.5    0.30834  -21.53223  0.99744 
  -55.49136  0.48485  0.74303     14.47052  2.17672   1.5436  11.81573  0.23694     0.01239  12144.75291   5125.48877  4.57351         3997.02039      19.9486  0.04935  55870.04864  10.39597  5.72887   12781.56346  48.75805  18.29784  55934.69359    50.89325        44.2306   15.88189  35.73426   48.5    0.31496  -20.43291    0.996 
  -12.91606  0.47153  0.99056     14.89479  1.71191  0.77149  12.74801  0.07108     0.01573  16543.29623   6273.28512  2.85261         4352.63324     18.13636  0.00076  55912.62394  20.81199  6.01101    2532.12689  49.10708  18.47226  55932.22197    51.04575        44.3592   17.86713  39.70473   32.0    0.42353  -21.79793  0.99586 
  -36.51823  0.28123  1.29534     14.63436  1.90145   0.7293  15.33981    0.131     0.01491  12587.06135   6067.79941  2.64717         4231.98913     19.36637  0.01292  55889.02177  14.49759  4.31399   15956.65861  48.12022   18.1663  55932.22197    50.97405       44.31781   17.86713  33.74902   46.0    0.25929  -20.92575  0.97825 
  -16.70906  0.48364    0.733     14.67677  1.82335  1.49839  12.19645   0.1252     0.02567  19364.66391    5939.3476   1.9294          4279.7991     17.88844  0.00043  55908.83094  27.28228  5.89873    4030.44509  49.19415  18.19595  55934.69359    50.95941       44.35123   13.89666  31.76378   31.0    0.31011  -21.95311  0.99836 
  -30.17866   0.4599  1.11629     14.64993  1.82155  0.83256  11.94701  0.19997     0.02033   15993.0913   6093.92298  3.63828         3979.59409     18.00278  0.00056  55895.36134  18.22851  5.49444   10567.15799  48.40977   18.4436  55934.69359    50.91891       44.22008   19.85236  38.94621   42.5     0.3053  -21.05592  0.98545 
  -27.69335  0.48636  0.93777     14.61787   1.6748  0.88493  15.69157    0.096     0.01062  15102.78509   6049.83766  1.66995         4425.74897     17.80337  0.00035  55897.84665  21.35048   7.6317    7947.39144  48.64839    18.207  55927.27873    50.97407       44.28817   17.86713  39.70473   37.5    0.33839  -21.37272  0.98851 
  -55.34325     0.49  0.90881     14.31643  1.75446  1.23541  10.55235  0.30031     0.01956  12072.12098    6019.5802  2.26233         4170.61916     17.38072  0.00013  55870.19675   9.17368   5.1707    31335.2982  48.10001  18.18349  55934.69359    50.94497       44.33992   13.89666  31.76378   53.5    0.12962  -20.51506  0.98589 
  -24.33993  0.49087   0.8324     14.48909  1.31708  0.97566  13.73662  0.12378     0.01264  14821.91503   5909.49788  3.87925         4114.47439     17.67934  0.00027  55901.20007  18.00179  6.74293    8910.89366  48.59787  18.28502  55934.69359    50.88626       44.25174   13.89666  33.74902   39.0    0.30572  -21.33536  0.98987 
    -9.1669  0.41849  0.72316     14.98613  1.93092  0.99737  15.12562  0.03023     0.01271   16898.5668    6538.1111   1.7017         4833.36146     18.36139  0.00128   55916.3731  25.76558  6.32987     999.51152  49.83635  18.10872  55934.69359    50.97951       44.42027   11.91142  27.79331   29.5    0.65299  -21.99644  0.99943 
  -27.01236  0.48527  0.98903     14.95929  1.83037  0.42373   16.4991  0.11256     0.01068  15892.19151   5805.03979  1.31661         4649.61861     17.32426  0.00012  55898.52764  24.85735  8.00657    2005.34029  49.23877  18.13081  55934.69359    50.98328       44.41994   13.89666  27.79331   38.5    0.31653  -21.34046  0.98894 
