# Wavelength Flux
# STATUS = PUBLIC
# OBJECT = 2018lzw
# TELESCOPE = P200
# INSTRUMENT =
# DATE-OBS = 2018.1006
# MJD =
# EXPTIME =
# SLIT =
# DISPERSER =
# SOURCE = 2023ApJ...943...41C
# FILTER =
# FLUX_STANDARD =
# EXTINCTION_CORRECTED = False
# PHOTOMETRY_CALIBRATED =
# FLUX_UNITS = erg/s/cm^2/Angstroms
# QUALITY =
# MIN_WAVE =
# MAX_WAVE =
# COMMENT =
3500.916 1.094e-17
3501.98 8.142e-17
3503.045 3.109e-17
3504.109 2.069e-17
3505.174 6.153e-17
3506.238 -1.574e-17
3507.303 3.372e-17
3508.368 4.107e-17
3509.433 4.481e-17
3510.497 5.43e-17
3511.562 3.618e-17
3512.627 5.328e-17
3513.692 4.777e-17
3514.757 3.789e-17
3515.822 -1.254e-17
3516.887 3.014e-17
3517.952 -2.223e-17
3519.017 -1.556e-17
3520.083 -7.895e-18
3521.148 1.535e-17
3522.213 2.074e-17
3523.279 2.877e-17
3524.344 2.197e-17
3525.409 5.061e-18
3526.475 -4.925e-17
3527.541 6.558e-17
3528.606 3.279e-17
3529.672 -1.807e-17
3530.737 5.576e-17
3531.803 4.43e-17
3532.869 1.115e-17
3533.935 3.566e-17
3535.001 6.561e-17
3536.067 3.442e-17
3537.133 2.045e-18
3538.199 1.916e-17
3539.265 -1.986e-17
3540.331 -7.273e-18
3541.397 -1.551e-17
3542.463 3.355e-17
3543.529 4.985e-17
3544.596 -2.729e-18
3545.662 4.731e-17
3546.728 1.705e-17
3547.795 1.13e-17
3548.861 -3.007e-17
3549.928 7.842e-17
3550.994 -4.106e-17
3552.061 2.508e-17
3553.128 1.175e-17
3554.194 2.296e-17
3555.261 3.724e-17
3556.328 6.63e-17
3557.395 2.631e-17
3558.462 3.325e-18
3559.529 1.179e-17
3560.596 2.603e-17
3561.663 -2.101e-19
3562.73 6.564e-17
3563.797 4.425e-17
3564.864 2.418e-17
3565.931 2.302e-17
3566.998 1.407e-18
3568.066 8.131e-18
3569.133 -2.873e-17
3570.2 -4.341e-18
3571.268 5.21e-17
3572.335 4.276e-17
3573.403 -5.642e-18
3574.47 4.093e-17
3575.538 -2.271e-17
3576.606 2.726e-17
3577.673 -1.073e-17
3578.741 2.357e-17
3579.809 -2.112e-17
3580.877 -2.395e-18
3581.945 -2.101e-17
3583.012 -3.629e-18
3584.08 9.53e-18
3585.148 -7.729e-18
3586.216 2.965e-17
3587.285 2.518e-17
3588.353 1.178e-17
3589.421 2.047e-17
3590.489 2.448e-17
3591.557 8.277e-18
3592.626 -1.298e-18
3593.694 -9.826e-19
3594.762 2.533e-18
3595.831 1.629e-18
3596.899 1.867e-17
3597.968 3.017e-17
3599.037 2.592e-17
3600.105 -3.637e-18
3601.174 -3.865e-18
3602.243 1.964e-17
3603.311 2.445e-17
3604.38 9.061e-18
3605.449 1.916e-18
3606.518 1.179e-17
3607.587 1.123e-17
3608.656 2.627e-17
3609.725 2.478e-17
3610.794 1.121e-17
3611.863 1.746e-17
3612.932 4.02e-17
3614.001 4.332e-17
3615.071 4.817e-17
3616.14 1.957e-17
3617.209 1.054e-17
3618.278 2.618e-17
3619.348 5.718e-17
3620.417 1.209e-17
3621.487 3.699e-17
3622.556 3.273e-17
3623.626 -2.355e-18
3624.696 1.789e-17
3625.765 4.197e-17
3626.835 2.404e-17
3627.905 4.391e-18
3628.974 2.347e-17
3630.044 3.576e-17
3631.114 -7.04e-18
3632.184 1.219e-17
3633.254 4.789e-17
3634.324 1.199e-17
3635.394 2.825e-17
3636.464 3.229e-17
3637.534 2.545e-17
3638.604 2.723e-17
3639.675 2.658e-17
3640.745 2.123e-17
3641.815 7.556e-18
3642.886 3.35e-17
3643.956 8.877e-17
3645.026 -2.138e-17
3646.097 4.501e-17
3647.167 4.937e-17
3648.238 4.061e-17
3649.308 4.87e-17
3650.379 5.329e-17
3651.45 5.198e-17
3652.52 3.143e-17
3653.591 6.027e-17
3654.662 4.503e-17
3655.733 3.178e-17
3656.804 5.565e-17
3657.875 3.565e-17
3658.946 3.935e-17
3660.017 2.576e-17
3661.088 3.18e-17
3662.159 3.358e-17
3663.23 5.109e-18
3664.301 6.852e-17
3665.372 3.368e-17
3666.444 2.756e-17
3667.515 3.022e-17
3668.586 2.153e-17
3669.658 4.16e-17
3670.729 1.63e-17
3671.8 5.249e-17
3672.872 3.243e-17
3673.943 1.294e-17
3675.015 3.02e-17
3676.087 1.82e-17
3677.158 3.556e-17
3678.23 3.877e-17
3679.302 6.074e-17
3680.373 5.903e-17
3681.445 2.956e-17
3682.517 5.671e-17
3683.589 2.325e-17
3684.661 3.617e-17
3685.733 4.523e-17
3686.805 5.581e-17
3687.877 3.518e-17
3688.949 4.558e-17
3690.021 -2.67e-19
3691.093 4.812e-18
3692.166 1.258e-17
3693.238 2.806e-17
3694.31 4.25e-17
3695.383 3.517e-17
3696.455 1.56e-17
3697.527 3.177e-17
3698.6 2.477e-17
3699.672 2.303e-17
3700.745 5.15e-17
3701.817 3.703e-17
3702.89 6.575e-17
3703.963 2.732e-17
3705.035 1.029e-17
3706.108 2.821e-17
3707.181 5.332e-17
3708.254 5.441e-17
3709.327 3.464e-17
3710.399 3.476e-17
3711.472 4.115e-17
3712.545 5.585e-17
3713.618 7.112e-17
3714.691 5.525e-17
3715.765 6.764e-17
3716.838 3.483e-17
3717.911 5.085e-17
3718.984 4.464e-17
3720.057 3.698e-17
3721.131 4.785e-17
3722.204 2.09e-17
3723.277 4.531e-17
3724.351 2.264e-17
3725.424 5.863e-17
3726.497 3.379e-17
3727.571 4.494e-17
3728.645 5.846e-17
3729.718 4.779e-17
3730.792 6.153e-17
3731.865 2.814e-17
3732.939 3.856e-17
3734.013 3.297e-17
3735.087 5.07e-17
3736.16 2.876e-17
3737.234 3.032e-17
3738.308 3.433e-17
3739.382 3.383e-17
3740.456 3.383e-17
3741.53 1.76e-17
3742.604 5.955e-17
3743.678 1.868e-17
3744.752 4.487e-17
3745.826 4.818e-17
3746.901 1.97e-17
3747.975 2.437e-17
3749.049 2.301e-17
3750.123 2.609e-17
3751.198 3.734e-17
3752.272 1.177e-17
3753.347 1.134e-18
3754.421 1.344e-17
3755.496 2.678e-17
3756.57 1.097e-17
3757.645 1.423e-17
3758.719 2.908e-17
3759.794 4.657e-17
3760.869 1.657e-17
3761.943 1.859e-17
3763.018 2.796e-17
3764.093 5.515e-17
3765.168 2.828e-17
3766.243 2.418e-17
3767.317 2.605e-17
3768.392 2.31e-17
3769.467 3.395e-17
3770.542 2.097e-17
3771.617 2.275e-17
3772.692 1.046e-17
3773.768 3.225e-17
3774.843 4.926e-17
3775.918 1.399e-17
3776.993 2.266e-17
3778.068 1.376e-17
3779.144 2.506e-17
3780.219 4.324e-17
3781.294 6.185e-18
3782.37 1.562e-17
3783.445 4.779e-18
3784.521 1.087e-17
3785.596 3.434e-17
3786.672 3.485e-17
3787.747 -8.355e-18
3788.823 4.076e-17
3789.899 2.965e-17
3790.974 3.542e-17
3792.05 1.644e-17
3793.126 2.732e-17
3794.202 -3.194e-18
3795.277 5.459e-17
3796.353 4.079e-17
3797.429 3.729e-17
3798.505 9.742e-18
3799.581 2.035e-17
3800.657 1.838e-17
3801.733 4.86e-17
3802.809 4.276e-17
3803.885 1.317e-17
3804.962 3.127e-17
3806.038 2.297e-17
3807.114 3.546e-17
3808.19 2.456e-17
3809.267 3.374e-17
3810.343 5.277e-17
3811.419 4.05e-17
3812.496 3.051e-17
3813.572 5.633e-17
3814.649 3.306e-17
3815.725 3.839e-17
3816.802 2.921e-17
3817.878 3.846e-17
3818.955 2.544e-17
3820.031 2.968e-17
3821.108 3.94e-17
3822.185 1.969e-17
3823.262 3.694e-17
3824.338 3.347e-17
3825.415 3.75e-17
3826.492 5.067e-17
3827.569 7.348e-17
3828.646 3.61e-17
3829.723 4.535e-17
3830.8 5.329e-17
3831.877 3.064e-17
3832.954 6.517e-17
3834.031 4.157e-17
3835.108 7.253e-17
3836.185 4.311e-17
3837.262 3.164e-17
3838.34 4.222e-17
3839.417 5.083e-17
3840.494 2.048e-17
3841.571 7.567e-17
3842.649 6.389e-17
3843.726 5.803e-17
3844.804 5.833e-17
3845.881 7.871e-17
3846.959 2.941e-17
3848.036 4.582e-17
3849.114 3.96e-17
3850.191 5.437e-17
3851.269 5.851e-17
3852.347 6.359e-17
3853.424 2.374e-17
3854.502 3.832e-17
3855.58 7.667e-17
3856.657 4.739e-17
3857.735 3.497e-17
3858.813 3.022e-17
3859.891 5.883e-17
3860.969 4.88e-17
3862.047 3.73e-17
3863.125 6.141e-17
3864.203 6.236e-17
3865.281 4.977e-17
3866.359 3.566e-17
3867.437 3.524e-17
3868.515 3.63e-17
3869.593 5.54e-17
3870.672 5.629e-17
3871.75 4.893e-17
3872.828 5.657e-17
3873.907 2.469e-17
3874.985 4.257e-17
3876.063 5.694e-17
3877.142 4.83e-17
3878.22 4.596e-17
3879.299 3.439e-17
3880.377 8.212e-17
3881.456 5.401e-17
3882.534 3.675e-17
3883.613 4.443e-17
3884.691 3.868e-17
3885.77 4.498e-17
3886.849 6.242e-17
3887.927 5.446e-17
3889.006 3.652e-17
3890.085 3.48e-17
3891.164 4.803e-17
3892.243 5.715e-17
3893.322 6.043e-17
3894.4 5.473e-17
3895.479 5.817e-17
3896.558 7.689e-17
3897.637 5.002e-17
3898.716 4.091e-17
3899.796 5.328e-17
3900.875 5.847e-17
3901.954 6.885e-17
3903.033 4.334e-17
3904.112 2.915e-17
3905.191 3.816e-17
3906.271 5.691e-17
3907.35 6.839e-17
3908.429 5.852e-17
3909.509 3.576e-17
3910.588 3.743e-17
3911.667 4.875e-17
3912.747 5.412e-17
3913.826 6.415e-17
3914.906 5.738e-17
3915.985 5.76e-17
3917.065 5.121e-17
3918.144 5.792e-17
3919.224 3.167e-17
3920.304 5.24e-17
3921.383 9.306e-17
3922.463 3.483e-17
3923.543 6.317e-17
3924.623 5.17e-17
3925.702 5.555e-17
3926.782 5.649e-17
3927.862 5.069e-17
3928.942 4.149e-17
3930.022 7.562e-17
3931.102 5.418e-17
3932.182 6.507e-17
3933.262 3.439e-17
3934.342 3.837e-17
3935.422 3.364e-17
3936.502 5.659e-17
3937.582 5.181e-17
3938.662 6.465e-17
3939.743 4.276e-17
3940.823 6.157e-17
3941.903 7.186e-17
3942.983 3.562e-17
3944.064 3.908e-17
3945.144 3.796e-17
3946.224 6.086e-17
3947.305 4.344e-17
3948.385 4.694e-17
3949.466 4.598e-17
3950.546 4.681e-17
3951.627 7.012e-17
3952.707 5.591e-17
3953.788 6.651e-17
3954.868 5.479e-17
3955.949 3.746e-17
3957.03 6.216e-17
3958.11 3.094e-17
3959.191 2.389e-17
3960.272 7.369e-17
3961.353 4.705e-17
3962.433 4.219e-17
3963.514 5.07e-17
3964.595 5.256e-17
3965.676 4.758e-17
3966.757 2.976e-17
3967.838 4.996e-17
3968.919 3.344e-17
3970.0 4.795e-17
3971.081 4.931e-17
3972.162 4.412e-17
3973.243 5.759e-17
3974.324 2.51e-17
3975.405 2.583e-17
3976.486 5.089e-17
3977.568 2.81e-17
3978.649 5.158e-17
3979.73 3.305e-17
3980.811 4.54e-17
3981.893 3.367e-17
3982.974 5.136e-17
3984.055 3.044e-17
3985.137 4.311e-17
3986.218 5.607e-17
3987.3 4.376e-17
3988.381 3.79e-17
3989.463 3.067e-17
3990.544 1.763e-17
3991.626 5.247e-17
3992.707 4.025e-17
3993.789 4.9e-17
3994.87 5.505e-17
3995.952 2.472e-17
3997.034 3.083e-17
3998.116 5.269e-17
3999.197 4.291e-17
4000.279 4.504e-17
4001.361 5.157e-17
4002.443 1.933e-17
4003.525 3.926e-17
4004.606 2.477e-17
4005.688 1.41e-17
4006.77 4.472e-17
4007.852 2.834e-17
4008.934 4.016e-17
4010.016 2.559e-17
4011.098 3.586e-17
4012.18 4.642e-17
4013.262 4.397e-17
4014.345 3.941e-17
4015.427 4.508e-17
4016.509 4.703e-17
4017.591 3.488e-17
4018.673 4.246e-17
4019.756 4.288e-17
4020.838 5.467e-17
4021.92 2.447e-17
4023.002 4.5e-17
4024.085 2.29e-17
4025.167 4.048e-17
4026.25 2.732e-17
4027.332 3.824e-17
4028.415 5.46e-17
4029.497 8.441e-18
4030.58 3.545e-17
4031.662 4.916e-17
4032.745 2.733e-17
4033.827 1.097e-17
4034.91 4.5e-17
4035.992 3.413e-17
4037.075 3.631e-17
4038.158 4.059e-17
4039.241 3.917e-17
4040.323 4.189e-17
4041.406 5.108e-17
4042.489 1.71e-17
4043.572 8.46e-18
4044.654 2.153e-17
4045.737 3.852e-17
4046.82 3.607e-17
4047.903 4.041e-17
4048.986 4.707e-17
4050.069 1.898e-17
4051.152 2.345e-17
4052.235 3.852e-17
4053.318 2.456e-17
4054.401 4.722e-17
4055.484 4.134e-17
4056.567 2.77e-17
4057.651 4.859e-17
4058.734 3.291e-17
4059.817 3.138e-17
4060.9 3.475e-17
4061.983 2.636e-17
4063.067 4.167e-17
4064.15 1.738e-17
4065.233 4.168e-17
4066.317 4.78e-17
4067.4 4.788e-17
4068.483 5.754e-17
4069.567 3.397e-17
4070.65 4.388e-17
4071.734 5.444e-17
4072.817 2.726e-17
4073.901 4.291e-17
4074.984 3.271e-17
4076.068 3.833e-17
4077.151 4.821e-17
4078.235 4.596e-17
4079.318 4.345e-17
4080.402 4.788e-17
4081.486 3.28e-17
4082.569 4.839e-17
4083.653 3.475e-17
4084.737 3.74e-17
4085.821 2.726e-17
4086.904 4.153e-17
4087.988 5.002e-17
4089.072 4.288e-17
4090.156 1.708e-17
4091.24 4.279e-17
4092.324 2.53e-17
4093.408 4.48e-17
4094.492 4.545e-17
4095.576 3.561e-17
4096.66 5.622e-17
4097.744 5.434e-17
4098.828 4.654e-17
4099.912 3.599e-17
4100.996 1.933e-17
4102.08 2.968e-17
4103.164 2.592e-17
4104.248 1.869e-17
4105.332 3.439e-17
4106.417 2.86e-17
4107.501 3.962e-17
4108.585 3.636e-17
4109.669 5.644e-17
4110.754 5.398e-17
4111.838 2.259e-17
4112.922 3.087e-17
4114.007 4.49e-17
4115.091 3.311e-17
4116.175 2.689e-17
4117.26 4.057e-17
4118.344 3.163e-17
4119.429 4.655e-17
4120.513 4.386e-17
4121.598 4.925e-17
4122.682 3.66e-17
4123.767 3.497e-17
4124.851 4.371e-17
4125.936 3.542e-17
4127.021 5.228e-17
4128.105 4.071e-17
4129.19 4.424e-17
4130.275 2.596e-17
4131.359 3.745e-17
4132.444 3.031e-17
4133.529 3.441e-17
4134.613 3.167e-17
4135.698 4.374e-17
4136.783 4.442e-17
4137.868 5.258e-17
4138.953 4.879e-17
4140.038 4.559e-17
4141.123 3.452e-17
4142.207 4.061e-17
4143.292 4.583e-17
4144.377 3.759e-17
4145.462 2.133e-17
4146.547 3.983e-17
4147.632 4.295e-17
4148.717 2.467e-17
4149.803 3.957e-17
4150.888 4.429e-17
4151.973 4.442e-17
4153.058 5.06e-17
4154.143 6.089e-17
4155.228 3.153e-17
4156.313 4.862e-17
4157.399 5.536e-17
4158.484 3.241e-17
4159.569 3.735e-17
4160.654 3.787e-17
4161.74 4.139e-17
4162.825 3.764e-17
4163.91 3.061e-17
4164.996 3.507e-17
4166.081 2.041e-17
4167.166 5.289e-17
4168.252 1.413e-17
4169.337 3.457e-17
4170.423 4.881e-17
4171.508 3.566e-17
4172.594 3.101e-17
4173.679 4.456e-17
4174.765 3.384e-17
4175.85 2.645e-17
4176.936 4.292e-17
4178.021 3.742e-17
4179.107 4.043e-17
4180.193 5.53e-17
4181.278 4.844e-17
4182.364 3.22e-17
4183.45 5.444e-17
4184.535 3.28e-17
4185.621 3.508e-17
4186.707 4.534e-17
4187.793 3.258e-17
4188.878 4.242e-17
4189.964 3.955e-17
4191.05 4.287e-17
4192.136 5.278e-17
4193.222 4.114e-17
4194.308 6.575e-17
4195.393 3.185e-17
4196.479 4.577e-17
4197.565 2.719e-17
4198.651 3.837e-17
4199.737 5.443e-17
4200.823 2.699e-17
4201.909 4.482e-17
4202.995 2.474e-17
4204.081 5.064e-17
4205.167 3.754e-17
4206.253 4.066e-17
4207.34 4.702e-17
4208.426 3.652e-17
4209.512 4.523e-17
4210.598 3.59e-17
4211.684 3.55e-17
4212.77 5.915e-17
4213.857 3.081e-17
4214.943 2.6e-17
4216.029 3.613e-17
4217.115 3.34e-17
4218.202 5.541e-17
4219.288 3.366e-17
4220.374 4.568e-17
4221.461 4.881e-17
4222.547 5.754e-17
4223.633 2.795e-17
4224.72 4.498e-17
4225.806 4.273e-17
4226.893 5.398e-17
4227.979 3.875e-17
4229.065 4.415e-17
4230.152 2.071e-17
4231.238 4.256e-17
4232.325 3.475e-17
4233.411 6.024e-17
4234.498 2.584e-17
4235.585 3.663e-17
4236.671 5.619e-17
4237.758 4.994e-17
4238.844 4.92e-17
4239.931 4.792e-17
4241.018 5.034e-17
4242.104 3.49e-17
4243.191 3.898e-17
4244.278 6.888e-17
4245.364 3.185e-17
4246.451 4.86e-17
4247.538 4.957e-17
4248.625 7.713e-17
4249.711 5.002e-17
4250.798 5.475e-17
4251.885 3.789e-17
4252.972 4.063e-17
4254.059 3.372e-17
4255.146 4.262e-17
4256.233 3.776e-17
4257.319 4.373e-17
4258.406 4.788e-17
4259.493 5.204e-17
4260.58 5.749e-17
4261.667 5.024e-17
4262.754 4.278e-17
4263.841 5.448e-17
4264.928 3.604e-17
4266.015 4.515e-17
4267.102 2.861e-17
4268.189 2.63e-17
4269.276 4.168e-17
4270.363 3.407e-17
4271.451 5.305e-17
4272.538 2.547e-17
4273.625 4.657e-17
4274.712 4.406e-17
4275.799 3.3e-17
4276.886 4.701e-17
4277.974 5.629e-17
4279.061 4.509e-17
4280.148 4.893e-17
4281.235 5.585e-17
4282.323 4.838e-17
4283.41 2.889e-17
4284.497 2.651e-17
4285.584 4.402e-17
4286.672 4.077e-17
4287.759 2.609e-17
4288.846 4.743e-17
4289.934 2.865e-17
4291.021 3.104e-17
4292.109 3.441e-17
4293.196 5.139e-17
4294.283 3.727e-17
4295.371 1.732e-17
4296.458 5.183e-17
4297.546 4.895e-17
4298.633 2.931e-17
4299.721 6.131e-17
4300.808 4.087e-17
4301.896 5.199e-17
4302.983 2.349e-17
4304.071 4.813e-17
4305.159 3.455e-17
4306.246 5.155e-17
4307.334 5.055e-17
4308.421 3.65e-17
4309.509 5.836e-17
4310.597 3.282e-17
4311.684 3.833e-17
4312.772 5.252e-17
4313.86 2.747e-17
4314.947 5.85e-17
4316.035 4.168e-17
4317.123 4.777e-17
4318.211 3.581e-17
4319.298 3.858e-17
4320.386 3.475e-17
4321.474 3.23e-17
4322.562 2.921e-17
4323.649 4.177e-17
4324.737 4.08e-17
4325.825 4.611e-17
4326.913 4.281e-17
4328.001 4.239e-17
4329.089 2.219e-17
4330.177 3.492e-17
4331.264 4.074e-17
4332.352 6.29e-17
4333.44 4.743e-17
4334.528 3.261e-17
4335.616 2.886e-17
4336.704 5.01e-17
4337.792 2.339e-17
4338.88 5.33e-17
4339.968 2.88e-17
4341.056 3.114e-17
4342.144 4.06e-17
4343.232 3.484e-17
4344.32 5.006e-17
4345.408 5.788e-17
4346.497 3.734e-17
4347.585 6.168e-17
4348.673 2.233e-17
4349.761 3.782e-17
4350.849 5.252e-17
4351.937 4.207e-17
4353.025 3.631e-17
4354.113 5.95e-17
4355.202 5.356e-17
4356.29 4.721e-17
4357.378 2.905e-17
4358.466 4.149e-17
4359.555 6.124e-17
4360.643 4.816e-17
4361.731 1.999e-17
4362.819 5.057e-17
4363.908 5.366e-17
4364.996 4.606e-17
4366.084 1.254e-17
4367.173 4.444e-17
4368.261 4.35e-17
4369.349 3.566e-17
4370.438 3.181e-17
4371.526 2.704e-17
4372.614 2.102e-17
4373.703 4.744e-17
4374.791 3.772e-17
4375.879 5.199e-17
4376.968 4.732e-17
4378.056 4.911e-17
4379.145 4.302e-17
4380.233 2.618e-17
4381.322 4.525e-17
4382.41 3.99e-17
4383.499 4.112e-17
4384.587 4.968e-17
4385.676 3.03e-17
4386.764 3.495e-17
4387.853 3.867e-17
4388.941 2.745e-17
4390.03 1.654e-17
4391.118 4.445e-17
4392.207 2.303e-17
4393.296 2.491e-17
4394.384 4.087e-17
4395.473 4.314e-17
4396.561 3.985e-17
4397.65 3.409e-17
4398.739 3.815e-17
4399.827 4.398e-17
4400.916 3.394e-17
4402.005 3.739e-17
4403.093 3.701e-17
4404.182 3.621e-17
4405.271 5.316e-17
4406.359 4.078e-17
4407.448 4.036e-17
4408.537 4.815e-17
4409.626 4.321e-17
4410.714 4.591e-17
4411.803 3.753e-17
4412.892 2.067e-17
4413.981 4.598e-17
4415.069 3.858e-17
4416.158 4.817e-17
4417.247 5.081e-17
4418.336 1.445e-18
4419.425 4.317e-17
4420.514 3.729e-17
4421.602 4.522e-17
4422.691 3.832e-17
4423.78 3.954e-17
4424.869 3.09e-17
4425.958 3.685e-17
4427.047 4.695e-17
4428.136 3.714e-17
4429.225 2.134e-17
4430.314 2.065e-17
4431.402 3.273e-17
4432.491 4.988e-17
4433.58 4.206e-17
4434.669 3.699e-17
4435.758 2.702e-17
4436.847 2.656e-17
4437.936 3.682e-17
4439.025 2e-17
4440.114 5.045e-17
4441.203 3.476e-17
4442.292 5.379e-17
4443.381 4.06e-17
4444.47 3.74e-17
4445.559 4.497e-17
4446.648 1.898e-17
4447.738 3.434e-17
4448.827 5.697e-17
4449.916 3.333e-17
4451.005 3.842e-17
4452.094 4.078e-17
4453.183 3.839e-17
4454.272 2.56e-17
4455.361 2.944e-17
4456.45 4.372e-17
4457.539 3.568e-17
4458.629 4.624e-17
4459.718 3.84e-17
4460.807 3.639e-17
4461.896 2.646e-17
4462.985 3.188e-17
4464.074 3.743e-17
4465.164 3.237e-17
4466.253 2.475e-17
4467.342 5.27e-17
4468.431 3.352e-17
4469.521 5.086e-17
4470.61 3.487e-17
4471.699 2.611e-17
4472.788 3.692e-17
4473.877 2.931e-17
4474.967 6.383e-17
4476.056 3.583e-17
4477.145 3.091e-17
4478.235 4.249e-17
4479.324 2.299e-17
4480.413 2.507e-17
4481.502 4.937e-17
4482.592 5.358e-17
4483.681 3.259e-17
4484.77 4.325e-17
4485.86 3.23e-17
4486.949 3.734e-17
4488.038 2.473e-17
4489.128 4.55e-17
4490.217 4.862e-17
4491.306 3.852e-17
4492.396 4.039e-17
4493.485 5.091e-17
4494.575 5.222e-17
4495.664 3.644e-17
4496.753 4.375e-17
4497.843 3.411e-17
4498.932 2.853e-17
4500.022 2.622e-17
4501.111 1.997e-17
4502.2 4.166e-17
4503.29 4.104e-17
4504.379 2.329e-17
4505.469 5.434e-17
4506.558 4.604e-17
4507.648 3.596e-17
4508.737 4.169e-17
4509.827 3.59e-17
4510.916 2.04e-17
4512.006 4.834e-17
4513.095 4.61e-17
4514.185 4.678e-17
4515.274 2.824e-17
4516.364 3.348e-17
4517.453 5.269e-17
4518.543 3.818e-17
4519.632 4.219e-17
4520.722 6.003e-17
4521.811 4.618e-17
4522.901 3.985e-17
4523.99 3.638e-17
4525.08 2.463e-17
4526.169 6.066e-17
4527.259 1.833e-17
4528.349 3.19e-17
4529.438 4.685e-17
4530.528 3.269e-17
4531.617 6.384e-17
4532.707 3.302e-17
4533.796 3.481e-17
4534.886 4.483e-17
4535.976 4.649e-17
4537.065 2.706e-17
4538.155 5.085e-17
4539.244 3.485e-17
4540.334 3.654e-17
4541.424 6.536e-17
4542.513 4.649e-17
4543.603 1.668e-17
4544.693 4.51e-17
4545.782 2.913e-17
4546.872 2.966e-17
4547.962 3.588e-17
4549.051 4.632e-17
4550.141 2.967e-17
4551.23 6.008e-17
4552.32 2.085e-17
4553.41 1.616e-17
4554.499 2.663e-17
4555.589 2.995e-17
4556.679 2.135e-17
4557.769 3.821e-17
4558.858 2.553e-17
4559.948 5.036e-17
4561.038 3.805e-17
4562.127 4.962e-17
4563.217 3.199e-17
4564.307 3.59e-17
4565.396 2.529e-17
4566.486 3.014e-17
4567.576 4.541e-17
4568.666 3.852e-17
4569.755 3.266e-17
4570.845 3.122e-17
4571.935 4.872e-17
4573.025 3.929e-17
4574.114 3.891e-17
4575.204 3.786e-17
4576.294 4.084e-17
4577.383 5.117e-17
4578.473 3.179e-17
4579.563 3.789e-17
4580.653 2.926e-17
4581.742 4.24e-17
4582.832 2.868e-17
4583.922 3.591e-17
4585.012 3.628e-17
4586.102 4.043e-17
4587.191 5.107e-17
4588.281 3.566e-17
4589.371 3.865e-17
4590.461 2.655e-17
4591.55 5.181e-17
4592.64 3.572e-17
4593.73 4.188e-17
4594.82 4.107e-17
4595.91 3.818e-17
4596.999 3.341e-17
4598.089 4.334e-17
4599.179 4.321e-17
4600.269 4.806e-17
4601.359 4.34e-17
4602.448 3.487e-17
4603.538 2.915e-17
4604.628 3.731e-17
4605.718 3.739e-17
4606.808 3.055e-17
4607.897 3.869e-17
4608.987 3.45e-17
4610.077 2.808e-17
4611.167 3.066e-17
4612.257 2.41e-17
4613.347 3.648e-17
4614.436 2.715e-17
4615.526 4.659e-17
4616.616 4.44e-17
4617.706 3.851e-17
4618.796 4.306e-17
4619.886 5.345e-17
4620.975 4.279e-17
4622.065 2.299e-17
4623.155 3.932e-17
4624.245 3.134e-17
4625.335 4.02e-17
4626.425 4.252e-17
4627.514 5.427e-17
