 texplosion  fnickel    Pspin  log(Bfield)      Mns  thetaPB   mejecta    kappa  kappagamma     vejecta  temperature    alpha  cutoff_wavelength  log(nhhost)      A_V         MJD0  kenergy  mnickel            TSD   log(L0)  Peak_mag     Peak_MJD  log(E_rad)  log(Peak_lum)  Rise_Time    E_fold  tau_1  delta_m15     r_peak     frac 
   -3.67181  0.04046   5.6714     14.07576  1.75281  1.26625   6.18408  0.03668     0.02541  4596.67118   8675.48751    1.594         3404.41596     18.21742  0.00092  58666.81819  0.77945  0.25019  3693214.04683  44.43779  18.18158  58708.55517    50.83547       44.07949   27.19709   41.5405   67.0     0.1893  -20.54253  0.95878 
   -3.27361  0.00103  5.77678     14.09743   1.8298  1.20905  11.77138  0.01702      0.0137  4550.28479   8774.41385  1.51232         3558.47149     19.33528  0.01202  58667.21639  1.45389  0.01212  3620132.13482  44.44915  18.15838     58708.41    50.85873       44.11236   26.32945  40.39832   68.0    0.19829  -20.55866  0.99798 
   -3.24889  0.09801  5.41314     14.06169  1.59154  1.27371   7.89999  0.02912     0.02019   4790.5656   8668.47226  1.48578         3440.70411     17.02645    6e-05  58667.24111   1.0815  0.77426  3259458.69224  44.49062  18.18007     58707.47     50.8412       44.08957   27.17053  40.69057   68.0    0.20344  -20.56404   0.8777 
   -3.56729  0.02505   5.5001      14.0862  1.71886  1.18206   7.14393  0.03384     0.02556  4620.57221   8684.27956  1.72383         3389.34185     18.51755  0.00183  58666.92271  0.90982  0.17892  3246347.56119  44.51195  18.17902     58708.41    50.83726       44.09102   27.17053   39.8849   65.5    0.19832  -20.58092  0.97115 
   -3.65716  0.00349   5.1236     13.97113   1.5541  1.45194  10.04376  0.02089     0.01816  4905.42462   8635.62955  1.36215         3519.00476     18.62439  0.00234  58666.83284  1.44171  0.03504  4326928.51188    44.405  18.17151  58708.55517    50.82954       44.08088   27.19709   41.4896   66.0    0.20169  -20.56523  0.99414 
   -3.54732  0.04781  5.44733     14.06914  1.61071  1.17475  11.82431  0.01946     0.01494  4655.90132   8532.90409  1.49061         3533.77775     16.99787    6e-05  58666.94268  1.52901  0.56533  3227951.23819  44.49457  18.16531     58708.49    50.83075       44.07644   28.02047  40.71713   67.5    0.19393   -20.5549  0.90795 
   -3.20531  0.00234  5.13989     14.00659  1.54957  1.18097   8.15918    0.027     0.02414  4730.02373   8631.93753   1.5578         3478.92745     17.10011    7e-05  58667.28469  1.08893   0.0191  3687755.91938  44.47039  18.15446     58708.41    50.86718       44.13891   25.40869  37.21116   65.5    0.20816  -20.56304  0.99677 
   -3.50984  0.00418   5.1355     14.04096  1.59612  1.13888   9.71467  0.02219     0.01693  4396.79737   8632.77043  1.66327         3434.47885     18.07215  0.00066  58666.98016  1.12028  0.04058  3236828.88008  44.54063  18.17099     58708.41    50.84989       44.10695   26.32945  40.39832   66.0    0.19944  -20.55784  0.99348 
   -3.41364  0.03139  5.79299      14.1373   1.8859  1.26707    7.0222  0.03539     0.02656  4914.33632   8627.04073  1.34833         3457.21811     19.48233  0.01687  58667.07636  1.01165   0.2204  3122798.78037  44.52402  18.16161  58708.55517    50.84456       44.09967   27.17053  39.55724   64.5     0.2007  -20.59076  0.96594 
   -3.60288   0.0066  5.15538     13.98646  1.58594  1.49287   6.71138   0.0348     0.02508  4527.27883   8575.97147  1.74417         3329.84238     17.44224  0.00015  58666.88712  0.82057  0.04431  4165818.79978  44.42491  18.15493  58708.55517    50.84566       44.09641   26.32945   40.6463   67.0    0.19818  -20.55122  0.99275 
   -3.58348  0.08154  5.18144     14.00393   1.5256  1.52015   6.46313  0.03521     0.03042  4672.32249   8744.45752  1.37925         3556.36934      17.6595  0.00025  58666.90652  0.84166  0.52698  3735038.66472  44.45109  18.17154     58708.47    50.86404       44.11605   26.32945  40.39832   65.5    0.19696  -20.54465   0.9152 
   -3.80501  0.03893   5.3492     14.09063  1.60493    0.934   5.50042  0.04015     0.02749  4681.25294   8664.07133  1.46629         3571.76127     16.30733    1e-05  58666.68499  0.71903  0.21415   2809223.5185  44.56914  18.16109     58708.41    50.83171       44.08087   27.17053  40.75917   67.5     0.1917  -20.55603  0.96396 
    -3.7341   0.0013   5.2867     14.05463  1.71641  1.40033   7.26693  0.03083     0.02239  4143.36795   8702.09686   1.5154         3725.44159     19.85146  0.03946   58666.7559  0.74419  0.00943  3463658.01104  44.51756  18.14638     58708.41    50.82654       44.08552   26.32945  40.39832   65.5    0.19958   -20.5871  0.99855 
   -3.83541  0.00108  5.82326     14.09728  1.87152  1.32954   5.52409  0.03994     0.03408  4993.59644   8565.99194  1.46365         3245.86323     16.81798    4e-05  58666.65459   0.8217  0.00595  3765236.89509  44.43491  18.18075  58708.55517    50.84462       44.10409   26.27633  40.45144   65.5    0.20204  -20.55011  0.99902 
   -3.70017  0.00137  6.42406     14.19967  2.12613  1.23296   8.55806  0.02746      0.0242   4700.7499   8534.11869   1.5397         3407.64821     16.73321    3e-05  58666.78983  1.12807  0.01172  3248436.57388  44.46914  18.16825     58708.41     50.8313        44.0902   27.17053  39.55724   67.0    0.20045  -20.55515  0.99807 
   -3.72645  0.08539  5.48487     14.07634  1.62444  1.28225   8.11398  0.03052     0.01993  4779.99101   8759.23117  1.45255         3537.39441     17.53824  0.00019  58666.76355   1.1059  0.69282  3192811.79657  44.49704   18.1763     58708.41    50.84176        44.0952   27.17053  40.37185   65.5    0.19758  -20.57043  0.88961 
   -3.49022  0.12792  5.51172      14.0436  1.61928  1.39448   4.97848  0.04588      0.0313  4678.97073   8914.18919  1.56318         3438.32381     18.55286  0.00198  58666.99978  0.65017  0.63683  3736837.66005  44.42309  18.17228     58707.47    50.82021       44.07248   27.17053  40.69057   65.5    0.19357  -20.54738  0.89601 
   -3.77045  0.00154  5.30223     14.09357  1.68329  1.00361   11.8613  0.02028     0.01517  4712.16313   8599.15332  1.87954         3112.22055     19.25122  0.00991  58666.71955  1.57109  0.01826  2855945.90308  44.59034  18.16472     58707.47    50.84596       44.10733   26.27633     38.61   65.0    0.19485  -20.56263   0.9971 
   -4.15757  0.00255  5.37296     14.00578  1.67033  1.56716   4.23542  0.05213     0.04354  4492.10068   8586.57415  1.64145         3378.20224     17.42052  0.00015  58666.33243  0.50983   0.0108  4359974.01094  44.39174  18.16904     58707.47    50.84141       44.10811   25.44411  39.44223   69.5    0.19269  -20.53435  0.99821 
   -3.01201  0.10605  6.09056     14.17061  1.86344  1.12617   4.34589  0.05105     0.03262  4416.62517   8487.26161  1.83737         3414.31692      16.0526    1e-05  58667.47799  0.50569   0.4609  2925617.99232  44.50363  18.16595     58708.41    50.83633       44.09106   27.17053  40.37185   68.0     0.2066  -20.54866  0.92329 
   -3.85826  0.07135  4.97429      13.9886  1.44115  1.45797  11.26765  0.02167     0.01427  4855.55096   8673.64038  1.32249         3496.96957     18.79337  0.00345  58666.63174  1.58467  0.80393  3489727.81862   44.4913  18.17771  58708.55517    50.83375       44.08354   26.32945  41.60025   65.5     0.1999  -20.56093  0.87599 
   -3.51368  0.01286  5.24867     14.01425   1.6454  1.26492   4.76912  0.04262     0.03021  4415.41716   8740.70515  1.72796         3377.13252     19.81824  0.03656  58666.97632  0.55464  0.06133  3941631.70151  44.44934  18.16203  58708.55517    50.84188       44.08531   28.02047  41.17871   68.0    0.19465  -20.56525  0.99016 
   -3.34343  0.06021  4.64876      13.9476  1.29395   1.1497  10.24153  0.02098     0.01212   4422.0836   8715.98688  1.37167          3840.7511      16.2206    1e-05  58667.14657  1.19466  0.61669  3305278.63335  44.52688  18.16681     58708.49    50.83232       44.07405   28.02047  41.67411   66.0    0.20286  -20.55651  0.89956 
   -3.53802  0.22207   4.9446     14.02935  1.42417  1.24099    4.9694  0.04976     0.02502  4555.17356   8693.49217  1.51409         3362.63372      17.3199  0.00012  58666.95198  0.61509  1.10353  2824509.08103   44.5832  18.16556  58708.55517    50.81912       44.06116   27.19709  42.00208   67.5    0.19716  -20.53563  0.83689 
    -3.2403  0.09053  5.38043      14.0307  1.58405  1.21307   4.53215  0.04491     0.02941  4551.92487   8771.10616  1.55016         3566.23795     17.99522  0.00055   58667.2497  0.56017  0.41029  3696727.59183  44.43916   18.1809     58708.41    50.84144       44.10108   26.27633  38.91988   68.0    0.20571  -20.55226  0.93126 
   -3.73661  0.01706   5.8817     14.11269  1.87855  1.33772   8.89797  0.02623     0.02258  4830.17338   8560.61507  1.54776         3283.60001     17.86742  0.00041  58666.75339  1.23835  0.15178  3591323.42376  44.44841  18.17163     58708.41    50.83859       44.09227   26.27633  40.45144   67.0    0.19915  -20.55128  0.97537 
   -3.38948  0.02876  5.98102     14.20123  1.93703  0.96362   5.15216  0.04345     0.03823  4665.77679   8566.30261  1.83731         3186.52866     19.31901  0.01158  58667.10052  0.66906  0.14817  2547090.06119  44.59639  18.16172     58708.41    50.83581        44.0764   28.02047  41.67411   67.5    0.19362  -20.56212  0.97622 
   -3.41172  0.10784  5.68507     14.10285  1.70767  1.38963   6.38088  0.03496     0.02458  4411.54323   8825.50973  1.24567         3944.38001     16.12219    1e-05  58667.07828  0.74078  0.68812  3191472.48636  44.48779  18.16042  58708.55517    50.84266       44.09308   27.19709  40.66401   67.0    0.19709  -20.55078  0.89066 
   -3.23487  0.07305  5.80368     14.18598  1.75327  0.93804   8.48056  0.02612     0.02167  4789.53805   8627.27151  1.52142         3392.90663      18.9743  0.00524  58667.25513  1.16048  0.61951  2328670.59061  44.61818  18.15514     58708.47    50.82555       44.07073   27.17053  41.51616   68.0     0.2078  -20.55326  0.90009 
   -3.34624  0.09146  6.17325     14.19593  1.87908  1.08353   6.48792  0.03634     0.02688  4754.11716   8643.21093   1.5003         3531.66753     16.52914    2e-05  58667.14376  0.87473  0.59336  2697288.97555  44.53084  18.17606  58708.55517     50.8311        44.0845   27.17053  40.75917   65.5    0.20787  -20.55968  0.90219 
   -3.57525  0.00175  4.85151     13.98132  1.48001  1.12617   6.18238  0.03474     0.01956  4265.31018   8586.76093   1.6829          3523.4988     19.44438  0.01546  58666.91475  0.67094  0.01084  3525347.10049  44.52016  18.17655     58709.43    50.83889       44.08769   27.17053  41.51616   67.5    0.19446   -20.5641  0.99825 
   -3.39286  0.00293  5.22821     14.06999  1.62878  1.04607    5.6492  0.04085     0.03471  4602.45406   8661.32039  1.76105          3309.8097     17.58435  0.00021  58667.09714  0.71383  0.01653  2995085.53462  44.56759   18.1681     58708.41    50.84731       44.10984   26.32945  38.86676   65.5    0.20177  -20.56705  0.99731 
   -3.53957  0.00294  5.69242     14.04647  1.74845  1.33025   10.9385  0.01931     0.01436  4654.49413    8572.0414  1.86378         3289.15915     16.42064    1e-05  58666.95043  1.41361  0.03214  4247362.99133  44.37279  18.17232  58708.55517    50.83615       44.08462   27.17053  40.75917   68.0    0.20179  -20.54395  0.99442 
   -3.46022  0.07981  5.58299     14.10157   1.6576  1.25714   9.18602  0.02567     0.01855  4714.88109   8554.00886  1.26159         3729.75998     16.28373    1e-05  58667.02978  1.21814  0.73316  3005334.35723   44.5167  18.15702     58707.47    50.85407       44.10097   26.27633  38.91988   67.5    0.20625  -20.55559   0.8835 
   -3.65895   0.0898  6.10231     14.20223  1.90375  0.97881    5.0514  0.04577     0.03096  4823.17909   8534.46342   1.6141         3228.28659     18.18994  0.00086  58666.83105  0.70098   0.4536  2593899.99229  44.56351  18.15887     58708.41    50.82916       44.07372   27.17053  40.75917   69.0     0.1976  -20.53753  0.92624 
   -3.45078  0.12622  5.79698     14.14469  1.79134  1.29357   6.06884  0.04445     0.03572  4984.78919   8612.73819  1.72633         3062.01286     16.14661    1e-05  58667.03922  0.89955  0.76604  2870947.71234   44.5376  18.17132     58708.41    50.84245       44.08716   27.17053  40.75917   65.0    0.19499  -20.55641   0.8833 
   -3.30616   0.0276  5.72156     14.07805  1.76143   1.3281   9.83971  0.02304      0.0201  4897.76354   8350.14403  1.80089         3153.54485     17.96767  0.00052  58667.18384  1.40801  0.27156   3737745.0832  44.42707  18.15976  58708.55517    50.84255       44.10211   26.32945  40.39832   68.0    0.20378  -20.55311  0.95501 
   -3.54023  0.04173  5.69393     14.13562  1.84141  1.10438   6.18787   0.0369     0.02847  4870.93508   8600.81159  1.39631         3403.43367     19.80331  0.03532  58666.94977  0.87578  0.25825  2968619.15121  44.55062  18.16972  58708.55517      50.831       44.07767   27.17053  41.51616   67.0     0.1989  -20.58906   0.9602 
   -3.57738  0.00299   5.5202     14.06275  1.74262  1.26911  10.65435  0.02087       0.017  4590.78849   8458.61774  1.70019          3329.1382     17.88371  0.00043  58666.91262  1.33946  0.03189  3693474.59913   44.4587  18.15901  58708.55517    50.85675       44.11301   26.32945  40.39832   67.5     0.2012  -20.55711   0.9948 
   -3.70016  0.00906  5.26086     14.02654  1.63338  1.37117   9.69458  0.02578     0.02345  4909.50628   8482.91111  1.52369         3319.11266     18.13078  0.00075  58666.78984   1.3939  0.08783  3714799.79385  44.46988  18.15326     58709.43    50.81523       44.05749   27.19709  42.49748   65.0    0.19762  -20.56803  0.98581 
   -3.36132  0.12615  6.56587     14.26005  2.01863  1.13499   8.30608  0.02798     0.02142  4961.20387   8708.05773  1.30793          3471.5914      17.7141  0.00029  58667.12868  1.21954  1.04783  2439845.60527  44.55195  18.15371     58708.41    50.83673       44.09098   27.17053  39.77866   68.0    0.19706  -20.55796   0.8376 
   -3.24639   0.0521  5.60344     14.08279  1.74775  1.30105   6.49472   0.0388     0.03083  5033.17998   8302.97302  2.19695         2896.62832     17.86494  0.00041  58667.24361  0.98146  0.33839  3480425.35853  44.47278   18.1552     58708.41    50.82657       44.07951   27.17053  40.37185   67.5    0.19571  -20.57347   0.9462 
   -3.78812  0.09796  5.76374     14.11236   1.7072  1.30095   7.92762  0.02697     0.01668  4188.65888   9083.10154  1.39327         3915.81693     18.18632  0.00085  58666.70188   0.8297  0.77659  3139015.61638  44.48293  18.16402  58708.55517    50.84201       44.09378   27.17053  40.37185   66.0    0.19567  -20.54496  0.87524 
   -3.39055   0.0824  6.39203     14.27898  1.97657  0.92142   9.26639  0.02618     0.01866  4905.00892   8665.49763  1.45429         3404.12426     18.57189  0.00207  58667.09945   1.3299  0.76354   2075139.2131  44.63643  18.17545  58708.55517    50.84509       44.09251   27.17053  40.75917   67.0    0.20233  -20.55945  0.87833 
   -3.92204  0.05035  5.13443     13.99412  1.52251  1.34528   8.03533  0.03282      0.0316  5191.57717   8691.77706  1.44815          3290.4717     17.46778  0.00016  58666.56796   1.2919  0.40458  3829271.03678   44.4473  18.17549  58708.55517    50.83301       44.07465   27.17053  40.75917   64.5     0.1972  -20.57515   0.9344 
   -3.49651   0.0779  5.42027     14.07905  1.61673  1.20594   7.98698  0.03016     0.02371  4737.77724   8553.96473  1.40889          3527.3272     17.04726    6e-05  58666.99349  1.06945  0.62216  3064707.42422  44.52305  18.16497     58708.47     50.8388       44.08187   27.19709   41.5405   67.0    0.20181  -20.55787   0.9012 
   -3.31275  0.20522  4.96108     14.10499  1.40173  0.85297   5.04396  0.04869     0.03087  4839.07567   8751.37624  1.61964         3237.66427     17.65805  0.00025  58667.17725  0.70457  1.03514  1975400.94819   44.7287  18.18094  58708.55517    50.82898       44.08452   26.32945  40.72598   67.5    0.19933    -20.552  0.84113 
   -3.69032  0.02924  6.21763     14.20509   1.9908  1.10582   6.99035  0.03629     0.02555  4757.64935   8333.90048  1.72912         3308.90574     17.11563    7e-05  58666.79968  0.94387  0.20439  2779119.33666  44.53672  18.17181  58708.55517     50.8502       44.11949   25.44411  39.00927   65.0    0.19727  -20.56228  0.96639 
   -3.45532  0.05759  5.05497     13.98789  1.48161  1.20976   4.70391  0.05032     0.03712  4808.19736   8683.68474   1.6749         3366.96146     17.36914  0.00013  58667.03468  0.64871  0.27088  3717049.54223  44.46194  18.17601     58708.41    50.84405       44.09917   27.17053  40.37185   65.5    0.19594  -20.56491  0.95463 
   -3.22445   0.0512  5.89301     14.13295  1.82767  1.13318   5.08986  0.04738     0.03294  4766.44326   8761.69269  1.92838         3217.13833     16.07748    1e-05  58667.26555   0.6898  0.26059  3195172.45792  44.48557  18.16929     58707.46    50.84562       44.10624   26.32945  38.55688   65.0    0.19765  -20.56538   0.9566 
   -3.18696  0.01818  5.06499     13.99735  1.50292  1.13579   6.38405  0.03099     0.02571  4623.66275   8558.33786  1.48774         3600.15269     17.32016  0.00012  58667.30304  0.81413  0.11608  3624109.90536  44.47742   18.1617     58708.41    50.82819       44.08146   26.32945  40.72598   66.5    0.20436  -20.56058  0.98036 
    -3.6443  0.10472  4.65986      14.0165  1.34432   0.9003   4.94495  0.05119     0.03126   4761.3943   8567.59899  2.06846         3022.24093     17.47493  0.00017   58666.8457  0.66874  0.51781  2512314.27662  44.66053  18.16377     58708.41    50.84055       44.08934   27.17053  40.37185   67.5    0.19927  -20.55249   0.9182 
    -3.6233  0.12266  5.22699     14.04558  1.52626  1.38142   7.62858  0.03421     0.02582  4876.45337   8517.54422  1.39609         3387.93365     17.32748  0.00012   58666.8667  1.08213  0.93571  3138955.31931  44.51919  18.15511  58708.55517    50.84252       44.09735   26.31175  40.41603   67.0    0.19611  -20.55285  0.85711 
   -3.36433  0.01156  5.09125     14.03367  1.54662  1.03053   8.22424  0.03031     0.02316  4821.73103   8637.50104  2.38417         2933.22835      17.9296  0.00047  58667.12567  1.14059  0.09505   3187986.0963  44.54106   18.1815     58707.47    50.82716       44.08204   26.27633  40.45144   65.0    0.19482  -20.56113  0.98436 
   -3.29271  0.09053  5.78521     14.26486  1.71779  0.76452  10.45699  0.02184     0.01741   4972.0756   8798.33435  1.17951         3564.15433     17.45498  0.00016  58667.19729  1.54209  0.94665   1576546.5944  44.78147  18.17004  58708.55517    50.84267       44.08817   27.19709   41.4896   67.5    0.20008  -20.54807  0.85227 
   -3.08983  0.00253  4.50497     13.87244  1.30772  1.34921  10.74099  0.02003     0.02145  4596.81251   8531.65196   1.8715         3284.01766     18.09758   0.0007  58667.40017  1.35389  0.02718   4434467.1849  44.43113  18.17502  58708.55517     50.8475        44.0936   26.32945  40.39832   66.0    0.20544  -20.56012  0.99545 
   -3.58196  0.10219   4.9384     14.08824  1.39494  0.84957   8.27759  0.03056     0.01943  4890.72956   8430.51364  1.62322         3279.57088     17.14619    8e-05  58666.90804  1.18108  0.84589  2104105.03165  44.70316  18.16631     58708.41    50.85215       44.10685   26.32945  40.39832   67.5    0.19583  -20.55863  0.86631 
   -3.31675  0.08386  5.27137     14.04976    1.569  1.21678   6.91194  0.03483     0.02743  4867.05728   8477.80579  1.66964         3222.40799     17.74753  0.00031  58667.17325   0.9767  0.57965  3219393.86084  44.51285  18.17683  58708.55517    50.84018       44.08789   27.17053  39.77866   67.5    0.19995  -20.55992  0.90817 
   -3.51957  0.10888  5.61584     14.12714   1.6542  1.12519   9.00927   0.0277     0.01947  4816.75094   8827.12274  1.60065         3236.80007     16.91985    5e-05  58666.97043  1.24688   0.9809  2697405.94213  44.55766  18.16136  58708.55517    50.87711       44.14064   25.44411  38.81227   67.0    0.20017  -20.54208  0.84814 
