 log(Bfield)      Mns    Pspin  cutoff_power  cutoff_wavelength  fnickel    kappa  kappagamma   mejecta  log(nhhost)  temperature  texplosion  thetaPB     vejecta      A_V        MJD_0   log(KE)     M_Ni  Peak_mag     Peak_MJD 
    14.28694  1.95848  6.33745        1.6814         3918.93784  0.00292  0.03876     0.09288   3.77274     18.44512   9434.93394    -2.96331  0.73077    2895.032  0.00155  58667.52669  51.41994   0.1535  18.19097     58707.47 
    14.10996  1.65189   5.3992       1.55413         3808.25807  0.00951  0.09091     0.07544   1.66703      16.4617   8457.63813    -2.70887  0.95362  2831.76422    2e-05  58667.78113   51.2903  0.38812  18.17979     58708.41 
    14.16711  1.90944  6.07118       1.64859         3620.77195  0.00123  0.07489       0.111   2.12657     18.62166   8736.15747    -2.83105  1.04204   3139.0638  0.00232  58667.65895  51.41575  0.05447  18.20871     58708.41 
    14.02822    1.575  5.08708       2.36849         3221.53702  0.00219  0.02752     0.05079   6.61249     19.80007   9300.21592    -3.13154  1.09149  2948.66324  0.03506  58667.35846   51.4982  0.13323  18.21016     58708.41 
    14.07874  1.85048  5.99979       2.16154         3335.94339  0.00339  0.05765     0.05004   2.80771     16.07894    9763.7461    -2.70381  1.40308  3116.11589    1e-05  58667.78619  51.44707  0.16401  18.20699     58708.41 
    14.14662  1.77062  5.51839       2.26033         3138.46959  0.00242  0.05719     0.05803   3.07726     19.88434   8131.34257    -2.76692  0.90564  3228.33812  0.04257  58667.72308  51.48956  0.12038  18.19443     58707.46 
    14.00838  1.36992   4.6739       1.66706         3544.06779  0.00617   0.0571     0.48071   2.78757     18.34955   8764.40952    -2.65332   0.8637  3083.04836  0.00124  58667.83668  51.43687  0.29779  18.21186     58707.47 
    14.18912  1.97146  6.26455       1.60691         4053.26798  0.00229  0.04566     0.02564   3.07079     17.79316   6284.04773    -2.93323  1.02767  2721.93293  0.00035  58667.55677  51.34109  0.11344  18.17488  58708.55517 
    14.12869  1.77881  5.79882       1.44522         4131.21313  0.00661  0.06672     0.06994   2.19405     16.57377   8397.86612    -2.74979  1.04129  2858.32445    2e-05  58667.74021  51.33877  0.29583  18.18542     58707.47 
    14.01966  1.69535   5.4482        2.4969         3106.27606  0.00292   0.0586     0.08415   2.88694     19.56908   8268.04597    -2.83713   1.3986  3181.45918   0.0206  58667.65287   51.4687  0.14249  18.18268     58707.47 
    13.97835  1.50775  5.04253       1.46222         4035.27529  0.01064  0.03667     0.03798   4.13433     16.85623   9793.64772    -3.05759  1.30304  2800.85729    4e-05  58667.43241  51.40201  0.57387  18.19716     58707.47 
    14.03355  1.59717  5.28784       1.69626         3555.80331  0.00732  0.06731     0.09586    2.3825     18.65669   5737.66211    -2.91077  1.08018  3087.98583  0.00252  58667.57923  51.41731  0.33618  18.16296  58708.55517 
    14.14568  1.86887  5.94576       1.60943          3943.0261  0.00265   0.0428     0.03586   3.76354     17.94112     9698.984    -3.01458  1.13735  2715.32292  0.00049  58667.47542  51.36399  0.13933   18.1674     58707.46 
    13.90673  1.41591  4.90647       1.52128         4129.22458  0.00575  0.03879      0.0918   3.88985      18.3701    8985.5518    -3.46997   1.4222  2744.83678   0.0013  58667.02003   51.3773  0.30497  18.19622     58708.49 
    14.37938   2.1378   6.7013       1.71316          4246.2723  0.00588  0.03629     0.05783   3.41354      18.8742   6635.05467    -2.44313   0.7122   2341.9941  0.00416  58668.04687  51.22369  0.30091  18.20589  58708.55517 
    13.93573  1.43448   4.9296       2.02128           3510.905  0.00124  0.04481     0.06336   3.54919     16.95134   5299.50375    -2.74707  1.33356  2911.57183    5e-05  58667.74293  51.41753  0.06429   18.1799     58708.41 
    14.22635   2.0806  6.75004       3.12577         2551.67145   0.0924  0.02346     0.01755  10.43222     18.52114   9521.76457    -2.72908  1.35675  4137.63611  0.00184  58667.76092  51.83722  6.21957  18.16563     58708.41 
    14.02729  1.59122  5.43503       1.57852         4240.24224  0.00818  0.03876     0.03288   3.70557     17.58817   6369.19751    -3.21781  1.13922  2659.67347  0.00022  58667.27219  51.34414  0.42816  18.19959     58708.41 
     14.0748  1.73111  5.65568        1.8297         3593.82813  0.00753  0.06194     0.33554   2.54732     16.61711   6818.53557    -2.89409  1.18293  2937.10878    2e-05  58667.59591  51.38285  0.35343  18.19684     58707.47 
     14.0732  1.74804  5.72723       1.85457         3645.57154  0.00607  0.03394     0.04659   4.91558     16.84938   7193.69184    -3.28499  1.27616  2907.57272    4e-05  58667.20501  51.45419  0.34235  18.20291     58708.41 
    14.11178  1.74731  5.57932       2.00815         3483.35916   0.0164  0.07332     0.05395   2.17757     19.81189   7361.63345    -2.99197  1.01932  2880.01766  0.03603  58667.49803  51.34428  0.73234  18.16349     58707.46 
    14.04427  1.46739  5.04934        1.6469         4044.34761  0.00224  0.05166     0.05573   2.80935     18.80887   7144.35602    -2.75252   0.9033  2704.62021  0.00358  58667.73748  51.32413  0.10816  18.21482     58707.47 
    14.00923  1.64672  5.48169       2.14148         3343.38046  0.00698  0.06686     0.07827   2.53217     18.24202   5862.05531    -3.06535  1.34914  3060.57271  0.00097  58667.42465  51.41782    0.327  18.20981     58707.47 
    14.06251  1.58679  5.29763       2.07489         3435.52261  0.00135  0.07125     0.07831   2.23663     17.72792   7559.89273    -3.03443   0.9769  2895.89007   0.0003  58667.45557   51.3528  0.06092  18.18185     58707.47 
    14.04783  1.52252  5.09597       2.26688         3264.63611   0.0011  0.07899     0.11332   2.19688     18.18505   6788.19117    -3.16011  0.91794  3044.87312  0.00085  58667.32989  51.39387  0.04939  18.18468     58708.41 
    13.98849  1.56488  5.25918       1.71775          3772.2697  0.00702  0.06468     0.18828   2.54379     17.48995    3998.8059    -3.44065  1.34657  2881.96399  0.00017  58667.04935   51.3662  0.32913  18.20603     58708.41 
    14.01191  1.61015  5.27842       1.66556         4134.71127  0.00173  0.03026     0.06882   4.45892     16.74598   6906.89581    -3.23111   1.4411  2302.61868    3e-05  58667.25889  51.24059  0.09532  18.20115     58708.41 
    14.07031  1.71562  5.53721       1.71325         3588.04001  0.00561  0.06451     0.07931   2.52794     19.55519   7114.16571    -2.60204  1.15264  3169.78174  0.01995  58667.88796  51.44804  0.26277   18.2048     58708.41 
    14.09862  1.65071  5.56008       1.74064         4116.99666  0.00229  0.05685     0.04116   2.26231     18.69493   9863.72325    -2.56785  0.94708   2497.9511  0.00275  58667.92215    51.226  0.10359  18.19808     58708.47 
    13.97268   1.5632  5.00658       2.17571          3234.8928  0.00369  0.03535     0.03556   4.41692     19.81906     7950.912    -2.94247  1.36008   2903.7624  0.03663  58667.54753  51.44098  0.20256  18.22222     58708.41 
      13.893  1.39646  4.88411        2.2533         3351.50016  0.00199  0.05102      0.1623   3.41405     16.85787    8499.9363    -3.14544   1.4367  3175.19573    4e-05  58667.34456  51.48808  0.10172   18.1893     58708.41 
    14.03959  1.67059  5.56414       1.81696         3714.71189  0.00117  0.06552     0.05001   2.31702     16.56515   9408.32131    -2.94811  1.22908  2856.42945    2e-05  58667.54189  51.34578  0.05336  18.17658     58707.47 
    14.23461  2.09393  6.70116       1.74714         4120.05786  0.00162  0.05678      0.1015   2.38777      17.7819   7111.53987    -3.26806  1.04063  2500.76694  0.00034  58667.22194  51.23441  0.07466  18.18272     58708.41 
    14.06341  1.70547  5.68477       1.68101         3973.69545  0.00521  0.03082     0.04121   4.49993      17.8991   6643.25265    -2.79637  1.23864  2690.47118  0.00044  58667.69363  51.37684  0.28742  18.19583     58708.41 
    13.98553  1.57129  5.23364       1.88072         3399.24967  0.00352  0.05403     0.18098   3.03192     18.68337   8555.33837    -2.77292  1.30893  3074.25086  0.00268  58667.71708  51.44519  0.17383  18.18523     58708.41 
    13.95906  1.52981   5.1435       2.07563         3368.35883   0.0013  0.05326     0.12468   3.16304     17.76799   7073.48586    -3.08069  1.38774  3137.63697  0.00033  58667.40931  51.46827  0.06518  18.22067  58707.33984 
    14.16549  1.88573  5.86003       2.20307         3185.15085  0.00267  0.05462     0.05255   3.09527     19.07063   7970.87479    -2.94467  1.01614  3033.99774  0.00654  58667.54533  51.43637  0.13292  18.20598     58707.47 
    14.03969  1.54468  5.22313       1.58854         4021.99971  0.00204  0.04621     0.04681   3.09237     18.09983   9670.06861      -3.128  0.98971  2696.96438   0.0007    58667.362  51.33397  0.10149  18.20979     58708.41 
    14.11656  1.82574  5.75785       2.16106         3202.15357  0.00839  0.07667      0.3529   2.32021     18.29917   9180.77695    -3.25025  1.14285  3135.30933  0.00111  58667.23975  51.42689  0.38239  18.21319  58708.55517 
    14.17234  1.93598  6.19615        1.5694         4128.59531  0.00711  0.09395     0.28749   1.42664       16.851   6839.44487    -2.93722  1.05333  2594.04014    4e-05  58667.55278  51.18948  0.27415  18.20396  58708.55517 
    14.04764  1.66176  5.56567       1.68458          3964.8081   0.0115  0.05756      0.1792   2.63424     18.76521    6628.0915    -2.96261  1.27342    2707.775  0.00324  58667.52739   51.3167  0.54523  18.15403     58707.47 
     14.2098  1.99493  6.39472       1.69151         4039.92483  0.00205  0.06847     0.06508   2.19893     17.19664   8128.42107    -3.36427  1.01362  2644.65531    9e-05  58667.12573   51.2716  0.09163   18.2116     58708.41 
    14.05473  1.70829  5.57835       1.62828         3849.23786  0.00379  0.08469      0.0963   1.79332     17.88801   8799.23599    -3.18675   1.2721  2837.44061  0.00043  58667.30325  51.30314  0.15848  18.18082     58707.47 
    14.08318  1.67477  5.38024       3.13281         2841.94149  0.01487  0.07752     0.13077    2.1335     19.02823   9798.08495    -2.86086  1.01664  3016.56685  0.00593  58667.62914  51.38163  0.65972  18.21039     58708.41 
    14.12503  1.80529  5.87655       2.06713         3466.88424   0.0016  0.05245     0.10155   2.92915     17.22377   8970.38663    -3.13042  1.05598  2840.00502    9e-05  58667.35958  51.37195  0.07817  18.18208     58708.41 
     14.1499   1.9587  6.14939       1.83023         3496.22505   0.0056  0.05475     0.05718   2.93997     17.91916   7861.46391    -3.09768  1.18914  3056.75182  0.00046  58667.39232  51.43631  0.27429  18.18839     58707.47 
    14.09439  1.77758  5.73061       2.06129         3338.25888  0.00298  0.06575     0.06131   2.48869      18.3368   8115.63894    -2.89618  1.12317  3026.57046  0.00121  58667.59382  51.40578  0.13894   18.2007     58708.41 
    14.14002   1.5246  5.08857       2.49668         3183.81449  0.00347  0.04368     0.04433   3.74911     17.23367   5795.96094    -2.94286  0.70781  2882.20411   0.0001  58667.54714  51.41533  0.18212  18.20806     58707.47 
    14.14745  1.89321  6.18697       1.90362         4201.55805  0.00451  0.04079     0.04562   3.06557     16.54686    8476.7023    -2.84365  1.21586  2188.10848    2e-05  58667.64635  51.15125  0.22394  18.19497     58707.47 
    14.16278  2.04629  6.29593       1.98049          3384.7563  0.00211  0.04329     0.32868   3.89756      18.7817   3024.96408     -2.8956  1.41985  2938.31246  0.00336   58667.5944   51.4367   0.1118  18.20693     58707.47 
    14.06821  1.48679  5.10021       1.64825          3775.6193  0.00552  0.05872     0.06734    2.7259     18.20316   8916.43452    -3.44197   0.8217  3036.54414  0.00089  58667.04803  51.42074  0.26437  18.16374     58707.47 
    14.20073  1.74014  5.71671       1.79756         3575.94211  0.00111   0.0269     0.02441   5.86538       17.782   9906.02046    -2.80098  0.76359    3053.547  0.00034  58667.68902  51.51597  0.06532    18.207     58708.41 
    14.15684  1.63316  5.36771       2.32633         3334.90453  0.00158  0.06931     0.08313   2.36261     17.45245   8608.50843     -3.2391  0.77305  2710.71822  0.00016   58667.2509  51.30298  0.07236  18.17974  58707.32812 
    14.18943   1.8201  5.94195       1.71651         4162.96845  0.00295  0.08647     0.05565   1.58893     17.84093   6573.64458    -3.32666  0.90427  2374.89556  0.00039  58667.16334  51.13003  0.11825  18.19775     58707.47 
    14.17601   1.9767  6.31228       1.76229         4026.94037  0.01286  0.07053     0.11406    2.1885     16.88828   7353.48796     -3.1547  1.17114  2629.95496    4e-05   58667.3353  51.26609  0.57523  18.19967     58708.41 
    14.04914  1.60534  5.28026       1.87115         3355.85117  0.00468  0.02762     0.42034   5.84461     19.00561   4292.68104     -2.7018  1.05265  3199.01437  0.00563   58667.7882  51.55602  0.27579  18.20457     58707.47 
    14.14784  1.96881   6.1097       1.94751         3329.93524  0.00106   0.0502     0.09274   3.34312      18.8839   9462.56483    -3.06999   1.2139  3098.81102  0.00425  58667.42001  51.46434  0.05387  18.20527  58708.55517 
    14.20053  1.93899  6.08481       1.94635         3357.46453  0.00143  0.06381     0.04226   2.52751     18.45343   5860.24186      -3.021   0.9345  3059.41975  0.00158    58667.469  51.41724  0.06673  18.18756     58708.41 
     14.1516  1.87999  5.91534        2.0354         3308.01806  0.00829  0.04284     0.20663   4.04778     19.50318   8434.35384    -3.06069  1.06491   3085.2291   0.0177  58667.42931  51.48353  0.44431   18.2131     58708.41 
     14.0193  1.51747  5.08302       1.83584         3563.40581  0.00109  0.05379     0.05145   2.89343     18.84248   6957.26615    -3.02815  1.04229  2874.93343  0.00387  58667.46185  51.38099   0.0532  18.19831  58707.32812 
    14.06039  1.49463  5.12535       1.66515         3826.52041  0.00699  0.03409     0.04869   4.35931      17.4369   8642.62059    -2.84762  0.87208  2895.85691  0.00015  58667.64238  51.43711  0.38225  18.21522     58707.47 
    14.12315  1.93784  6.07439       2.23186         3328.12482   0.0016  0.04306     0.03302   3.92835     19.24681   9871.12954    -2.88534  1.33859  3045.36666  0.00981  58667.60466  51.46871  0.08519  18.19101     58708.41 
    13.97819  1.58509  5.21263        2.2439         3199.61586  0.00232  0.09396      0.2959   1.73191     19.47126   9246.68551    -2.69421  1.42821  3117.98098  0.01644  58667.79579  51.37978  0.09585  18.20184     58707.47 
    14.15175  1.85555  6.04602       1.57873         4077.08926  0.00505  0.04448     0.09187   3.12623      18.4297   6939.91381    -2.57327  1.06157  2801.63853  0.00149  58667.91673  51.36841  0.25209  18.19501     58708.47 
    13.93164  1.41381  4.83694       1.50639         4169.67044  0.00387  0.03027     0.01988   4.57185     16.31524   4975.88811    -3.09825  1.28718  2544.16212    1e-05  58667.39175  51.33008   0.2144  18.20261     58707.47 
    13.92122   1.4415  4.96302       1.51477         3857.76112  0.00106   0.0428     0.15119   3.61336     18.47744   6753.69479    -3.30242   1.3246  3017.99011  0.00167  58667.18758  51.45089  0.05523  18.20682  58708.55517 
    14.03391  1.38555  4.79222       2.02312         3449.85277  0.00492  0.06913     0.06783   2.39305     17.37607   8337.96821    -3.27421  0.80674  3005.58756  0.00013  58667.21579  51.39442  0.22621  18.19917     58708.41 
    14.13245  1.95999  6.31356       1.76197         4067.85412  0.00227  0.07658     0.11622   1.70622     16.72686   8366.49934    -3.06182  1.36432  2457.67387    3e-05  58667.42818   51.1708  0.09319  18.18852     58707.46 
    14.22595  2.00796  6.40556       1.59584         4106.91481  0.00309  0.06708     0.18398   2.18108     18.28426   7731.25373     -3.0258  0.96183  2680.93032  0.00107   58667.4642  51.28229  0.13812  18.20584     58707.47 
    14.05826  1.69394  5.43634       1.87712         3420.54961  0.00141  0.07923     0.09944     2.092     19.52987   9823.03014    -3.03921   1.1676  3069.75708  0.01882  58667.45079  51.39402  0.06233   18.1993     58707.47 
    14.05667  1.69016  5.54994       1.60816         3691.76694  0.00551  0.07132     0.10712   2.18927     16.49235   9879.25315    -2.82529    1.199  3040.58073    2e-05  58667.66471  51.39216  0.24662  18.20118     58707.47 
    14.23106  2.05651  6.38708        2.0205         3454.09245  0.00285  0.03363     0.04466   4.98935     17.09041   8024.96799    -3.23381   0.9815  2912.39658    7e-05  58667.25619  51.45729  0.16153  18.18475     58708.41 
    14.23675   1.9258  6.06003       2.18093         3341.70987  0.00126   0.0336     0.02775   4.96052     18.43738    8899.7394    -2.95239  0.84094  2915.73516  0.00152  58667.53761  51.45764  0.07098   18.1979     58708.41 
    14.04365  1.57876  5.30009       1.65741         3789.02738  0.00169  0.08561     0.22102   1.83826     16.85345   8062.22005     -3.1258   1.0726  2859.61344    4e-05   58667.3642   51.3136  0.07114  18.20459     58708.41 
    14.09231  1.78411  5.73464       2.71515         3051.28335  0.00657  0.03595     0.03982   4.82134     16.05995   8657.30362    -3.18156  1.13195  3079.11741    1e-05  58667.30844  51.50183  0.36884  18.20048     58707.47 
    14.08523   1.6755  5.54516       2.15535         3339.39772  0.00247  0.05332     0.10271   3.21276     17.08478   8286.83341    -3.06059  1.03244   3076.4441    7e-05  58667.42941  51.45311  0.12416  18.21322     58708.41 
     14.0655  1.76723   5.7653       1.91293         3567.25934  0.00784  0.07602     0.06577   2.13346     17.14759   9695.17592    -3.09654  1.31921  2937.48967    8e-05  58667.39346  51.35856  0.34797  18.20833     58707.47 
    14.12526  1.87465  6.06259        1.6297         4021.08743  0.00729  0.06787     0.03496   2.13089     16.17698   9578.61971    -3.41309  1.18414  2655.68551    1e-05  58667.07691  51.27079  0.32303  18.18401     58708.41 
    14.09693  1.66464  5.65666       1.71527         4166.47843  0.00147  0.04415     0.41805   2.97903     17.31847   8696.51166    -2.28068  0.99746  2622.72448  0.00012  58668.20932  51.30498  0.07233  18.21301     58708.41 
    13.99636   1.6203  5.41015        1.7879         3512.73702  0.01384  0.08167     0.07818   1.94939     16.86423   6673.58582    -3.15687  1.41056  3106.41439    4e-05  58667.33313  51.39416   0.5958  18.20825     58707.47 
    14.12079  1.92152  6.07378       1.90912         3349.10196  0.00197  0.03598     0.11283    4.6162     17.19293   5730.12371    -2.98788  1.26354  3177.62508    9e-05  58667.50212  51.52429  0.10913  18.19945     58708.41 
    14.18807  2.08941   6.6038       1.65789         4144.98849  0.00912  0.02983     0.04773   4.61817     16.87125   6637.93137    -3.04712  1.28565  2540.60327    4e-05  58667.44288     51.33  0.50665  18.19766     58708.41 
    14.18328  1.94648    6.266       1.74065          4147.7904  0.00218  0.05072     0.03054   2.77921     17.78963   5141.11226    -3.33503  1.05302  2432.84771  0.00034  58667.15497  51.23075  0.10489  18.19241     58708.41 
    13.99837   1.5709  5.30263        1.9304         3579.97106  0.00158   0.0365     0.03355    4.3415     16.39221   7333.60704    -3.05956  1.24474   2899.3351    1e-05  58667.43044  51.43768  0.08618  18.18793     58707.47 
    13.90718  1.37635  4.62526       1.64252         3631.43711  0.00135  0.04252     0.04605   4.01178     19.70312   8180.83306    -3.13476    1.302  3066.17823  0.02804  58667.35524   51.4771  0.07232  18.18116     58707.47 
    13.94571  1.43733  4.64598       2.05691         3210.29712   0.0018  0.05389     0.03532   3.18801     19.59229   4155.74118    -3.27981  1.16494  2981.92248  0.02173  58667.21019  51.42504  0.09008  18.21372  58707.34375 
