 texplosion  fnickel    Pspin  log(Bfield)      Mns  thetaPB   mejecta    kappa  kappagamma     vejecta  temperature    alpha  cutoff_wavelength  log(nhhost)      A_V         MJD0  kenergy  mnickel          TSD   log(L0)  Peak_mag     Peak_MJD  log(E_rad)  log(Peak_lum)  Rise_Time    E_fold  tau_1  delta_m15     r_peak     frac 
   -1.44472  0.00298    0.773     14.67734  1.90639  1.03412  10.73566  0.04659     0.41021  4562.79561   7023.88852  1.53829         5587.47192     19.32172  0.01165  55650.13528  1.33327  0.03198   4674.25838  49.10299  17.76205  55680.62678    50.88868       44.31605   11.56194  33.40656   34.5    0.27714  -21.24562  0.99999 
    -1.8031  0.00585  0.81211     14.65908  2.01083  1.36665   8.49055  0.06318     0.12997  4965.58959   7002.01836  1.42087         5601.69288     17.42358  0.00015   55649.7769  1.24883  0.04967   5919.23008  48.98072  17.85065  55680.62678     50.8752       44.30075   11.56194   34.2466   33.0    0.22585  -21.58751  0.99998 
   -1.43555  0.00121    0.763     14.63251  1.85405  1.18715   9.82716  0.05483     0.15223   4711.8288    6876.8408  1.52116         5841.55993     17.10884    7e-05  55650.14445  1.30147  0.01192   5444.62769  49.03595  17.76359  55680.62678     50.8858       44.31623   11.56194  33.40656   33.5    0.27205  -21.27655  0.99999 
   -1.78711   0.0027  0.73162     14.65615  1.89456  1.12003  10.01465  0.05513     0.14564  4960.40488   6484.47462  1.42794         5475.46996     17.79049  0.00034  55649.79289  1.46993    0.027   4587.76975  49.15618  17.81828  55680.62678    50.89666       44.32566   13.33828  32.58401   33.5    0.30473  -21.72095  0.99999 
   -1.63769  0.00242  0.75549     14.64348  1.65948  0.84173  15.73926  0.03289     0.26957  4617.95716   6448.94726   1.4948         5783.39815     19.04343  0.00614  55649.94231  2.00222  0.03807   4542.23575  49.07509  17.75259  55680.62678    50.89305       44.32591   11.56194  33.40656   34.5    0.27253  -21.10723  0.99998 
   -1.90209   0.0011  0.75788     14.50591  1.61542  1.30778   7.30022  0.07313     0.40887  4925.26974   7183.57304  1.36911         5725.05768     17.17445    8e-05  55649.67791  1.05639  0.00801   8384.65893  48.79445  17.82476  55680.62678    50.91104       44.34628   13.33828  32.58401   34.0    0.28559  -21.25333  0.99999 
   -1.45176  0.00229  0.72752     14.63308  1.49328  0.72355  29.55825  0.01696     0.07174  4559.07548   6130.09883  1.50698         5579.35849     16.03367    1e-05  55650.12824  3.66488  0.06778   3976.30506  49.11982  17.80777  55680.62678    50.88248         44.299   13.33828   34.2466   33.0    0.26425  -21.18369  0.99995 
   -2.27489  0.00107  0.91393     14.66878   1.7141  0.78371  10.63073  0.04958     0.14459  4897.82673   6348.63585  1.39169         5419.35109     18.36678  0.00129  55649.30511  1.52124   0.0114   6111.12715  48.79493  17.79272  55680.62678    50.89821       44.32844   13.33828  33.40656   34.0    0.26936  -20.96672  0.99999 
   -1.41425  0.00242  0.73963     14.85432  2.10923  0.75707  25.34527  0.02066     0.16129  4547.40922   6726.54784  1.59031         5755.60387     17.59938  0.00022  55650.16575  3.12646  0.06129   2095.68365  49.53362   17.7903  55680.62678    50.90232       44.33419   11.56194  33.40656   33.5    0.24974  -21.32436  0.99998 
   -1.86009  0.00276   0.8081     14.66195  1.94156  1.09019   7.31928  0.06589     0.26676  4619.49577   7193.70368  1.39121         5844.64634     17.06136    6e-05  55649.71991  0.93172  0.02024   5584.72146  48.99506  17.78847  55680.62678    50.91485       44.35465   11.56194  32.32894   33.0    0.30199  -21.37394  0.99999 
   -1.56729  0.00508  0.74812     14.72882   2.0536  1.04764   8.63642   0.0612     0.10915   4836.7554   7261.11819  1.42785         5805.31692     16.37307    1e-05  55650.01271  1.20523  0.04385   3720.84639  49.26278  17.76585  55680.62678    50.89302       44.32454   11.56194  33.40656   33.0    0.27488  -21.13276  0.99999 
   -1.85876  0.00133  0.74884     14.66657  1.75563  0.87794  21.99935  0.02446     0.16622  5074.32314   7047.39389  1.37614         5688.61745      17.3558  0.00013  55649.72124  3.37904  0.02927   4245.03925  49.13662  17.79837  55680.62678    50.87717       44.30043   11.56194   34.2466   33.0    0.30816   -21.3734  0.99998 
   -1.14974  0.00387  0.98963     14.80561  2.11263  0.83267  13.83131  0.02862      0.0623  3635.06127   6472.19208  1.80763         5672.32231     18.70097  0.00279  55650.43026  1.09022  0.05359   4702.98092  48.93035  17.79827  55680.62678    50.87602       44.29828   11.56194   34.2466   35.0    0.24162  -21.14268  0.99995 
   -2.73808   0.0016  0.70104     14.70416  1.94685  0.93868    8.3089  0.07153     0.29622  5322.81608   6993.24654  1.15695         5757.78698     17.01976    6e-05  55648.84192  1.40428  0.01328    3469.8664  49.32638   17.8126  55680.62678    50.87221        44.2957   11.56194   34.2466   34.5     0.2719  -20.79833      1.0 
   -1.45913  0.00172  0.76013     14.60645  1.71423  1.00049   7.05988  0.07105     0.44417  4551.44186   6577.69329  1.53296         5571.78632     19.77354  0.03298  55650.12087  0.87241  0.01213    5633.3669  48.99037  17.76533  55680.62678    50.90377       44.34228   11.56194  32.58401   35.0    0.26637  -21.23801  0.99999 
    -1.7249  0.00195  0.84793     14.44267   1.5204  1.56019  12.33154  0.03604     0.07841   4200.1152   6586.19436  1.53126         5933.78261     16.70813    3e-05   55649.8551  1.29768  0.02401  13217.81894  48.47292  17.82512  55680.62678    50.92052       44.35091   11.56194  33.40656   33.5    0.25265   -21.1152  0.99997 
   -1.83959   0.0047  0.72889     14.70687  2.03737  1.09794   5.37045  0.10258     0.33446  4925.43044   6922.62957  1.33702         5781.98709     19.59086  0.02166  55649.74041  0.77719  0.02526   3876.70218  49.26413  17.76822  55680.62678    50.90338       44.33073   11.56194  33.40656   34.0    0.27189  -21.42022  0.99999 
   -2.10637  0.00106   0.7658     14.70829  1.95653  0.97676   6.55561  0.08203     0.10833   4804.1834   7066.42259  1.41397         5679.65954     16.19839    1e-05  55649.47363  0.90257  0.00696   4082.85191  49.18113  17.84923  55680.62678    50.89709       44.31098   13.85526   34.2466   34.0    0.25905  -21.03253      1.0 
   -1.41976  0.00155  0.74056     14.74447  2.02124  0.96829  25.01839  0.02026     0.35189  4671.57122   7233.61937  1.49704         5686.78449      17.3128  0.00011  55650.16024  3.25696  0.03872    3338.9616  49.31173  17.85162  55680.62678    50.91178       44.33738   13.85526  33.40656   33.0    0.27194  -21.28125  0.99999 
   -1.82418  0.00184  0.79101     14.64065  1.86097  1.12131   7.65828  0.07784      0.1161  5074.52494   6831.11191  1.41175         5562.39064     19.69474  0.02751  55649.75582  1.17638  0.01409   5657.45498   48.9896  17.81183  55680.62678    50.88128       44.29959   11.56194  34.63815   35.5    0.26709  -21.43157  0.99999 
   -1.54489  0.00423  0.70137     14.85098  1.91989  0.63456  10.79274  0.04829     0.18829  4774.74646   6762.28868  1.48698         5528.44793     16.32678    1e-05  55650.03511  1.46777  0.04568   1741.90269  49.61921  17.75481  55680.62678    50.87293       44.29396   12.60063  33.59946   33.5    0.26095  -21.12219  0.99999 
   -1.48925  0.00107  0.86695     14.56396  1.74576  1.16758   7.08765  0.05656     0.26461  4098.78037   6288.35917  1.50642         5584.36457     17.55712   0.0002  55650.09075  0.71029  0.00757   9075.38716  48.67698   17.7887  55680.62678    50.89194       44.31557   11.56194   34.2466   32.5    0.25758   -21.2033  0.99999 
   -1.89461  0.00113  0.77603     14.52125  1.64163   1.2602  29.16999  0.01867     0.09062  5123.87267   6797.64461  1.35394         5598.05251     17.81339  0.00036  55649.68539  4.56836  0.03283   8324.41768  48.78401  17.76511  55680.62678    50.89292       44.32199   11.56194  33.40656   33.5    0.29439  -21.26564  0.99997 
   -1.39829  0.00237  0.78561     14.49424  1.49217  1.06045  16.05306  0.02753     0.02827   4231.2495   6714.20242  1.61208         5742.18505     17.51563  0.00018  55650.18171  1.71444  0.03798   8781.42309  48.70868  17.77477  55680.62678    50.89763       44.32939   11.56194  33.40656   32.5    0.27245  -21.36382  0.99996 
   -1.59407  0.00726   0.8713      14.5943  1.96054  1.53836   5.60234  0.07974     0.20877  4278.09105   6135.62756  1.61332         5277.65931     20.27617  0.10493  55649.98593  0.61164  0.04069   8951.93848  48.72897  17.85936  55680.62678    50.88298       44.30169   13.33828   34.2466   35.5     0.2757  -21.17142  0.99997 
   -1.27767  0.00154  0.89464     14.60155  1.83095  1.24088  11.95656  0.03889     0.07936  4171.48364   6492.95746   1.6821          5577.1873     16.16683    1e-05  55650.30233  1.24112  0.01843   8524.99978  48.69753  17.79694  55680.62678    50.88383       44.30579   11.56194   34.2466   35.5    0.27536  -21.68825  0.99998 
   -1.86303  0.00241  0.79836      14.7359  1.93082  0.84127   11.1506  0.04428     0.36745   4563.9148    6891.2453  1.41416         5712.61144     16.61681    2e-05  55649.71697  1.38548  0.02689   3856.13517  49.16404  17.76053  55680.62678    50.88368       44.31016   11.56194  33.40656   34.0     0.2852  -21.33631  0.99999 
   -1.91107   0.0012  0.77732     14.87646  2.03171  0.63059  22.50867  0.02164     0.04945  4579.20081   6786.08347  1.47172         5730.82917      17.7617  0.00032  55649.66893  2.81551  0.02693   2013.53191  49.49155  17.82266  55680.62678    50.90948       44.33024   13.33828   34.2466   33.5    0.29275   -21.2883  0.99999 
   -1.36795  0.00344  0.74641     14.80556  1.82879  0.64246    11.291  0.04288     0.08883  4503.90758   6911.78813  1.49402         5816.26414     17.46276  0.00016  55650.21205  1.36628  0.03881   2316.34604  49.42026  17.83192  55680.62678    50.87832       44.29572   11.56194  34.63815   33.0    0.23607  -21.40652  0.99998 
   -1.68392    0.001  0.71131     14.65555  2.09316   1.3371   8.34101  0.05532      0.2537  4326.34391   7039.94227  1.53031         5499.29276     20.30591  0.11237  55649.89608   0.9313  0.00835   4804.28781   49.2039   17.7537  55677.98781    50.87939       44.30608   11.56194  33.40656   34.5    0.30923  -21.13043      1.0 
   -1.34919  0.00297   0.7105     14.78988  2.10826  0.92066    9.3214  0.05108     0.48954  4236.01382   7414.89399  1.59775         5680.30051      18.2755  0.00105  55650.23081  0.99775  0.02768   2600.79133  49.47454  17.78824  55680.62678    50.90434        44.3263   11.56194   34.2466   34.0    0.21904   -21.4704  0.99999 
   -1.66331  0.01689  0.70323     14.66604  1.84129  0.99677   4.53258  0.10912     0.19243  4713.00921   7059.80242  1.43933         5523.46989     18.92481  0.00467  55649.91669  0.60058  0.07657   3935.95759  49.24472  17.75499  55680.62678    50.90377       44.33463   11.56194  33.40656   34.0    0.30583  -21.04255  0.99997 
   -1.43505   0.0055  0.80124      14.7682  1.91211  0.76128  11.20958  0.04144      0.2895  4174.20646   6120.00435   1.5981         5591.77291     19.71893  0.02908  55650.14495   1.1651  0.06165   3314.81748  49.22237  17.74792  55680.62678    50.90789       44.34592   11.56194  32.58401   33.5     0.2663  -21.25391  0.99997 
   -1.63575  0.00329  0.74853     14.74648  1.59396  0.57366  13.11534   0.0355     0.04379  4308.62987   6156.96487  1.51563         5812.91166     18.54958  0.00197  55649.94425   1.4524   0.0431   2665.36511  49.29715  17.80641  55680.62678    50.88725       44.31591   11.56194  33.40656   34.0    0.27754  -21.12799  0.99997 
   -1.65613  0.00451  0.73812     14.92903  2.14406  0.62432   5.79128   0.0915      0.2518  4612.22692   6800.61248  1.48058          5890.1908     17.86504  0.00041  55649.92387  0.73489  0.02611   1504.00726  49.68658  17.74966  55680.62678    50.88308       44.30907   11.56194   34.2466   35.0     0.2857  -21.06962  0.99999 
   -1.32216  0.00292  0.81707     14.55864  1.59082  0.99526  19.54669  0.02512     0.28521  4571.57992   6727.01227  1.55686         5855.00776     16.02912    1e-05  55650.25784  2.43687  0.05705   7527.97354  48.76927  17.78917  55680.62678      50.888       44.31292   11.56194   34.2466   34.0    0.31436  -21.52504  0.99994 
   -1.39762  0.00248  0.72849      14.7355   1.7348     0.73  11.85523  0.04087     0.47065  4291.35829   6862.87272    1.584         5717.51516     16.95006    5e-05  55650.18238  1.30235  0.02935   2890.10642  49.32233  17.80495  55680.62678    50.86951       44.28635   11.56194  34.63815   34.0    0.24721      -21.3  0.99999 
   -1.46334  0.00284  0.73202     14.53934  1.69861  1.44567  12.39565  0.03621     0.47021  4109.80069   6470.52181  1.56723         5798.81006     17.80175  0.00035  55650.11666  1.24893  0.03521   7051.40534  48.92162  17.80465  55680.62678    50.88237       44.30548   11.56194   34.2466   34.5    0.27089  -21.22208  0.99998 
   -1.36752  0.00108    0.731     14.41283  1.41319  1.36868  24.06739  0.02143     0.04572  4486.95063   6654.95447  1.62544         5382.04585      19.9381  0.04818  55650.21248  2.89041  0.02598  10475.96853  48.67102   17.8242  55680.62678    50.87699        44.3018   11.56194   34.2466   35.0    0.20214  -21.33017  0.99998 
   -1.97963  0.00356  0.70157      14.8044  1.93951  0.72738   9.21908   0.0584     0.42034  4849.59291   7174.11306  1.38888         5823.58028     16.87965    4e-05  55649.60037  1.29338  0.03281   2182.01001  49.52554  17.82424  55680.62678    50.90153       44.32373   13.33828   34.2466   34.5     0.2678  -21.14581  0.99999 
   -2.28818  0.00159  0.72134     14.52397  1.68293  1.55059   7.90865  0.07374     0.22812  5109.14386   6887.69104  1.30128         5920.12796     18.18751  0.00086  55649.29182  1.23148   0.0126   7281.38584  48.91642  17.77343  55680.62678    50.89678       44.33304   11.56194  33.40656   34.0    0.25616   -20.9576  0.99999 
   -2.11969  0.00159  0.71901     14.93887  2.05415  0.53205   5.07734  0.11679     0.16876  5426.21092    6596.0755  1.28358         5443.60562     20.10964  0.07151  55649.46031  0.89178  0.00808   1306.70966  49.75183  17.75931  55680.62678    50.89541       44.33535   11.56194  32.32894   33.5    0.26969  -21.04317      1.0 
    -1.8004  0.00246  0.70829     14.60575   1.9047  1.33715   6.59708   0.0712     0.23314   4431.5171   7061.78678   1.4761         5924.03381     19.95264  0.04982   55649.7796  0.77283  0.01621   5452.11788  49.11169  17.81561  55680.62678    50.88516       44.31394   11.56194  33.40656   33.0    0.23403  -21.74776  0.99999 
   -2.25576  0.00125  1.00521     14.75709   2.0952  0.88327   6.31518   0.0791     0.31222  4632.30116   6439.82474  1.36593         5703.95217     17.01638    6e-05  55649.32424  0.80836  0.00788   6016.80599  48.80619  17.78316  55680.62678    50.87217       44.29535   11.56194   34.2466   34.0    0.25864  -20.99605  0.99999 
   -1.62273  0.00258  0.75059     14.64722  1.92786  1.24904  12.12954  0.04425      0.1204  4753.12965   6899.37945  1.46709         5814.81181     18.76832  0.00326  55649.95727  1.63467  0.03133   5119.77766  49.09387  17.81643  55680.62678    50.91792         44.353   13.33828  32.32894   33.5    0.27659  -21.09403  0.99999 
    -1.4463  0.00432   0.7737     14.66863   1.9922  1.15338   6.94017  0.06198     0.17755  4182.40997   7334.53083  1.47987         5874.27876     19.42408  0.01475   55650.1337  0.72419  0.03001   5093.65672  49.08401  17.77112  55680.62678    50.89232       44.32031   11.56194  33.40656   33.5    0.28163  -21.27093  0.99999 
   -1.47282  0.00176  0.87898     14.66685  1.78683  0.89589  10.20083  0.04362     0.07717  4065.07975   7120.81878  1.64015         5844.31281     18.30383  0.00112  55650.10718  1.00554  0.01796   5945.07153  48.85881  17.79746  55680.62678    50.93359        44.3612   13.85526  32.58401   34.0    0.28028  -21.26178  0.99998 
   -2.33546  0.00162  0.71332     14.69694  2.09247  1.27553  24.15586  0.02462     0.08989  5182.06337     6670.605  1.24492         5789.54009     16.04889    1e-05  55649.24454   3.8695  0.03918   3991.80681  49.28177  17.72996  55680.62678    50.90524       44.34303   11.56194  32.58401   34.0     0.2804  -20.86761  0.99999 
     -1.822  0.00111  0.82578     14.57849  1.65835  1.02721  12.57432  0.03909     0.46788  4274.47308   6451.18419  1.58428         5810.86947     18.79537  0.00347    55649.758  1.37049  0.01395   7315.38398  48.79056  17.85987  55683.26574    50.92179       44.34444   11.54605  34.89322   35.0    0.27417  -21.45967  0.99999 
   -1.95097  0.00121  0.87098     14.58305  1.73771  1.11941   11.1682  0.04734     0.36034  4732.44298    6805.9691  1.47085          5628.6417     17.33901  0.00012  55649.62903  1.49204  0.01347   8350.28561  48.70711  17.73303  55677.98781    50.87743       44.30014   11.56194  34.63815   34.5    0.26445  -21.18236  0.99999 
   -1.23361  0.00197  0.70647      14.6125  1.62739  0.90179  16.65472  0.02441     0.03457  3869.65054   6479.71436  1.68426         5555.37819     18.83345  0.00379  55650.34639  1.48768  0.03278   4492.69986  49.12964  17.79277  55680.62678    50.89279       44.31529   13.33828  33.40656   33.5    0.27872  -21.04974  0.99998 
   -1.61518  0.00123  0.72555     14.55835  1.71106  1.35258  14.60277  0.03586     0.38471  4733.86767   7308.74298  1.51218         5512.81659     17.90721  0.00045  55649.96482  1.95207  0.01794   6393.17131  48.97506  17.80105  55680.62678    50.93281       44.37755   13.33828  31.59521   33.5    0.28779    -21.061  0.99999 
   -1.78555  0.00189  0.80777     14.62138  1.85955  1.19611  15.45687  0.03296     0.16981  4696.80752   6896.88731   1.4131         5902.29303     18.66211  0.00255  55649.79445  2.03402  0.02915   6442.22714  48.91465  17.80342  55680.62678    50.91797       44.34518   13.33828  33.40656   33.0    0.21612  -21.68681  0.99998 
   -1.39839  0.00115  0.86782     14.64133  1.94429  1.20716  10.03351  0.05002     0.12112  4535.44205   6489.59834  1.58958         5455.01566     19.95347  0.04991  55650.18161  1.23117  0.01156   7092.03136  48.82997  17.82979  55680.62678    50.91098       44.34643   13.33828  32.32894   34.0    0.24899  -21.31867  0.99999 
   -1.44645  0.00243  0.84203     14.73319  1.85808  0.80403  10.80693  0.04184      0.2114  4287.59486   6752.48253  1.56935         5603.53963     17.40101  0.00014  55650.13355  1.18511  0.02628   4179.93765  49.06608  17.85533  55680.62678    50.88278       44.30238   13.33828   34.2466   33.5     0.2727  -21.23713  0.99998 
   -1.55734   0.0084   0.7184     14.51976  1.55239  1.10298   5.17229  0.09726     0.18215  4487.80632   6316.68587  1.56854         5599.18715     19.27424  0.01045  55650.02266  0.62141  0.04344   6792.57998  48.91508  17.81985  55680.62678    50.89087       44.31978   11.56194  33.40656   34.0    0.25056   -21.1578  0.99997 
   -1.14402  0.00167  0.72121     14.75667  1.71858  0.65749  18.63527   0.0234     0.04611  3967.92133   6810.91086  1.65297         5800.74137      16.9406    5e-05  55650.43598  1.75021  0.03114   2545.40099  49.38214  17.80225  55680.62678    50.93617       44.36567   13.33828  33.40656   35.0    0.29268  -21.12459  0.99999 
   -1.50086   0.0011  0.79067     14.62791  1.73762  0.97539   23.6037  0.02021     0.09811  4412.64014   6656.54248  1.52667         5615.23615      17.7148  0.00029  55650.07914   2.7416  0.02591   5596.93315  48.96486  17.82828  55680.62678     50.9152       44.34484   13.33828  33.40656   33.5    0.23735  -21.17372  0.99998 
    -1.2019  0.00128  0.74411     14.64601  1.82982  1.10261  14.99123  0.03385     0.29612  4611.75708   7117.81709  1.65581         5656.24618     16.94087    5e-05   55650.3781  1.90194  0.01913   4802.65108   49.1065  17.80356  55680.62678    50.92316       44.34903   11.56194   34.2466   34.0    0.27077  -21.10598  0.99999 
