 log(Bfield)      Mns    Pspin  cutoff_power  cutoff_wavelength  fnickel    kappa  kappagamma   mejecta  log(nhhost)  temperature  texplosion  thetaPB     vejecta      A_V        MJD_0   log(KE)      M_Ni  Peak_mag     Peak_MJD 
    14.26326  1.71042  5.43542       4.89236         2560.27498  0.04447  0.02863     0.02233   14.7808      17.5291   4664.76913    -9.09488  1.21475  7132.53189  0.00019  58624.24512  52.34156   3.21727  19.33187     58660.43 
    14.35356  1.63205  4.24342       0.34994          3393.6503  0.02889  0.03127     0.05284  12.11625     19.04315   3995.90381    -8.46022  0.82096  7769.11481  0.00614  58624.87978  52.39821   2.00731  19.30357     58661.33 
     14.9678   1.5145  5.10356       4.12221         3595.87978  0.03056  0.01839     0.30403  21.95153     18.18309   4468.75158    -6.26723  0.19191  5533.93041  0.00085  58627.07277  52.15418   2.38612  19.26401     58661.33 
      14.227  1.57795  4.09993       0.56934         3946.33377  0.21586  0.10433      0.1464   3.82529     20.12472   9044.47767    -7.34607  1.53996  7542.45089  0.07404  58625.99393  52.25331  11.39804  19.29178     58661.33 
    14.35409  1.54031  4.55273       0.94136         3656.61418   0.0432  0.02096     0.35317  17.20719     17.69939   3319.84808    -7.40409  0.83248   6857.4624  0.00028  58625.93591   52.3204   3.22047  19.29198     58661.33 
    14.30008  1.94872  5.48272       1.01469         3554.00617  0.00261   0.1114     0.24757    2.9804     18.29221    9721.9423    -8.81419  1.42119  6722.79509  0.00109  58624.52581  52.12263    0.1282  19.30881     58660.43 
    14.30734  1.84998  6.18891       4.80125         3219.42411  0.00833  0.02185     0.02676  15.25951     17.45304   5473.40622    -7.14143  1.44018   5614.6696  0.00016  58626.19857  52.13648   0.60669  19.29533     58660.48 
    14.25801  1.80885  5.75247        3.1315         3111.99573  0.00194  0.07925     0.12114   4.51492     17.66458   9609.42665    -7.66145  1.35425  6650.46262  0.00026  58625.67855  52.16327   0.10732  19.25176     58660.43 
     14.1395  1.58005  5.35291       2.02838         3579.08365  0.00728  0.03586     0.02412   8.74726     18.73095   6713.81872     -7.6933  1.46161  6753.81648  0.00299   58625.6467  52.24606   0.47152  19.31257     58660.43 
    14.36043  2.06629  5.60566       1.01185         3987.86365  0.00171  0.05001     0.06405   5.99814     18.17486   6006.23072    -7.32482  1.55861  5906.14606  0.00083  58626.01518  52.09135   0.10139  19.28886     58660.43 
    14.00811  1.28662  4.82437        3.2869         3481.15599   0.0088  0.08172     0.10038   3.93498     18.47229   8505.39891    -8.02066  1.34945  6322.75331  0.00165  58625.31934  52.10345   0.46815  19.29965     58660.48 
     14.7239  1.44531   5.0212       4.10779         3422.52191  0.04771  0.01808     0.17548  23.16226     17.70714   4778.63951    -5.93948  0.35018  6236.85773  0.00028  58627.40052  52.26235   3.76187  19.29994     58660.48 
    14.35702  1.85194   5.0176       0.78187         3807.08649  0.06255  0.03182     0.02476  10.17808     18.10261   9201.74008    -6.70975  1.26716  6855.87668   0.0007  58626.63025  52.27354   4.18795  19.28891  58658.73023 
    14.21724  1.79571  6.31542       3.72296         3551.78529  0.00144  0.06687     0.06551   4.58069     18.36968   6662.74012    -9.46529  1.28522  5631.88833   0.0013  58623.87471  52.02052   0.07985  19.27229     58661.33 
    14.39638  2.03315  5.10506       0.16866         4984.15509  0.00256  0.15311     0.22449   2.40748     16.45495   4879.78288    -8.76887  0.99628  7804.80141    2e-05  58624.57113  52.22411    0.1182  19.29861     58660.43 
    14.42012  1.85367  4.39352       0.74435         4320.75537  0.03837  0.05148     0.13288   5.77204     19.81562   5402.44135    -7.20826  0.90897  5595.38517  0.03634  58626.13174  52.04031   2.25436  19.29093     58660.43 
    14.22223  1.48602  4.95856       1.58975          3392.2964  0.06221  0.06785     0.10955    5.5561     18.30558   6961.49341    -8.06408  0.93465  7384.27925  0.00112  58625.27592  52.27717   3.62068  19.31897     58661.33 
    14.31268  1.91442  4.79031       0.43627         4598.52027  0.00317    0.058     0.31199   5.17252     16.30348   7178.04478    -8.72384   1.2942  6287.03293    1e-05  58624.61616  52.12966     0.181   19.3017     58661.33 
    14.29553  1.90617    5.686       1.62411         3487.03479  0.02548  0.04636     0.03148   8.86494     17.26179    5870.1623    -8.45448   1.5296  7002.95171   0.0001  58624.88552  52.27882   1.65521  19.30587     58661.33 
    14.26224  1.47122  4.38858       3.27574         2346.04248   0.0799  0.02974     0.02138  15.62138      17.3044   3425.71551    -6.52889  1.15907  8257.73094  0.00011  58626.81111  52.47357   5.84465  19.28167     58661.33 
    14.20759  1.67879  4.23638       0.31074         4559.94801  0.00128  0.09285     0.08577   3.96183     16.11108   8654.79601    -9.63226  1.55263  6642.88594    1e-05  58623.70774  52.14715   0.06806  19.32411  58661.73243 
    14.34431  1.78005  4.16354       0.64478          4387.1652  0.00214  0.04487     0.02598   7.10255     16.79693   7938.65558    -7.40711  1.13866  5706.50794    3e-05  58625.93289  52.07902   0.13223  19.30272     58660.48 
    14.28219  1.96156  6.47299       2.73739         3579.76846  0.01541   0.0724     0.07877   4.95395      17.1459   4095.96672    -8.56723  1.31135  6790.59509    8e-05  58624.77277  52.19181   0.87146  19.30048  58661.73243 
    14.29526  1.90576  5.07991       0.87985         4187.95063  0.00125  0.09125     0.07276    3.3947     16.52407    8944.1477    -8.71305   1.4751  5892.69091    2e-05  58624.62695  52.02447   0.06375  19.30556     58661.33 
     14.3313  1.66948  3.90793       0.64668         4440.24641  0.05974  0.07226     0.28448   4.11778     16.67008   7177.95519    -7.06706  1.10174   5734.2789    3e-05  58626.27294  52.02392   3.21802  19.26668     58660.43 
    14.27297  1.79641  4.18286       0.43572         5065.39135   0.0051  0.04916     0.03451    5.5322     17.90032     9762.697    -8.32416  1.47636  5825.21715  0.00044  58625.01584  52.07072   0.29674  19.26513     58660.48 
    14.26298   1.9026  6.05927       2.37346          3316.6716  0.00111  0.08871     0.36857   3.40172       19.857   9882.50984    -7.42496  1.19505  7008.51697  0.03997  58625.91504  52.17535   0.05651  19.31632     58662.33 
     14.3121  1.58787  4.35527       0.48157          3512.6672  0.20668  0.05446     0.15582   6.97631     18.05271   6947.05893    -7.16113  1.19987   7858.4106  0.00063  58626.17887  52.35512  12.70938  19.32483  58661.73243 
    14.16955  1.55841  4.89055        1.4549         3698.75278  0.00241  0.08076     0.25398   4.37517     17.83561   8708.74719    -7.94198   1.5113  6520.98998  0.00038  58625.39802   52.1426   0.13218  19.31728     58661.33 
     14.4472  1.63527  4.33194       1.11184         4075.96871  0.38797  0.10715      0.0509   3.40635     16.90783   4382.31516    -6.00536  0.95729  6211.06851    4e-05  58627.33464   52.0706  19.83518  19.29728     58660.48 
    14.44581  1.98075  5.91324       1.86795         3844.77503  0.02276  0.06054     0.03448   4.41626     19.98895   7709.33799    -7.85381  0.81391  5271.25172  0.05416  58625.48619  51.95887   1.24906  19.27549     58660.43 
    14.36667  1.80795  4.30913       0.52328          3916.5031  0.08999  0.02549     0.16636  13.84637     19.93039   7741.00757    -6.30986  1.49671  7283.94404  0.04733  58627.03014   52.3541   6.42553  19.28808     58660.48 
     14.3127   1.7826  4.81737       0.34811         2981.31058  0.02569  0.04206     0.30965   9.20943     16.62918   7373.47813     -8.1424   1.0462  8286.73942    2e-05   58625.1976   52.4287   1.68298  19.29519     58660.48 
     14.4027  1.86923  6.28952       4.62081         3534.61169  0.00912  0.05381     0.02409   6.21141     16.77275   8604.43816      -8.092  0.89393  5098.56453    3e-05    58625.248  51.96732   0.54535  19.29674     58661.46 
    14.21822  1.69758  5.14169       0.88989         3668.61828   0.0212  0.03871     0.04406   8.42521     16.40205   7521.99001      -7.722  1.34637  7388.34368    1e-05    58625.618   52.3204   1.36176  19.30207     58660.48 
    14.25551  1.49055  3.13204       0.53294          5152.8009  0.00124  0.03877      0.1195    7.2529     17.64723   8636.02899    -7.81213  1.08523    5040.305  0.00025  58625.52787  51.97332   0.07724  19.27136     58660.48 
    14.34398  1.51135  5.71201       4.79186         3289.03656  0.27896  0.14811     0.09224   2.80874     16.72015   8124.71281     -7.8219  0.74414  7460.96166    3e-05   58625.5181  52.20548  13.48351  19.28473  58658.73023 
    14.31027  1.98177  6.12437       4.76944         2843.95091  0.01128  0.06583     0.04964   6.08354     17.21142   6387.01112    -7.69658  1.41558  6829.09652    9e-05  58625.64342  52.21896   0.67151  19.28709     58660.43 
    14.17045  1.60872  3.97411       0.12707         3596.34233  0.00333  0.12937     0.48107   2.54096     16.26035   9982.78266     -9.9004  1.45425  7196.03554    1e-05   58623.4396  52.16086   0.15591  19.26792     58660.43 
    14.41185  1.52992  4.76096       4.08185         2444.92752  0.15098  0.12617     0.40839   3.47418     17.97495    6120.4241    -7.20703   0.6242  8042.57463  0.00052  58626.13297  52.29747   7.76193  19.28938     58661.33 
    14.38814  1.78336  3.71748        0.8447         4855.49113  0.07528  0.04363     0.10165   6.06831     19.48436   9363.25435    -6.33636  1.15296  4528.93832  0.01695  58627.00364  51.86196   4.47765   19.2869     58661.34 
    14.30312  1.70817  4.72897       0.83121         2420.18049  0.01147  0.03081     0.03164  11.43994     18.07299   6740.99278    -8.81911  0.87611   7918.8318  0.00066  58624.52089  52.40956   0.78709  19.27275     58660.48 
    14.30245  1.82043  5.06289       0.56694         3718.74601  0.03816  0.04419     0.18642   7.64333     18.22017   9691.85394    -8.80143  1.13213   7294.2611  0.00092  58624.53857  52.29964   2.39671  19.30943     58661.33 
    14.03742  1.29005  3.62058       0.29521         2872.06265  0.00295  0.11223     0.12671   3.52983     18.03695   9530.52091   -10.00667  1.34684   7878.0199   0.0006  58623.33333  52.28145   0.15257  19.30201     58660.43 
    14.26508  1.68918  6.01808       4.73754         3299.13012  0.00243  0.11325     0.22464   2.99023     18.87305   7186.73022    -8.93061  0.91283  6234.15067  0.00415  58624.40939  52.05751   0.11953  19.30049     58660.48 
    14.42045   1.8949  4.39948       0.27288         4637.82969  0.13182  0.05089      0.4729   8.16474     17.78418   8465.30525    -7.44289  1.22031   7380.7294  0.00034  58625.89711  52.31643   8.40614  19.29258     58660.48 
    14.24848  1.59757  5.22616       2.84547         3637.10517  0.01941  0.02626     0.01936  13.15648     18.02561   3369.95165    -6.61318  1.41966  5515.47124  0.00059  58626.72682  52.10801   1.37157  19.33067     58661.33 
    14.30164  1.46531  4.94092       1.69007         3341.69019  0.18171   0.1365     0.11164    3.0145     17.56842   5009.64136    -8.03091  0.74019  7679.48166  0.00021  58625.30909  52.23965     8.969  19.29944     58660.43 
    14.23425  1.60971  4.68214        1.0401         3007.27696  0.16159  0.11665     0.13672   3.50514     17.61988   7455.21755    -7.17104  1.38519  7922.01614  0.00023  58626.16896  52.28543   8.32789  19.27741     58660.43 
    14.20736   1.5928  4.35605       0.56072         3980.92756  0.00206  0.05969     0.36256   4.77299     17.36959   7372.50629    -6.89754   1.2474  6540.60134  0.00013  58626.44246  52.15508   0.11546  19.33097     58662.33 
    14.38478  1.15883   3.5938       0.83761          3894.2948  0.04622  0.09599     0.44528    3.9855     17.45049   3642.42233    -7.99759  0.40761  6865.36264  0.00016  58625.34241  52.17646    2.4679  19.30717     58660.48 
    14.17119  1.59295  4.80696       1.49098         3038.55046  0.00115  0.08673     0.07181   4.61207     17.09319   6681.43401     -8.0774   1.3068  7554.14211    7e-05   58625.2626  52.27635   0.06382  19.27214     58660.43 
     14.2508  1.88321  6.17754       2.85061         3130.58011  0.00774   0.1031     0.12745   3.03856     16.55315   4166.32492    -7.47085   1.3921  6864.34114    2e-05  58625.86915  52.14319   0.38271  19.31078     58660.43 
     14.1949  1.64631  5.32186       2.05823         3187.10955   0.0095  0.07949     0.43836   4.03484     16.96125   6313.49796    -8.88603  1.15265  6692.76279    5e-05  58624.45397  52.15579   0.50911  19.28636  58661.73243 
    14.22022  1.70147  4.24666       0.21122         5284.64664  0.07727  0.12868     0.08975   2.69254     19.14924   9908.66909    -9.13398  1.51347  7028.88424  0.00783  58624.20602  52.14814    3.6876  19.30174     58660.43 
    14.26383  1.61978  4.87282       0.97064         3670.96682  0.02454  0.04335     0.33935   7.76745     16.88446   8694.39277     -8.2116  0.99615  6874.17612    4e-05   58625.1284  52.24973   1.54734  19.28994     58660.48 
    14.31778  1.73058   4.3811       0.74166         4276.82387   0.0075  0.03876     0.12807   7.30688     17.74166   9647.41255    -7.54236   1.1126  5704.39747  0.00031  58625.79764  52.08157   0.46649  19.28804     58660.48 
    14.30664  1.89762  6.15633       3.86349           3107.287  0.00729  0.14292     0.15781   2.53761     17.87821   4907.83254    -7.93522  1.11056  6823.78493  0.00042  58625.40478  52.11455   0.34158  19.30191     58660.43 
    14.32169  1.85832  4.35547       0.35082         5257.09206  0.00125  0.06588     0.11543   5.68056      16.1139   7108.70946    -8.41723  1.36268  6728.14323    1e-05  58624.92277  52.19873   0.07304  19.29047     58660.48 
    14.15599  1.49909  5.33583       2.94166         3468.68562  0.00585  0.04644     0.11246   7.51492      18.2046   4886.37585    -8.05449  1.13478  6398.14486  0.00089  58625.28551  52.18409   0.36604  19.30788     58660.48 
    14.30881  1.78704  4.77612       0.63259         3990.43869  0.13485  0.08916     0.04867   3.90245     18.50956   5430.86696    -7.44497  1.42254  6570.53061   0.0018  58625.89503  52.13585   7.15957  19.30347     58661.33 
    14.43729    1.834  4.71561       0.44307         3414.21114  0.11287  0.03015      0.1015  13.14486     19.70688   5949.88184    -7.06886  1.06229  8384.16881  0.02829  58626.27114  52.47169   7.97443  19.32011     58661.33 
     14.1116  1.44517  3.78775       0.31241         5134.05976  0.00137  0.09585     0.34582   3.60113     17.01202   8517.67474    -9.38465  1.42844  6627.87767    6e-05  58623.95535  52.13379   0.07093  19.30621     58662.45 
    14.31086   1.8197  5.47531       3.68407         2654.33617  0.01405  0.03486     0.25065   9.94005     17.26918   8499.86161    -7.18444  1.14457  6536.61205   0.0001  58626.15556  52.22989   0.93606  19.31679  58661.73243 
    14.28639  1.86509  4.77719       0.22868         4480.36139  0.01572  0.03822     0.10296   8.97062     16.44514   5798.26924    -9.30566  1.28032  7376.33118    2e-05  58624.03434  52.32508    1.0235  19.30921     58661.33 
    14.33138  1.66845  4.13302        0.7853         3972.38455  0.18651  0.06864      0.0383    4.3515      16.1376   7628.71648    -6.85017  1.21052  5680.26056    1e-05  58626.48983  52.02209  10.19565  19.30478     58661.45 
    14.20366  1.63925  4.44673       0.71464         3829.63548  0.00191  0.08272     0.45402   4.12761      18.3736   7314.56345    -9.10481  1.49972  6389.91348  0.00131  58624.23519  52.11823    0.1027  19.28812     58660.43 
     14.3365  1.87831   4.6636        0.3391         4346.84801  0.05241  0.03215     0.03999  10.18125     16.37877   6210.63199    -7.45122  1.51471  6945.45252    1e-05  58625.88878  52.28484   3.50935  19.27787     58660.48 
    14.25505  1.79832  6.22394       4.20594         3548.15346  0.02485  0.04734     0.25974   6.80042     17.29305   9426.11217    -8.17941  1.43779  5285.42126  0.00011  58625.16059  52.00799   1.51877  19.28531     58660.48 
    14.29973  1.95586  5.97667       2.06604         3275.03316  0.00224  0.05024      0.0721   7.08723     16.33709    9052.9929    -7.93238  1.41008  6826.01591    1e-05  58625.40762  52.23439   0.13814  19.27638     58660.43 
    14.38297  1.65118  2.97496       0.09109         3468.78985  0.00767  0.06042     0.09534   8.12793     20.77457   8248.09631      -8.084  0.61816  9171.05495  0.33059    58625.256  52.50462   0.48875  19.28446  58661.73243 
    14.38439  1.94318  4.28573       0.32885         4616.84444  0.14942  0.10348     0.49979   3.42179     16.95582   7092.21846    -8.71661  1.28772  6268.07015    5e-05  58624.62339  52.07909   7.64878  19.28479     58661.33 
    14.18547  1.63623  5.48889       2.89346         3177.27435  0.00954  0.04947      0.0514   7.09848     16.06144   5161.52095    -8.27984  1.37891  6595.07061    1e-05  58625.06016  52.20466   0.58898  19.29866     58660.48 
    14.33662  1.67488  3.99619       0.00609          2472.7973  0.06464  0.04017     0.04692   9.78046     18.93479   5892.62362    -8.54156  0.98182  8266.53528  0.00478  58624.79844   52.4323   4.29093  19.29202     58660.43 
    14.22925  1.71937  4.07547       0.03972         4414.01165  0.00101  0.09583     0.12102    4.0499     18.29807    9892.2849    -9.54773  1.48607  7433.16196   0.0011  58623.79227  52.24737   0.05413  19.32466     58662.35 
    14.36747   2.1202  7.22075       4.39503         3476.08155  0.01046  0.08869     0.05296   3.59633     16.91523   4617.17354     -8.7225  1.11989  5788.75877    5e-05   58624.6175  52.01605   0.54278  19.28641     58661.34 
    14.21325  1.66974  5.42295        3.0338         3444.37912  0.00793  0.06164     0.05085   5.88097     19.50269   6832.78587    -8.91224  1.31002  5754.74434  0.01768  58624.42776   52.0667   0.46806  19.31381     58662.33 
    14.39912   1.7529  5.01138       2.06535         3215.38106  0.10191  0.04555     0.08107  10.18328     19.44842   6068.59544    -6.24107  1.11679  7232.77056   0.0156  58627.09893  52.32007   6.82401  19.28238     58661.33 
    14.23261  1.62401  3.87407       0.36356         4470.84328  0.00123  0.07611     0.15626   4.14192     16.06558   7254.66231    -8.22871  1.27617  6090.77834    1e-05  58625.11129  52.07699   0.06661  19.24498     58660.43 
    14.19737  1.45125  4.05123       0.53342          3360.8942  0.14254  0.05776     0.09013   6.61977     17.14019   8326.36327    -7.35727  1.47399  7732.31308    8e-05  58625.98273  52.33568   8.65693   19.2613     58660.48 
    14.41138  1.69243  4.73251       0.40045         2771.55057  0.04244  0.17407     0.20905   2.00729     18.13817    9709.6608    -8.50436  0.61666  8204.65528  0.00076  58624.83564  52.24201    1.8451   19.2651     58660.43 
    14.23098  1.52589  4.58847       0.86339         3362.10866   0.0029  0.05505     0.08023   6.19728     17.71191   4190.01774    -8.18593  0.89248  7303.93002  0.00029  58625.15407   52.2793   0.17356  19.27623     58660.48 
    14.19759  1.67716  5.60797       2.33771         3674.34193    0.005  0.03069     0.08124   8.84655     18.22123   6740.50225    -7.85337  1.33294  5537.81317  0.00092  58625.48663  52.07473   0.32432  19.27297     58660.43 
    14.11928  1.30142  4.76088       3.84128         3420.28769  0.02066  0.07904      0.1164   4.73064     18.59901   5817.79165    -7.45378  0.99139  6360.68008  0.00221  58625.88622  52.12985   1.15421  19.29385     58660.48 
    14.42901  1.87434  4.79648       0.38294         2131.97521  0.06017  0.04442     0.24944    9.6879     18.61268   9616.93571    -8.60694  0.86231  8294.86627  0.00228  58624.73306  52.43438   3.98598  19.29002     58660.48 
    14.11936  1.45126  3.62723       0.14666         4499.53977  0.01304  0.04706     0.08298   6.47279      18.9594   8936.53981    -8.24556  1.54129  6967.08453  0.00506  58625.09444  52.24283   0.78785  19.26405     58660.48 
