 texplosion  fnickel    Pspin  log(Bfield)      Mns  thetaPB   mejecta    kappa  kappagamma      vejecta  temperature    alpha  cutoff_wavelength  log(nhhost)      A_V         MJD0  kenergy  mnickel            TSD   log(L0)  Peak_mag     Peak_MJD  log(E_rad)  log(Peak_lum)  Rise_Time    E_fold  tau_1  delta_m15     r_peak     frac 
   -8.45056  0.16508   5.6482     14.24615  1.80754  1.47325   5.89296  0.08883      0.0117   8930.92868   7012.36895  4.61393         2668.61418      18.9911  0.00544  58624.88944  2.80384  0.97283  1723530.85956  44.78569  19.26856     58662.33    50.72314       44.12078   24.67713  30.89252   34.0    0.33173  -20.98148  0.86549 
   -8.33802  0.03073  4.98161     14.31011    1.884  1.54691   5.91278  0.08187     0.13282   8881.21027   7834.62183  1.68007         2777.38512     17.50204  0.00018  58625.00198  2.78204  0.18168   1040910.4622  45.13177  19.29905     58662.33    50.95882       44.38242    19.8463  27.19132   36.0    0.32441   -20.9337  0.97934 
   -8.62014  0.01436  4.51385     14.91839  1.52552  0.20547  17.94583   0.0249     0.41896   5913.54243   6073.91627  2.68678         3823.93794     19.56683  0.02049  58624.71986  3.74357  0.25766    42028.35361  46.51962  19.30096     58661.33    50.72045       44.05239   22.26257  33.32473   39.5    0.29802  -20.92263  0.96743 
   -8.88492  0.00719  4.11078      14.2508  1.59043   1.4036   5.76116  0.10134     0.09134   8335.70383   6909.03064  1.21491         3758.58332     17.76992  0.00033  58624.45508  2.38793  0.04143   786262.28717  45.34694  19.24667     58662.33    50.91049       44.34418   18.37331  27.27319   35.5    0.31502  -20.95661  0.99581 
   -8.58359  0.00233  3.83879     14.11943  1.24881  1.03455   8.03189  0.04893     0.02536    6221.7233   6995.25162  1.78032         3981.92221     17.81429  0.00036  58624.75641  1.85467  0.01873   985911.90292  45.20312  19.25906     58661.33    50.95106       44.40226   16.82031  25.14001   39.5    0.31064  -20.91287  0.99761 
   -8.59741  0.02401  5.57239     14.38586  1.84404  0.95422   6.39252   0.0738     0.03135   7265.59406   7282.72641  2.42226         3546.70762     17.08531    7e-05  58624.74259  2.01299  0.15347   899401.50549  45.08858  19.26478     58660.43    50.70905       44.04892   23.12413  32.46317   39.5    0.30382  -20.91516  0.97743 
   -7.88785  0.03408  6.03599     14.45399  1.93827  0.83369   5.70667  0.10019     0.03382   8888.82005    6921.1154  4.42627         3016.33279     17.06753    6e-05  58625.45215  2.68967   0.1945   810494.33561  45.08601  19.26128     58662.33     50.8268       44.23533   18.36429  29.69847   38.0     0.3098   -20.9501  0.96909 
   -7.74206  0.00791  6.14441     14.24793  1.72683  1.10403   4.46339  0.09062     0.08144   8033.93884   6819.71308  4.26995         3466.77426     18.86112  0.00404  58625.59794   1.7185  0.03529  1932727.86176  44.64296  19.26656     58662.33    50.96611       44.40979   17.86167   25.8002   40.5    0.33825  -20.98277  0.99287 
   -8.09689  0.02228  4.93989     14.21831  1.55438  1.28763   5.26304  0.08692     0.07806   7732.75273   6624.93339  2.38915         3410.24626     18.79672  0.00348  58625.24311  1.87729  0.11727  1288818.72299  44.96278  19.28451     58661.33    50.90568       44.35082   18.13236  26.92063   39.0    0.32671  -20.90016  0.98241 
   -7.18143  0.00148  5.34748     14.38262  1.84237  1.05008   6.82724  0.05391     0.07723   6206.21074   7533.26229  2.04722         3929.63843     16.47751    2e-05  58626.15857  1.56865  0.01011   839957.23015  45.15367  19.28211     58661.33    50.89443       44.29799   18.36429  29.69847   38.0    0.32182  -20.91514   0.9986 
   -7.97467  0.00305   3.9165     14.65379  1.97618   0.5541  14.99929  0.01954     0.01248   5505.26061   5773.21958  0.88031         4563.53816     17.64602  0.00025  58625.36533  2.71177  0.04572   138629.55143  46.23702  19.27477     58661.46    50.91036       44.33636   18.36429  26.74682   39.0     0.3328  -20.87915  0.99698 
   -6.04318  0.03927  5.09737     14.88943  1.53791  0.25753  21.62682  0.01867     0.24853      5720.66   4161.43149  3.78293         3647.67494     17.97053  0.00052  58627.29682  4.22194  0.84921    61741.54025  46.25051  19.29359     58662.35    50.81142       44.20548   20.68254  30.02381   42.0    0.29069  -20.86674  0.87742 
   -8.99288  0.00777  5.10265      14.3626  1.97205  1.27696   5.11644  0.08236     0.06306   8683.18733   7985.45654  0.74225         3817.26282     17.29421  0.00011  58624.34712   2.3012  0.03973   897676.46501  45.19505   19.2573  58662.96274    50.89037       44.30885   18.97363  28.52381   34.5    0.37057  -20.94309   0.9955 
   -7.62104  0.02074  5.22105     14.25907  1.65221  1.26163   5.64501   0.0833      0.0508   7807.84868   7497.32174  2.15278         3735.70437     16.45005    2e-05  58625.71896  2.05284   0.1171  1268397.96732  44.94814  19.27515     58662.33     50.7802       44.15767   22.23554  30.92522   37.0    0.32845  -20.95228   0.9821 
    -7.7949  0.04581  4.72502     14.38625   1.8006  1.15256   6.19665  0.09998     0.07321    8492.2672   7083.05875  2.11697         3186.61798     16.59583    2e-05   58625.5451  2.66583  0.28389   630296.90491  45.37591  19.28579     58661.46    50.72954        44.0739   23.12413  32.46317   37.0     0.3107  -20.91773  0.96935 
   -7.98909  0.02647  4.80013     14.20034  1.51982  1.07511   5.01561  0.07824     0.13562   7847.07523    6977.3176  1.59744         3722.12628     16.56541    2e-05  58625.35091  1.84233  0.13278  1292496.08208   44.9767  19.24536     58660.48    50.73241       44.13157   21.35714   29.4127   40.0    0.34211  -20.95613  0.98055 
   -9.02956  0.46259  6.93654     14.63381  1.77382  0.51597   7.58914  0.06378     0.01161  10039.35431   5263.49237  3.76833         2574.10067     17.94231  0.00049  58624.31044   4.5628  3.51064   427947.58845  45.20408  19.26404     58661.46    50.88852       44.31031   18.97363  26.90476   40.0    0.32704  -20.99744  0.53471 
   -8.39581  0.00546  3.65849     14.52995  1.77006  0.64761  14.76712  0.02423      0.0228   5926.39881   5571.88776  0.86028         4493.24434     17.94059  0.00048  58624.94419  3.09389  0.08064    191650.8665  46.10772   19.2703     58660.48    50.73839       44.10809   22.99744  30.88889   39.0    0.31848  -20.88697  0.99453 
   -7.94395   0.0162  5.64213     14.31945  1.91936  1.32701    5.7811  0.09025     0.05828   9146.39304   6665.40025  3.65385         2742.17513     18.10555  0.00071  58625.39605  2.88494  0.09365  1303024.53035  44.93416  19.26625     58661.33    50.71741       44.06501   23.12413  32.87715   38.5    0.33097  -20.95147  0.98657 
   -7.05819  0.03051   5.0329     14.28355  1.62069  1.04852   4.91285  0.10786     0.06725   8674.00774   6272.25357  4.32128         2945.84301     19.31909  0.01158  58626.28181  2.20496  0.14989  1032907.16398  45.06085  19.29271     58662.33    50.77999       44.15906   21.83094   30.4919   39.0    0.32632  -20.96595  0.97818 
  -10.70128  0.13699  3.85934     14.31616  1.69216  1.19982   5.14625  0.11235     0.06802   9132.13053   6018.28489  0.29222         4608.64616     18.66339  0.00256  58622.63872  2.56013  0.70499   545709.99945   45.5873  19.24225     58660.48    50.81564       44.24309   18.36429  27.71384   38.0    0.34181  -20.95939  0.94572 
   -7.33773  0.00568   4.6018     14.36421  1.89351  1.35587  10.94752  0.03483     0.05222   6844.72294   7733.17347  1.10386         4048.93114     16.09505    1e-05  58626.00227  3.05953  0.06214    695847.3258  45.37774  19.28847     58662.33    50.83267       44.25201   19.85714  28.20562   36.0    0.33636  -20.90381  0.99394 
   -8.26161  0.01287  5.68572     14.35368  1.88169  1.11782   7.89343  0.06209      0.0593    8500.3735   7108.19979  1.90754         3673.21976     16.66688    3e-05  58625.07839  3.40227  0.10162  1108083.91758  44.98925  19.27072     58660.48       50.69        44.0395    22.6925  31.58222   37.5    0.33498  -20.98304   0.9848 
   -8.87664  0.00532  6.38101     14.39879  2.04177  1.16328    4.3022  0.11643     0.07504   7793.60402   7331.02513  3.13679         3655.51264     18.81169   0.0036  58624.46336  1.55881  0.02291   1230358.6847  44.87904  19.25632     58660.48     50.7402       44.07065   22.26257  31.75409   37.0    0.33188  -20.97867  0.99613 
   -7.56693  0.01051  3.84242     14.38015  1.77986   1.0327   4.82427  0.05786     0.35389    5396.3533   7661.42167  0.96075         4739.08475     16.70635    3e-05  58625.77307  0.83803  0.05068    423742.0857  45.72292  19.27643     58661.33    50.84778       44.27686   18.97363  27.69048   38.5    0.34814  -20.89085  0.99622 
   -8.16205  0.02245  5.01853     14.33571  1.71455  1.03888   5.23998  0.10683      0.1673    8477.9274   6749.27214  2.49129         3164.51546     17.02331    6e-05  58625.17795  2.24666  0.11765    854457.0514  45.17015  19.26582     58661.33    50.81263       44.21449   21.41014  28.20562   38.0    0.31322  -20.92304  0.98428 
   -9.66245   0.0048  4.86585     14.23417  1.70725  1.29158   4.62808  0.08553     0.07514   7521.08287   7227.69279  1.07103         3912.57044     16.79172    3e-05  58623.67755  1.56167  0.02222  1276727.28551  45.02073  19.26065  58662.96274    50.91907       44.36382    19.8463  27.19132   40.0    0.33147  -20.90596  0.99715 
  -10.29375  0.01441  4.24744     14.33571  1.82515  1.09458     5.315  0.10173     0.08615   9489.15321   6806.82285  0.31173         3659.17583     17.94423  0.00049  58623.04625  2.85486   0.0766    651541.0129  45.45995  19.30315  58662.96274    50.94569       44.35498    19.8463  28.80244   36.0    0.34168  -20.98034  0.99328 
   -9.30342  0.01139  5.28823     14.35045   1.9742  1.34588   4.32333   0.0953     0.15493   7527.45914   6789.48359  1.16386         3956.98784     16.33154    1e-05  58624.03658  1.46131  0.04926   1020785.4977  45.10868  19.28119     58661.46    50.80008       44.18978   19.85714  30.84921   38.5    0.33728  -20.93268  0.99403 
   -7.74672  0.03441   4.0085     14.51556  1.61277  0.52533   8.55382  0.06318     0.05467   9154.68149   7009.70007  1.48926         3141.37591     20.32193  0.11659  58625.59328  4.27636  0.29431   223991.04024  45.92022  19.30926     58661.46    50.78583       44.12801   22.23554  31.65079   37.0    0.33923  -21.08319  0.97289 
   -7.62165  0.03085    4.702     14.41365  1.87444  1.18056   7.14822  0.09057     0.05657   9500.94807   7213.17135  1.46213         3279.04763     17.79853  0.00035  58625.71835   3.8491  0.22049   572746.11583  45.43919  19.27668     58661.33     50.6994       44.03412   23.12413  33.93142   34.0    0.34604  -20.96675  0.97763 
   -8.67408  0.00522  4.51896     14.23191  1.66928  1.51801    4.5696  0.09105     0.07799   7669.62641   7550.90192  1.03288         4025.33864     16.82984    4e-05  58624.66592  1.60344  0.02385  1087953.38356  45.14469  19.31605   58660.4621    50.72208       44.01908   23.12413  33.93142   37.0    0.33756  -20.95089  0.99728 
   -10.1676  0.02123   3.4781     14.23553  1.57104  1.37444   5.35162  0.10144     0.11844   8829.15397   6597.39737  0.35673         3965.08089     16.65299    2e-05   58623.1724  2.48857  0.11359   596529.29736  45.60672   19.2826     58661.45    50.84709       44.24949   21.41014  28.57095   35.0    0.34246  -20.93566  0.99168 
    -7.0351  0.00212  4.17079     14.18459  1.38169   1.4334   9.31539    0.034     0.03074   4707.57476     6885.345  2.61286         4032.51603     18.42309  0.00147   58626.3049  1.23147  0.01975   953833.28508  45.18935  19.27234     58662.45    50.80951       44.18935   21.41014  30.07143   37.5    0.31936  -20.88541  0.99745 
  -10.51059  0.07704  3.67274     14.16405  1.44828  1.33322   5.44419  0.10243     0.05447   9508.08683    7011.4305  0.50509          3053.4921     18.05996  0.00064  58622.82941  2.93594  0.41941   852211.66318  45.36917  19.26912     58660.48    50.76333         44.083   23.81557  32.44378   36.5    0.34165  -20.95396  0.96232 
   -8.78219  0.01887  5.79821     14.28911  1.81576  1.35135   4.22816  0.10157     0.03774   7004.83693   7445.15602  2.87826         3573.06427     17.64476  0.00025  58624.55781  1.23758  0.07977  1497052.50394  44.82608  19.27119     58660.48    50.73324       44.09535   23.68792  31.88173   39.0    0.32312  -20.91279  0.98685 
    -7.2766  0.12574  5.53539      14.3716  1.52405  0.74214   3.36534  0.13871      0.0754   7323.14227   7069.37839  4.87253         3437.63446     17.67042  0.00026   58626.0634  1.07659  0.42315   783277.67336  45.07163  19.26485     58660.48    50.71074       44.05909   23.81557  33.32473   40.0    0.32632  -20.92142  0.92272 
  -10.60048  0.01944  3.99525     14.17676  1.57847    1.357   4.70953  0.10142     0.12069   8695.71174   6967.89223  1.09951         2387.16556     18.09601  0.00069  58622.73952  2.12429  0.09153  1036632.13659  45.24837  19.30147  58662.96274    50.90205       44.31128   18.13236  28.53175   39.5    0.32059  -20.89733  0.99117 
   -8.29048  0.02006  4.32415     14.22655  1.60747  1.50624   5.72882   0.0912     0.03718   9175.19571   7658.45116  0.83349         3680.38636     17.73877   0.0003  58625.04952  2.87689   0.1149   983251.07667  45.21052  19.26235     58660.43    50.74632       44.11099   22.23554  30.92522   33.5     0.3479  -20.97306  0.98742 
   -6.76044  0.02312  4.31685     14.41308  1.84794  0.95593    3.9367  0.11682     0.17882   9215.49533   7220.73788  3.24822         2102.90844     19.56898  0.02059  58626.57956  1.99433  0.09103   477181.16003  45.58652  19.30321  58662.96274    50.82966       44.24274   19.91729   30.0246   35.5    0.35488  -20.95853  0.99193 
   -7.63368  0.00707  3.37775      14.2835  1.59867  1.32704  11.34028  0.02889     0.03432   5880.95306   8263.89768  0.97796         4531.14356     19.58763   0.0215  58625.70632  2.33963  0.08012   459025.95726  45.75351  19.26978     58661.33    50.74853       44.09561   23.81557  32.38823   35.0    0.34748  -20.91413   0.9946 
   -9.17948  0.02497   3.1943     14.23077  1.31815  0.92678    6.2747  0.09833      0.0867   8834.40245     6820.652   0.6737         3928.05007     16.67758    3e-05  58624.16052  2.92129  0.15669   431515.78573  45.74506  19.27461     58660.43    50.78897       44.20875   19.91729  29.69847   35.0    0.33863  -20.96588  0.98746 
   -9.50831   0.0035  3.65312      14.6756  1.92438  0.52635   7.84757  0.07204     0.04382    8926.6037   6487.11641   0.2961         4169.68479     19.68148  0.02668  58623.83169  3.73022  0.02745   106226.78223  46.40157  19.27532     58660.48    50.85237       44.28726   18.97363  27.69048   33.5    0.35945  -20.96584  0.99836 
  -10.09718   0.0114  4.27551     14.29887  1.79902  1.37823   7.53563  0.07183      0.0743   8825.19795   6688.92075  0.68912         3219.34179     18.79809  0.00349  58623.24282  3.50103  0.08592   771064.82677  45.37481  19.28088     58662.45    50.90056       44.30762   20.11699  28.53175   37.0    0.32818  -20.92495  0.99221 
   -7.72721  0.00763  4.94414     14.41852  1.58562  0.68229   7.69387  0.07621      0.3151   8411.89852   6371.10945  3.10316         3409.88156     19.47454  0.01657  58625.61279  3.24758   0.0587   523795.98246   45.3617  19.30205     58662.33    50.87927       44.30273   18.36429  27.71384   37.5    0.31489  -20.97391  0.99137 
   -8.60451  0.05069  4.90464     14.33651  1.78286  1.10517   5.68757  0.07108     0.07936   8003.69908   6951.97355  1.01132         3869.26593     16.00382    1e-05  58624.73549  2.17338  0.28831    845521.9538  45.21162  19.27885     58660.48    50.83711       44.21911   21.90192  29.69847   39.0    0.34469  -20.93311  0.96596 
   -9.62143  0.29862  6.18631     14.26597  1.86182   0.8102   3.01628   0.1006     0.02116    8850.1847   6834.16081  4.40803         2534.84227     17.64655  0.00025  58623.71857   1.4093  0.90071  1943953.29603  44.66723  19.26286     58662.33    50.94678       44.40802   16.30868   25.8002   39.0    0.33103  -20.93846  0.85625 
   -7.06114  0.00508  3.30387     14.60086  1.60319   0.5239  16.21765  0.02775     0.13624   6898.44218   7018.14611  0.99019         4221.12704     19.47285   0.0165  58626.27886  4.60381  0.08231   102123.51849  46.42666  19.30353     58662.33    50.80152       44.19839   20.68254  29.36485   35.0     0.3458  -20.93277  0.99473 
    -7.3259  0.00714  4.60648     14.45262  1.74365  0.79296   7.66985  0.05834     0.16007   7157.77649   6456.05799  1.41349         3993.00026     17.97643  0.00053   58626.0141  2.34407   0.0548   427345.67177  45.55279  19.28106     58660.48    50.75458       44.13038   21.35714  30.25062   37.0    0.32479  -20.93445  0.99395 
   -9.86793  0.01875  3.65355     14.23186  1.56252  1.22598   6.38268   0.0815     0.25969   9050.57327   6546.64121  0.31798         4133.37949     16.67444    3e-05  58623.47207  3.11876  0.11969   665806.96768  45.51389  19.29836     58661.46    50.80844       44.19927   19.91729   30.0638   36.0    0.34272  -20.96055  0.99024 
   -8.81579  0.01551  3.74382     14.41612  1.31151  0.47787   4.50441  0.08847     0.13988   7358.88823   5161.78655  1.06908         3991.43882     17.99625  0.00055  58624.52421  1.45509  0.06985   251172.28203  45.84001  19.25669     58660.43    50.71263       44.07052   22.26257  30.07077   39.0    0.34118  -20.92952  0.99218 
   -8.24791  0.02175  4.01243     14.28994  1.67936  1.43477    6.9565  0.09068     0.16316   9739.79069   6888.09706  1.68392         2402.58397      16.3912    1e-05  58625.09209  3.93656  0.15131    660524.7401  45.46729   19.2796     58660.43    50.73028       44.08283   22.99744  32.57221   34.5    0.32438  -20.94662   0.9867 
   -7.49691  0.01052  5.16792     14.29183  1.75907  1.35239   6.94631  0.05959     0.07501   7334.41681   7387.94293  1.70156         3838.74252     16.98126    5e-05  58625.84309  2.22901  0.07305   1137814.8882  45.03143  19.24957     58661.33    50.86964       44.28259   19.91729  27.58015   37.5    0.33221  -20.93604  0.98997 
   -8.50542  0.01219  5.04565     14.35158  1.90765  1.27941   9.79814  0.04437     0.04319   7850.87888   7424.89971  1.33719         3466.59032     16.75367    3e-05  58624.83458  3.60253  0.11943   893281.04453  45.19252   19.2905     58660.43    50.80897        44.1933   21.83094  29.65063   37.0    0.34548  -20.91414  0.98624 
   -9.93382  0.01812  4.46145     14.27121  1.69903  1.07648   4.62352  0.09363     0.04472   8251.87598   7701.59193  0.65676         3943.65726     17.99347  0.00055  58623.40618  1.87804  0.08379   900636.04696  45.24554  19.31331  58662.96274    50.82085       44.20709   19.71967  32.53968   37.0    0.34058  -20.94027  0.99097 
   -8.68104  0.04177   3.7811     14.21881  1.51162  1.08778   4.88825   0.0942     0.13733   9433.31536   6201.92023  0.84962         2596.84899     19.88073  0.04221  58624.65896  2.59483  0.20417   732614.38689  45.42817  19.29198     58662.33    50.80391       44.17245   21.83094  31.32983   38.0    0.35206  -20.97734  0.98139 
   -8.23202  0.00315  5.15434     14.37068  1.83134  1.06051    6.5344  0.05863     0.14121   6759.10394   8639.14488  1.60226         3900.18227     17.03469    6e-05  58625.10798  1.78078  0.02056   819532.32253   45.1937  19.27673     58662.45    50.87188       44.28989   18.97363   28.6575   35.5    0.33102  -20.90314  0.99734 
   -7.82074  0.04337  5.48147     14.43956  1.86927  0.94932   6.56739  0.08565     0.05915   9080.85225    7131.0782  2.26344         3295.33353     18.16512  0.00081  58625.51926  3.23052   0.2848   688903.11671  45.22457  19.28516     58662.33    50.84552       44.24842   19.91729  29.69847   36.0    0.33977  -20.95463  0.96107 
