 texplosion  fnickel    Pspin  log(Bfield)      Mns  thetaPB  mejecta    kappa  kappagamma     vejecta  temperature    alpha  cutoff_wavelength  log(nhhost)      A_V         MJD0  kenergy  mnickel             TSD   log(L0)  Peak_mag     Peak_MJD  log(E_rad)  log(Peak_lum)  Rise_Time     E_fold  tau_1  delta_m15     r_peak     frac 
   -16.2573  0.00117  2.42659      13.5009  1.99753  1.12677   4.7229  0.01165     0.47356   1022.1605   7052.17178   1.0856         5759.60892      20.2628  0.10175   53512.7427  0.02944   0.0055   10876555.1913  44.76286  23.89283  53661.05843    51.70421       44.67721    37.0926   87.21772  362.0    0.01018  -20.99053  0.99985 
  -15.32756  0.00164  2.21368     14.72187  1.86204  0.04906  0.20982  0.28772     0.29617  1005.94271   6206.23859  0.99335         5631.38961     20.24479  0.09761  53513.67244  0.00127  0.00034     30500.17804   47.3643  23.92165  53676.32554    51.54259       44.49655   43.10761   97.24275  330.0    0.00782  -20.92728  0.99999 
  -16.82873  0.00181  2.06659      14.8471  1.77423  0.03371    0.152  0.33935     0.32678   1002.5581   7141.48787  0.93561          5971.3391     20.51862  0.18338  53512.17127  0.00091  0.00028     14227.87528   47.7342  24.00884  53658.00501    51.76529       44.75398   34.08509   85.21272  312.0     0.0075  -20.95066  0.99999 
  -18.60096  0.01837  2.35963     13.61904  1.70793   0.6791  0.76115  0.04674     0.03088  1042.01319   6029.22819  0.72057         5659.50864     20.11728  0.07278  53510.39904  0.00493  0.01398   5103769.59446  45.04774  23.94811      53670.0    51.61035       44.65568   30.07508   71.17768  234.0    0.00719   -20.5602  0.99954 
  -20.48087  0.00292  2.10178     13.71254   1.4236  0.38269  1.58659  0.04432     0.24991  1000.88262   7618.45659  0.77361         4758.03478     18.62696  0.00235  53508.51913  0.00948  0.00464   2194279.42105  45.43577  23.98964      53681.0    51.54133       44.48955   42.10511   92.72519  366.0    0.00603  -20.44576  0.99984 
  -32.24752   0.0054   2.7668     13.52292  1.94615   1.3668   1.4752  0.04827     0.25254  1040.46234   4575.57454  0.45215         4693.62958     17.95169   0.0005  53496.75248  0.00953  0.00797  12448437.13416  44.57895  23.94202      53670.0    51.71247       44.73077   35.08759   75.18769  362.0     0.0057   -20.2441   0.9997 
  -22.70396  0.00657  2.25708     13.39564  1.50975  1.16223  0.28929  0.25665     0.16329  1005.36898   4750.55749  0.70845         4520.45143     17.67105  0.00026  53506.29604  0.00174   0.0019  11548677.63429  44.67812   23.8448  53685.48581    51.78321       44.74863   47.11762   84.21022  298.0    0.00711  -20.32844  0.99993 
  -21.94828  0.00229  2.32839     13.50339  1.89049  1.53409  1.04099  0.07836     0.19474  1018.63825   6847.02419  0.98706         2671.39532     20.49733  0.17461  53507.05172  0.00644  0.00239   9369443.64502  44.83959    23.819      53681.0    51.61698       44.56643   47.84278   88.49757  390.0    0.00715  -20.25103  0.99994 
  -15.58346  0.00412  2.40288     13.89867  1.69228  0.39065  0.20796  0.31013     0.31907  1018.07402   4973.54928  0.63077         4579.15896     19.13242  0.00754  53513.41654  0.00129  0.00086   1446834.72792  45.57543   23.9695      53674.0    51.54218       44.50431   41.10261   90.22523  308.0     0.0068  -20.27504  0.99997 
  -39.41542  0.00259  2.13479     13.63241   1.5252  0.59965  1.51811  0.12803     0.02165  1090.32864   4261.26669  0.50405         5667.74012     18.84261  0.00387  53489.58458  0.01077  0.00394   3507718.92018  45.24844  23.91856  53676.32554    51.65612       44.67035    40.1001   74.18519  250.0    0.01345  -20.45932  0.99988 
  -21.29628  0.00471  2.29813     13.38849   1.5625  1.55657  0.72829  0.11292     0.02454  1031.47629   5609.27021   0.6968         3845.80629     19.41986  0.01461  53507.70372  0.00462  0.00343  12805640.54619  44.63251  23.89958      53666.0    51.57772       44.55651   37.95807   86.35225  222.0    0.00764  -20.25158  0.99988 
  -25.43029  0.00227  2.48568     14.01976  1.78002  0.27748   0.8835  0.10439     0.19085  1053.11677   5685.52449  0.59461         5660.64287     18.45317  0.00158  53503.56971  0.00585  0.00201    932399.08752  45.75878  23.92632      53666.0    51.60771       44.65456   31.07758    78.1952  344.0    0.00633  -20.46151  0.99993 
  -18.64022  0.00807  2.28938     13.71235  1.86209  0.59104  0.70181   0.0677     0.05012    1026.556   7128.87711  0.84612          4827.8432      20.3766  0.13223  53510.35978  0.00441  0.00566   3408456.66548  45.28686  23.90432      53674.0    51.67123       44.65275   41.10261   82.85802  278.0    0.00786  -20.63007  0.99985 
  -13.11757  0.00536  1.87894     13.63322  1.80427  0.67343  0.59882   0.0935     0.41442  1063.77298   4438.76722  0.85063          3425.3052     20.67368  0.26207  53515.88243  0.00404  0.00321   3202605.22784  45.47181  23.91273  53661.05843    51.78768        44.7686    39.0976   87.21772  398.0    0.00789  -20.57562  0.99994 
  -29.05123  0.00506  2.48907     13.67263  1.81359   0.6849  0.98977  0.07871     0.02169  1019.23306   7022.46362  0.60457         5615.94875     19.57716  0.02098  53499.94877  0.00613  0.00501   4711720.37996  45.06213  23.97964      53667.0    51.60618       44.57914    40.1001   85.21272  228.0    0.00729  -20.43827  0.99983 
  -38.10598   0.0028  1.99936     13.44712  1.44442  0.85254  3.79392  0.05748     0.15107  1004.05749   5999.59999  1.01585         5973.43648     18.61911  0.00231  53490.89402  0.02282  0.01061   6839793.17841  44.99171  24.02255      53681.0    51.57036       44.56115    39.0976   81.20271  309.5    0.02577  -20.94062  0.99968 
  -18.77091  0.01299  2.64807     13.87934  1.92895  0.48444  0.29345  0.28429     0.19985  1018.11374   5241.46628    0.757         4754.69595     18.81661  0.00364  53510.22909  0.00181  0.00381   2189361.40478  45.36799  23.93638  53685.48581    51.61931       44.61528   43.88539   80.42493  306.0    0.01008  -20.39894  0.99987 
  -23.30802  0.00464  1.91511     13.44754  1.59494  0.97454  0.35759  0.28637     0.29169  1021.47951   4420.85926  0.96562          4036.8853     20.49433   0.1734  53505.69198  0.00223  0.00166   6916042.39509  45.06735  23.97625  53679.37896    51.56696       44.49654   41.10261  106.26527  374.0    0.01616  -20.63816  0.99996 
  -18.40087  0.01224  2.69538     14.04038  1.86819  0.26719  0.60203  0.08724     0.01922  1007.45499   3778.69605  0.80952         4553.21466     17.39073  0.00014  53510.59913  0.00364  0.00737   1046448.54699  45.65931  23.95958   53670.2187    51.59911       44.56937   37.30143    88.0114  202.0     0.0096  -20.37173  0.99972 
  -19.50946  0.00723  2.03814     13.38246  1.65415  1.54639  1.10636  0.06398     0.29966   1001.4729    7530.1228  0.79658         5166.03357     20.31755  0.11542  53509.49054  0.00662    0.008   10963355.8417  44.82901  23.92321  53685.48581     51.5563       44.53208   45.11262   85.21272  362.0    0.00776  -20.65624   0.9998 
  -18.74909  0.00242  1.96623     13.62187  1.57961   0.6116  0.32272  0.15084     0.04481  1035.70723   7591.71464  0.65993         2885.60872     20.38791  0.13572  53510.25091  0.00207  0.00078   3235132.93661  45.37024  23.86984   53670.2187    51.62363       44.68666   35.29642   71.97135  210.0    0.00796  -20.23406  0.99998 
  -19.37395  0.00176  2.07673     13.63325  1.85131  0.64881  0.42532  0.13314     0.26814  1011.92121   6796.44967   0.8409         5943.86263     20.48284  0.16888  53509.62605   0.0026  0.00075    4013737.0092  45.29802  23.93753      53681.0    51.56661       44.54314    40.1001   87.21772  358.0    0.00812  -20.89155  0.99998 
  -18.53733  0.00224  2.01769      13.5661  1.52698  0.60607  0.56252   0.1058     0.06028  1003.33403   8585.40415  1.00219         4061.74104     20.40631  0.14159  53510.46267  0.00338  0.00126   4257467.13016  45.21382  23.89076  53673.27212    51.56165       44.50674   40.87788   96.46498  276.0    0.00857  -20.55452  0.99996 
    -25.239  0.00116  2.46766      13.5169  1.70612  0.94747  1.57954  0.04664     0.11553  1032.91115   8871.93701  0.66785         5049.71258     16.91335    5e-05    53503.761  0.01005  0.00183   8924952.52987  44.76568  23.92146  53688.53923    51.65205        44.6189   45.11262   84.21022  318.0    0.00651  -20.40522  0.99993 
  -14.71452  0.00246  2.68325     13.64396  1.84052  0.70446  0.33855  0.10525     0.16017  1011.96013   7185.47681  0.82947         4847.75229     17.61887  0.00023  53514.28548  0.00207  0.00083   6340940.41157  44.87431  23.88853      53674.0    51.55323       44.56235   41.10261   81.20271  306.0    0.00673  -20.43436  0.99997 
  -24.12423  0.00193  2.56079     13.90527  1.81768  0.35745  0.58363  0.13926     0.40081  1029.95608   8745.93344  0.87837         5041.39363     17.61631  0.00023  53504.87577  0.00369  0.00112   1712119.48665  45.47808  23.96028  53661.05843    51.72564       44.80307   31.07758   63.15766  332.0    0.00757  -20.56018  0.99996 
  -19.79313  0.03925  2.26069     13.35798  1.54009  1.23618   0.2688  0.19846     0.09085  1014.56119   3878.76161  0.80241         4237.45015     19.42315  0.01472  53509.20687  0.00165  0.01055  14056647.29728  44.60003  23.95824  53667.16528    51.64121       44.66862   33.08259   74.18519  250.0    0.00669  -20.37958  0.99962 
  -17.91377  0.00115  2.11877     13.38464  1.59592  1.38272  2.83908  0.02292     0.20937  1031.95831   6768.36192  0.70136         5510.67623      20.1089  0.07139  53511.08623  0.01804  0.00327  11316573.36655  44.76597  23.92569  53661.05843    51.74323       44.77272   36.09009   73.18269  356.0    0.00837  -20.57818   0.9999 
  -17.25306  0.00154  2.26185      13.4344  1.64355  1.27373   0.3124  0.23328     0.26212  1017.99789   9182.84454  0.81135         4490.81478     19.81807  0.03654  53511.74694  0.00193  0.00048  10561690.67732  44.75197  23.86678      53678.0    51.60811       44.63605   38.96057   70.31221  298.0    0.00781  -20.44814  0.99998 
  -25.71382  0.03574   2.3575     13.42693  1.63161  1.03124  0.71844  0.06371     0.02615  1023.51169   7188.96754  0.70701         5605.01359     19.18472   0.0085  53503.28618  0.00449  0.02567  11788983.45424  44.66508  23.95179      53666.0    51.71121       44.75198   36.09009   69.17268  222.0    0.00788  -20.51467  0.99908 
  -22.65997  0.00667  2.57874      13.6262  1.80297  0.89785  0.94208  0.10688     0.30128  1003.40086   7164.38373  0.68066         3279.82606     16.02084    1e-05  53506.34003  0.00566  0.00628   6226128.68982   44.9078  23.85465      53674.0     51.6058       44.66964   36.09009   65.16267  356.0    0.00765  -20.11052  0.99978 
  -11.51825  0.00603  2.27343     14.14341  1.92421  0.18904   0.4306  0.04963     0.25876  1016.59921   5916.45771  1.00177          4788.6456     20.50271  0.17678  53517.48175  0.00265  0.00259    477094.79454  46.16113  23.89139      53670.0    51.71656       44.70751    40.1001   80.20021  374.0    0.00645  -20.78676  0.99993 
  -21.22544  0.00937  1.79806     13.95582  1.43282   0.2049  0.32628  0.23609      0.4445  1042.34767   9594.36729  0.77611         5118.92863     20.41249  0.14362  53507.77456  0.00211  0.00306    527200.86795  46.19345  23.89359  53679.37896    51.54332       44.58721    40.1001   73.18269  314.0    0.00828  -20.70814  0.99992 
  -29.76483   0.0032  2.36251     13.49207  2.05433  1.50898   1.4299  0.07148     0.02959  1010.08731    8740.9703  1.02503          5559.6287     20.37355   0.1313  53499.23517   0.0087  0.00458  11043041.25153  44.79168  23.96146  53682.43239    51.55074       44.52147   44.11011   83.20771  295.0    0.01632  -20.97376  0.99989 
  -23.41568  0.00121  2.42065     14.23623  1.89397  0.16634  0.46307  0.12595     0.32043  1017.50016   9191.85642  0.77083         4872.33735     20.18715  0.08548  53505.58432  0.00286  0.00056     347212.2195  46.23776  23.86348  53688.53923    51.58955       44.57834   46.89289   77.41743  326.0    0.00679  -20.55439  0.99998 
    -25.892  0.00385  2.33022     13.51094  1.97875  1.40808  0.30823  0.20199      0.1043  1002.23558   9871.18883  0.70739         5165.28632     20.35364  0.12542    53503.108  0.00185  0.00119   9486830.26442  44.85332   23.8131  53676.32554    51.60941       44.66042    37.0926   66.16517  238.0    0.00698  -20.58204  0.99997 
  -22.85789  0.00351  2.67428      13.5358  1.82794  1.18787   0.4352  0.14632       0.119   1005.7819   3390.07254  0.65426         5851.37237     18.86931  0.00411  53506.14211  0.00263  0.00153  10294244.89708   44.6638  24.08128      53667.0    51.78095       44.86872   31.02825     65.212  292.0    0.00674  -20.40051  0.99994 
  -25.53909  0.00284   2.5746     13.80102  1.86623  0.40868  1.37922  0.04048     0.33702  1157.45696   4947.19991  0.62688         4566.24038     19.55139  0.01977  53503.46091  0.01102  0.00392   2871842.19348  45.26023  23.99629  53679.37896    51.60765       44.68363   35.65982   64.59044  380.0    0.00624  -20.50741  0.99986 
  -25.59067  0.00327  2.88735     13.78619  1.97228  0.69654  1.77471  0.05654     0.35613  1096.37473    4659.2155  0.70233         2637.61567     17.96137  0.00051  53503.40933  0.01273   0.0058   4086932.41289  45.03142  23.98822      53667.0    51.60342        44.5458    38.0951   97.24275  342.0    0.00709  -20.06173  0.99977 
  -35.92383  0.00134  2.32853     13.60689   1.5751  0.61793  1.91708  0.04139     0.35181  1004.05493   5770.43931  0.63443          3655.0285     17.28484  0.00011  53493.07617  0.01153  0.00256   4847479.12635  45.04648  24.00139   53670.2187    51.67012       44.74071   31.07758   64.16017  390.0    0.00523  -20.20441  0.99991 
  -18.23637  0.01588   2.1835     13.94684  1.80879  0.29779  0.23197  0.19728      0.1506  1005.14881   7603.40608  0.78959          5720.6378     20.32172  0.11653  53510.76363   0.0014  0.00368   1022866.77799  45.83811  23.89245      53678.0    51.58539       44.61679    38.0951   70.17518  276.0    0.00734  -20.74082   0.9999 
  -18.05322  0.00451  2.52569     13.58363  1.81276  0.80977  0.23717  0.25829     0.13254  1006.48678   3770.93927  0.90814         5384.36751     18.85508  0.00398  53510.94678  0.00143  0.00107   7305705.87785  44.85876  23.93546      53681.0    51.65026        44.6202   43.10761   84.21022  272.0    0.00766  -20.62444  0.99996 
  -21.29769  0.00108  2.38143     13.41894  1.65994  1.17452  1.88703  0.03062     0.26694  1023.34341   6613.30069  0.62468         5278.39139     19.17289  0.00827  53507.70231  0.01179  0.00204  12696822.30316  44.63157  23.99223  53654.95159    51.76932       44.79862   30.07508   75.18769  374.0    0.00664  -20.42687  0.99993 
  -18.20521  0.00242  2.08053     13.78307  1.86689  0.44529  2.57459  0.02089     0.01779  1045.26758   6816.53009   0.8804         5069.81625     20.53229  0.18924  53510.79479  0.01678  0.00623   2037718.03024  45.59447  23.89387  53664.11185    51.66319       44.73247   31.02825     65.212  304.0     0.0089  -20.83819  0.99986 
  -15.94974  0.00143  1.93422     13.38113  1.55109  1.20209   0.7284  0.06411     0.43473  1032.17987   8514.19178  0.82513         5464.84908     20.35602  0.12611  53513.05026  0.00463  0.00104   9315467.97821  44.91727  23.95681  53676.32554    51.69167       44.70141    39.0976   75.18769  330.0    0.00796  -20.73337  0.99997 
  -18.08693  0.00112  2.30304     13.46909   1.5782  0.85615  0.14767  0.30782      0.4569  1005.79176   6327.58359  0.87709         5797.55806     16.80278    4e-05  53510.91307  0.00089  0.00016   8961908.49827  44.79001   23.8895      53678.0    51.62627       44.65942    40.1001   71.17768  322.0    0.00822  -20.64184  0.99999 
  -40.87858  0.00168  2.25884      13.5492  1.50622  0.64625  1.97416  0.06736     0.01454  1025.19708   3769.10039  0.76409         2942.38266      17.8239  0.00037  53488.12142  0.01238  0.00331   5689532.65813  44.98388  23.86988  53673.27212    51.55528        44.5707   38.30393   73.97636  258.0    0.00683  -20.18029  0.99988 
  -23.80363  0.00104  2.61407     13.68385  1.92844  0.58126  0.66785  0.07418      0.2019   1008.8544   3372.09028  0.94681         5179.59991     19.77709  0.03325  53505.19637  0.00405  0.00069   5247651.85043  44.99945  24.04278  53658.00501    51.70147       44.71174   30.07508   80.20021  378.0    0.00678  -20.65549  0.99998 
    -20.875  0.00632  1.92905     13.70558  1.70493  0.52345  0.21362  0.30442     0.10138  1088.51792    5555.9273  0.80724         3740.03955     20.59948  0.22091    53508.125  0.00151  0.00135   2285802.21639  45.57083  23.98626  53667.16528    51.78324        44.8371   34.08509   67.16767  240.0    0.00715  -20.56919  0.99997 
  -19.18813  0.06677  2.48446     13.52423  2.10895   1.3028  0.57283  0.07532     0.04172  1018.07016   5935.70901  0.78985         4647.36087     20.38356  0.13436  53509.81187  0.00354  0.03825  10811291.86293  44.76857  23.92683   53670.2187    51.58298       44.59018   36.09009    78.1952  250.0    0.00682  -20.59601  0.99898 
   -22.8599  0.00139  1.99722     13.45245  1.60001  0.93233  1.56135  0.04985     0.04455  1080.74677   9814.99069   0.8476         4075.31403     20.39731  0.13869   53506.1401  0.01088  0.00216   7377125.87066  45.00423  23.94374  53658.00501    51.69466       44.74063   32.34153   70.91623  278.0    0.00825  -20.58334  0.99994 
  -18.98679  0.00101   2.2025     13.54731  1.61606  0.77141  0.30988  0.15238       0.357  1093.73056   4547.20519  0.42968         5175.93605     19.79096  0.03433  53510.01321  0.00221  0.00031   5854324.57379  45.02399   23.9149      53670.0    51.56793       44.54512    37.0926   91.22774  324.0    0.00749  -20.38213  0.99999 
  -28.00927  0.00195  2.13964     13.49376  1.94585  1.45108  0.53445  0.14312     0.06257  1013.03282   7558.05672  0.69373         5112.02089     20.45994   0.1602  53500.99073  0.00327  0.00104   8512880.85331   44.9672  23.97975      53674.0    51.64468       44.76915   28.10844   55.09927  270.0     0.0075  -20.64027  0.99998 
  -28.47871  0.00104  2.14979     13.45366  1.98189  1.49303   0.3315  0.32268     0.03176  1013.38333   5729.27202  0.86883         4877.61335      20.4823  0.16867  53500.52129  0.00203  0.00034  10528303.82943  44.87878   23.8522  53688.53923    51.58732        44.5002   51.12763   105.0786  206.0    0.01168  -20.79872  0.99999 
  -27.81645  0.00344  2.70619     13.70394  1.88392  0.73368  0.20629  0.31275     0.23605  1014.73951   8293.79207  0.43808         4747.44671     18.77636  0.00332  53501.18355  0.00127  0.00071   5008523.10773  44.97948  24.05816      53666.0    51.61362       44.56381   39.30643   94.22812  260.0    0.00638  -20.17622  0.99997 
   -21.9443  0.00137  2.05333     13.85484  1.57419  0.39628  2.09615   0.0331      0.1482  1022.26997   3898.11394   0.5388         4811.99221       20.012  0.05711   53507.0557  0.01307  0.00286   1202543.48809  45.76089  23.93429      53678.0    51.71126       44.69904    40.1001   82.20521  340.0    0.00872  -20.31071  0.99992 
  -14.22297  0.00696  2.73216      13.6242  1.94565   0.8549  0.13929  0.32344     0.16173  1030.22637   9525.54158   0.7473         5237.61056     18.55148  0.00198  53514.77703  0.00088  0.00097   7611932.40883   44.8034  23.97949  53676.32554    51.60891       44.65769   32.08008   68.17018  208.0    0.00796  -20.47172  0.99996 
   -25.7234  0.00303  2.58375     13.85125  1.85382  0.44551  0.21839  0.26873     0.40416  1004.23968   3765.12043  0.63901         4762.12231     17.36555  0.00013   53503.2766  0.00131  0.00066   2279707.94862  45.35453  23.94098  53676.32554    51.57032       44.56129    39.0976   80.20021  336.0    0.00662  -20.33831  0.99998 
