 texplosion  fnickel    Pspin  log(Bfield)      Mns  thetaPB   mejecta    kappa  kappagamma      vejecta  temperature    alpha  cutoff_wavelength  log(nhhost)      A_V         MJD0   kenergy  mnickel           TSD   log(L0)  Peak_mag     Peak_MJD  log(E_rad)  log(Peak_lum)  Rise_Time    E_fold  tau_1  delta_m15     r_peak     frac 
  -11.29547  0.00887  1.10632     14.29994  1.83534  1.20199     5.027  0.22435     0.05196  10064.31161   9366.24279  1.65941          3171.0375     19.38404  0.01345  59245.26697   3.03742  0.04458   52410.05225  47.72539  17.30563  59280.53944    51.28237       44.68633   14.31872  35.26129   32.0    0.23965  -21.50531  0.99978 
  -10.89674    0.004  1.39906     14.26513   1.6229  0.79285   5.05387  0.15684     0.03339    9856.6975    9470.0381  1.34754         3018.70347     17.41086  0.00014   59245.6657   2.92897  0.02022    87001.0614  47.24794  17.26529  59280.52956    51.44672       44.93364   12.49786  27.65708   31.0    0.28139  -21.67278  0.99978 
   -8.27885  0.33468  1.86281     14.24822  1.70865  1.14014   5.53658   0.1677      0.0135   9093.86203   9621.34404  2.54317         3414.30898     16.71824    3e-05  59248.28359   2.73127  1.85296  175535.93943   46.7168  17.27687  59280.53944    51.32161        44.7607   18.73897  29.24967   32.0    0.28083   -21.8209  0.96724 
   -6.70229  0.10798  0.72974     14.21781  1.61908  1.41953   7.01833  0.12619      0.0244  10162.02478   9213.61133  3.27303         2228.18622     19.33675  0.01206  59249.86015   4.32336  0.75782   29362.35064  48.28399  17.32247  59280.53944    51.35674       44.77554   13.38498   34.5651   33.5    0.23357  -21.90786  0.99864 
   -5.66163  0.00335  0.76853     14.34827  1.52809   0.8792   5.42412  0.21032     0.14111  11041.87262   9179.82873  4.93909         2429.59957     16.61661    2e-05  59250.90081   3.94495  0.01816   16855.48466  48.45493   17.2471   59279.0056    51.15617       44.57457   16.06198  32.12395   34.0    0.24321  -21.90811  0.99996 
   -5.13875  0.00446   1.2002     14.69413  2.10972  0.59039   6.88473  0.23659     0.18903  16502.64338   9318.64938  4.86677         2238.27918      18.4382  0.00152  59251.42369  11.18461   0.0307   11541.82376  48.37229  17.17915  59285.21623    51.33041       44.73242   16.06198  34.60366   26.5    0.24656  -22.01589  0.99988 
  -17.65382  0.01598     1.88     13.95877  1.68615  1.00469   3.76096  0.27743     0.01756  11297.60871   8885.00877  0.33282         2422.56728     19.37251   0.0131  59238.90862   2.86351  0.06012  669087.32164  46.12194  17.32854  59282.52937    51.23872       44.66769   13.38498  33.54972   29.0     0.3217  -21.81533  0.99883 
  -18.78398  0.40753  1.74178     14.08678  1.77232  0.84803   4.44331  0.26651     0.01369  10477.69426   9566.35326  0.53356         2348.83649     16.67976    3e-05  59237.77847   2.90981  1.81079  334795.19705  46.51062  17.22368  59280.52956    51.31446       44.79639   13.38498  26.76996   28.5    0.28625   -21.7043  0.97276 
   -5.16222  0.12001  0.76256     14.24529  1.48204  0.99592   6.56247  0.11585     0.02063   9315.39137   8831.20447  3.48414         2406.13679     19.37929  0.01331  59251.40022   3.39701  0.78754   25861.64537   48.2625   17.2538  59280.53944    51.11501       44.51507   21.41597  32.12395   34.0    0.28456  -21.90557  0.99807 
  -12.44487  0.06169  0.70812     14.44348   1.8119  0.79086   8.87542  0.14423     0.05102  12150.07015   8850.76004  1.36346         2485.74076     16.93754    5e-05  59244.11758   7.81581  0.54749   10944.72767  48.78756  17.34253   59279.0056    51.17534       44.58794   13.38498  34.80095   30.5    0.26449  -21.39891  0.99935 
   -9.37584   0.3433  1.42423     14.27859   1.6967  0.97384    5.4936  0.24354     0.03415  13727.70778   8743.92141  3.20816          2307.2717      17.9935  0.00055   59247.1866   6.17561  1.88597   88592.83559  47.24389  17.32618  59280.53944    51.40373       44.85886   13.38498  31.92667   28.5    0.28421  -21.83679  0.98071 
   -4.99108  0.00322  0.83966     14.26529  1.46598  0.84578     4.487  0.18433     0.06022  10095.23007   9782.11341  4.89817         2093.20462     16.06763    1e-05  59251.57137   2.72782  0.01446   28285.42056  48.13521  17.27515  59282.11092    51.27442       44.70848   18.73897  29.44696   32.5    0.23928  -21.80289  0.99995 
   -7.29123  0.02209  0.74015     14.78351  1.88522  0.38966  11.54943  0.11671     0.05618  13024.11581   9619.11255  4.01393          2172.9113     16.66785    3e-05  59249.27121   11.6865  0.25513    2598.96758  49.39077   17.2315  59280.53944    51.20774       44.64756   10.70798  33.51804   29.0    0.24664  -21.88467  0.99973 
   -6.41303  0.00841  1.10626     14.52405  1.79752  0.61797  22.93244   0.0434     0.02843  11274.77875   9483.60959  3.62163         2323.72931     16.72028    3e-05  59250.14941  17.38976  0.19287   18285.58498   48.1737  17.24642  59282.11092    51.32147       44.76029   16.06198  31.92667   31.0    0.27719   -21.8397  0.99907 
   -6.24191  0.01339  1.31819     14.19745   1.5656  1.25004  10.75147  0.08238      0.0271  10718.45771   9341.46098  3.80471         2487.52075     18.32254  0.00117  59250.32053   7.36817  0.14397  101753.75798  47.21602  17.26896  59282.11092    51.29813       44.74372   13.38498  31.92667   32.5    0.27918  -21.85297  0.99858 
  -12.79615  0.26288  0.88386     14.26353  1.71858   0.9255   5.21851  0.22145     0.02159  10403.42441   9278.61488  1.18235         2300.47225     16.84228    4e-05   59243.7663    3.3692  1.37182    37040.6085  48.04257  17.23078  59280.53944    51.37605       44.86956   10.70798  29.21111   29.0    0.27564  -21.51329  0.99543 
  -11.42154  0.34007  2.57639     14.09571  1.93747  1.15425   2.85197  0.28965     0.02015   9931.47187   9707.49802   3.5483         2365.72662     17.13466    8e-05  59245.14091   1.67803  0.96988  768531.30382  45.84839  17.29239  59282.53927    51.23774       44.62656   18.73897  34.80095   30.0    0.32264  -21.82352  0.97196 
  -15.10316  0.11977  0.86223     14.26299  1.34987  0.60002   5.56931  0.16127     0.01694   8176.16176     9359.586  0.94339         3580.24714     18.51448  0.00182  59241.45929   2.22089  0.66701   27756.64196  48.08452  17.29219   59279.0056    51.20304       44.64304   13.38498  30.84104   32.5    0.24851  -21.34839   0.9967 
   -8.08139  0.01307  0.76543     14.31798   1.9771  1.46804    4.5963  0.19085     0.07232  10356.86548   8690.81936  2.57503         2052.83346     18.11584  0.00073  59248.48106   2.94098  0.06009   24871.56525  48.40136  17.20798  59282.53927    51.45251       44.88457   20.53498  27.65095   32.5    0.24909   -21.6905  0.99992 
   -6.40274  0.00724  1.20472     14.39346  1.88019  1.08251   6.51624  0.18074     0.10605  12479.92613   9421.24455  3.97099         2509.99789     16.31383    1e-05   59250.1597   6.05408   0.0472    41388.2088   47.7644  17.25818  59282.11092    51.28291       44.69334   15.18099  33.00494   30.5    0.28058  -21.89229  0.99975 
  -14.79733  0.14352  0.92237     14.18974  1.49884   0.7723   5.59425  0.14843     0.02325   9759.56556   5283.96851   0.9337           2419.048     18.09991   0.0007  59241.76511   3.17856  0.80288   49419.76057  47.82088  17.25974  59282.53927    51.30239       44.70655   16.13235  34.53329   36.0    0.26808  -21.52728  0.99596 
   -5.50665  0.00176  0.85093     14.37934  1.58384   0.8604  13.46387  0.08307     0.07776   11764.9418   8240.27146  3.42028         2657.76952      16.9917    5e-05  59251.05579  11.11672  0.02371   18562.15675  48.34014  17.30561  59282.11092    51.26587       44.69288   16.06198  32.12395   33.0    0.25618  -21.84534  0.99994 
  -10.65451  0.44084  0.76311     14.23575  1.65839  1.21134   6.66931  0.19369     0.02045  12218.32326   9403.74575  2.40123         2007.43266     18.53848  0.00192  59245.90793   5.93925  2.94009   30281.73473  48.24218  17.26692  59280.53944    51.21596       44.64289   18.73897  30.75974   27.0    0.28648  -21.61539  0.99395 
   -8.67024  0.04911  0.94031     14.66677  1.92056  0.45997  11.76056   0.0897     0.01674  11631.53659   8300.11054  1.67785         2532.07097     16.19297    1e-05   59247.8922   9.49138  0.57756    7315.59293  48.74148  17.33206   59279.0056    51.30205       44.75551   13.38498  29.44696   30.5    0.28043  -21.70802  0.99843 
   -6.31955  0.03447  0.75468     14.24866  1.49482  1.13418   6.71774  0.18047     0.08724  13053.29777    8687.6301  4.95071         2113.12823     17.31545  0.00011  59250.24289   6.82795  0.23158   25154.28481  48.28729  17.26499  59280.53944    51.28992       44.72089   16.06198  31.92667   31.0    0.25518  -21.89404  0.99951 
   -3.64008  0.01121  0.72729     14.33453  1.41038  0.68458   6.92805  0.12048     0.06264  11049.90712   8715.68503  4.46595         2092.43124     16.03709    1e-05  59252.92237   5.04609  0.07766   14842.19245  48.52327  17.23919  59282.53927    51.24854       44.66883   13.38498  33.54972   32.0    0.29065  -21.94659  0.99981 
   -3.98478   0.0251  0.77936     14.13213  1.21829  1.33409   4.54658   0.1924     0.08762    9146.2222   7375.72152  4.44489         2969.37554     17.78273  0.00034  59252.57766    2.2688  0.11414   37391.66101  47.99835  17.26762  59282.11092     51.2209       44.64398   16.06198  30.87272   36.5     0.2611  -21.81011  0.99961 
   -6.29952  0.00225  1.15558     14.36937  1.53273   0.7631   7.69125  0.19497     0.10614  14337.28407   9365.84637  3.27437         2690.32705     18.22631  0.00094  59250.26292     9.431  0.01734   34685.49857  47.78856  17.28904  59282.11092    51.30859       44.74299   12.49786  32.81379   29.5    0.25211  -21.92845  0.99988 
   -14.5669  0.26909  1.94007     14.20038   1.7514  0.80025   4.67122  0.28023     0.01753   11292.0247   8085.05293  1.09097         3261.48269     17.63561  0.00024  59241.99554   3.55304  1.25697  243267.54592  46.55051  17.27618  59280.52956    51.32937        44.7899   13.38498  31.92667   31.0    0.31592  -21.76704   0.9761 
    -7.1401   0.0011  0.87291     14.32588  1.57442  0.88156   7.49181  0.13277     0.05507  10238.10077   8983.79106  3.51139         2478.42695     17.76825  0.00033  59249.42234   4.68438  0.00824   24837.49873  48.18892  17.22479  59282.53927    51.44551       44.88021   17.95019  30.23574   34.5    0.22539  -21.87026  0.99997 
    -3.0924  0.00217  0.90691     14.45429  1.75457   0.9288   6.01842  0.21238     0.23573  13443.33635   9042.60451  4.37152         2714.03389     18.31136  0.00114  59253.47004    6.4882  0.01308   16539.60796  48.37936  17.29193   59279.0056    51.22323       44.66693   13.38498  30.84104   31.0    0.30583  -22.10353  0.99997 
  -14.90439  0.15583  1.57321     14.30744  1.67399  0.61803   5.34738   0.2342     0.02327  11619.40473   8691.59043  1.33813         2291.98501     17.76932  0.00033  59241.65805   4.30662  0.83331    93379.4079  47.12878   17.3095  59282.53927    51.46788       44.90755   13.38498  32.12395   29.5    0.29722  -21.66189  0.98882 
  -11.42047  0.08294  1.81209     14.23334  1.84415  0.96546   4.02724  0.28323     0.03777  12355.75235   9263.69907  1.16976         2934.34761     19.60072  0.02215  59245.14197   3.66753  0.33401  191996.78068  46.73499  17.21519  59282.52937    51.31369       44.75013   18.73897  29.44696   28.0    0.30306  -21.85826  0.99482 
   -3.99223  0.00612  0.70491     14.26352  1.44706  0.97218   6.44339  0.14808     0.08977   10883.0584   8963.66475  4.98713         2221.35566     17.48466  0.00017  59252.57021   4.55243  0.03943   19839.63566  48.43553  17.29091  59280.53944     51.2042       44.62778   16.06198  30.87272   33.0    0.25081   -21.8056  0.99993 
    -4.8138  0.24495  0.79866     14.56349   1.6381  0.70376  10.51209  0.15115     0.01673  13672.28566   9155.98358  2.54841         3593.91019     18.36739  0.00129  59251.74865  11.72191  2.57494    7242.53132  48.81857  17.23212  59282.11092    51.38371       44.85901   11.64172  28.51322   30.5    0.28255  -21.96428  0.99637 
  -13.23015   0.0523  0.90662     14.26779  1.62914   0.8941   5.67109  0.22359     0.05568  12171.21475   9249.37142   0.9775          2437.2327     17.12179    7e-05  59243.33229   5.01143   0.2966   36228.98366  48.00689  17.29269   59279.0056    51.05712       44.44502   16.06198  34.74265   28.5    0.26169  -21.52994  0.99887 
   -7.50409  0.00261  0.85098     14.17474  1.33451  1.20296  13.41915  0.10538     0.06806  12819.10071    9011.8598  1.72067         3480.14285     16.35251    1e-05  59249.05835  13.15428  0.03505    40131.5666  47.93085  17.32705  59278.53505    51.19312       44.61291   16.06198  30.87272   31.0    0.27933  -21.86469  0.99986 
   -4.63382  0.00389  0.70913     14.21629  1.37773  1.32516   6.43272  0.14812     0.10224  10208.20091   9582.16618  2.10995         3515.93113      16.9739    5e-05  59251.92863   3.99871  0.02505   23760.74619   48.3307  17.28357  59280.52956    51.20867       44.64155   13.38498  32.12395   31.0    0.28825  -22.02548  0.99995 
   -5.42978  0.02346  0.74558     14.30728  1.56113  0.99086   7.98556  0.14963      0.0834  13244.83615   9322.05434  3.80558         2134.83705     16.23189    1e-05  59251.13266   8.35653  0.18731   19574.11934  48.42561  17.31549   59279.0056    51.29555        44.7621   10.70798  31.92667   28.5    0.29717  -21.88298  0.99965 
   -9.79242  0.22751   0.8985     14.35473  1.71927  0.98748  14.22955  0.15625     0.01663  17422.51949   9306.52963  2.18074         2063.47404     16.38752    1e-05  59246.77002   25.7656  3.23735   25161.03947  48.19643  17.28217  59282.53927     51.5328       44.97538    15.4534  31.95931   24.5     0.3374  -21.75718  0.99097 
   -4.50755  0.00227  0.96646     14.73526  2.01134  0.47295   5.57665  0.13027     0.10861   8707.03766   8574.95634  4.56373         2505.01505     16.95705    5e-05   59252.0549   2.52198  0.01267    5904.06218  48.83081  17.24135   59279.0056    51.24862       44.69376   10.70798  32.12395   35.5    0.26241  -21.80985  0.99997 
  -21.50925  0.00165  1.94952     14.04222   1.8641  0.93342   6.10818  0.22275      0.0102  10727.93076   8343.77309  0.94956         2063.24371     18.76725  0.00325  59235.05319   4.19344  0.01009  541615.52059  46.22577  17.29521  59282.11092    51.46994       44.92765   13.38498  29.44696   31.5    0.28511  -21.68038  0.99982 
   -6.15247  0.00559  0.70556     14.23686  1.50779  1.14721   7.16304   0.1396     0.04496  10290.10108   8735.49506  3.46155          2349.4412     18.60044  0.00221  59250.40997   4.52443  0.04005   23415.98061   48.3806  17.26012  59282.53927    51.30536       44.75816   13.38498  29.44696   35.5    0.20583  -21.88392  0.99993 
   -13.9383   0.1244  0.79117     14.08775  1.59725  1.28333   4.58589  0.17554     0.02616   9320.29396   9796.41228  1.19612         2293.88232      19.8846  0.04259  59242.62414   2.37635   0.5705   61978.23821  47.88343  17.26365  59282.11092    51.20978       44.64557   13.38498  30.87272   29.5    0.26134  -21.53588  0.99823 
   -7.56188  0.41385  1.67635     14.20109  1.53495  0.95966   3.90738  0.24778      0.0256  10160.99488   9304.18605  3.70668         2829.62208     17.04066    6e-05  59249.00056    2.4065  1.61708  158654.24032  46.80576   17.2305  59282.11092    51.21519       44.64024   16.06198  32.12395   32.0    0.26028  -21.89967   0.9726 
   -7.62839  0.01085  0.71791     14.32909  1.64271  1.06264  10.75256  0.15991     0.11722  14977.36579    9969.2849  1.62504          2742.0206     17.74038  0.00031  59248.93405  14.38831  0.11671   17271.96119  48.53492  17.30692  59278.53505    51.34208       44.81649   10.70798  29.44696   27.0    0.26866   -21.8632  0.99984 
   -5.31605  0.01733  0.72049     14.22197  1.35245  1.11414   8.08425  0.14337       0.065  11127.91936   9165.32488  2.96927         2912.48831     18.23695  0.00096   59251.2464   5.97166  0.14008   23455.32017  48.31447  17.24995   59279.0056    51.33956       44.82463   13.38498  26.76996   32.5    0.27195  -21.85882   0.9997 
   -6.32255  0.13833   0.9956     14.35154  1.89065   1.0302   4.91053  0.18045     0.01777   9124.39466   8854.13879  3.55769         2375.12558      17.8668  0.00041  59250.23989   2.43873  0.67926    34475.6614  48.01177  17.27378  59282.11092    51.15224       44.57088   13.38498  33.45806   34.5    0.21656  -21.85321  0.99765 
   -5.14366  0.00639  0.72145     14.37032  1.49024  0.77137   5.65881  0.23155     0.13929  12943.35328   8205.19941  3.84643         2373.63568     19.03564  0.00603  59251.41878   5.65517  0.03616   13087.33371  48.60883  17.31518  59282.11092    51.20747       44.63823   13.38498  32.12395   34.5    0.21417  -21.98737  0.99994 
   -12.0152   0.1856  0.73571     14.24443  1.71992  1.05949   8.50393  0.16237     0.02642  12849.33448   8469.19119  1.56603         2376.51993       20.547  0.19576  59244.54724   8.37545  1.57834   28045.96359  48.32307  17.27523  59280.53944    51.30735       44.75087   12.50399  32.80765   30.5    0.25984  -21.71522    0.997 
   -8.06345  0.05165  0.71007     14.18523  1.41599  1.11436   7.94846  0.15337     0.05589  12437.64637   9732.71052  3.17319         2139.99796     18.01287  0.00057  59248.49899   7.33477  0.41055   28250.10348  48.26629   17.3036  59280.52956    51.22273       44.64822   16.06198  30.87272   28.5    0.25072  -21.73078   0.9991 
   -4.93187  0.00702  0.74772     14.33311  1.62788   1.1308   8.86799  0.14694     0.11032  12672.35829   9320.84705   3.8132          2580.9068     17.63035  0.00024  59251.63057   8.49507  0.06227   18226.18637  48.47229  17.29113  59282.11092    51.33111       44.78868   13.38498  29.44696   30.0    0.22299   -21.8751  0.99991 
     -7.872  0.03299  1.02714     14.17192  1.49793  1.18364   8.03326  0.11395     0.02206   9724.68126   8978.13474   3.6344         2438.07075     18.03775  0.00061  59248.69044   4.53179  0.26501   66484.26902  47.59836  17.34031  59282.11092    51.21819       44.62629   16.06198  33.54972   34.0    0.24705  -21.74744  0.99843 
    -4.5215  0.00279  0.71541     14.22877  1.50386  1.34365   8.76404  0.16258     0.14558  14866.50707   9427.89972  4.08497         2145.70839     17.98257  0.00053  59252.04094  11.55446  0.02447   24922.46755  48.34035  17.25161  59282.53927    51.34639       44.76857   13.38498  32.12395   28.0    0.27102  -21.90614  0.99996 
   -6.11021  0.02536  0.73972     14.11182   1.3022  1.25941   8.73584   0.1174     0.04423   12583.9067   8236.46699  3.87813         2157.12877      17.9178  0.00046  59250.45224   8.25207  0.22155    39536.2624  48.04839  17.24358   59279.0056    51.18879       44.62445   16.06198  29.44696   32.5    0.25597  -21.97702  0.99934 
   -6.03695  0.00919  0.95903      14.5002  1.84542  0.73155   5.02539  0.18922     0.12583  10575.53215   9279.53162   3.4915         2535.99684     18.21522  0.00091   59250.5255   3.35275  0.04617   15746.11132  48.37411   17.2083  59282.11092    51.21299       44.66029   13.38498  29.44696   32.5    0.25705   -21.8444  0.99987 
  -11.54567  0.23518  0.74044     14.29791  1.70787  1.06229   6.91463  0.17881      0.0187  10913.97112   8843.53232  1.36803         2705.44516     18.86575  0.00408  59245.01677   4.91317  1.62617   22051.38756  48.41889  17.21611  59282.11092    51.28511       44.74056   13.38498  29.24967   29.5    0.27204  -21.46003  0.99726 
    -4.8614  0.00902  0.75846      14.3254  1.51202  1.03391  10.50671  0.14723     0.11043  14463.18943   9961.98969  2.73303         2924.10063      17.5613   0.0002  59251.70104  13.11059  0.09477   18048.61726  48.43209  17.27752   59279.0056    51.16657       44.58824   13.38498  32.12395   28.0    0.29133  -21.94594  0.99983 
