 texplosion  fnickel     Pspin  log(Bfield)      Mns  thetaPB   mejecta    kappa  kappagamma     vejecta  temperature    alpha  cutoff_wavelength  log(nhhost)      A_V         MJD0  kenergy  mnickel            TSD   log(L0)  Peak_mag     Peak_MJD  log(E_rad)  log(Peak_lum)  Rise_Time    E_fold  tau_1  delta_m15     r_peak     frac 
   -7.01182  0.08242  10.23491     14.94941  1.59929  0.87322   3.44964  0.06564     0.43719  6354.64035   3562.46076  1.25248         2991.87371     16.01112    1e-05  56984.13818  0.83096  0.28433   196381.95368   45.1595  22.31924  57012.18808    50.06799       43.49418    15.3631  23.04465   29.5    0.59405  -19.26528   0.8507 
  -11.66338  0.01798  13.14238     14.45142   1.8023  1.11803   0.77303   0.1263     0.01739  5823.52032   4606.59422  1.37885          2360.8559     18.38095  0.00134  56979.48662  0.15639   0.0139  3615328.58667  43.72918  22.39803  57012.18808     49.9594       43.40836   15.68888   25.7915   29.5    0.50412   -19.2435  0.98781 
   -6.99121  0.07439   2.70603     15.09725  1.87265  1.54058   2.32889  0.18642     0.04175  6790.11994   3391.30959  0.57535         2937.23908     18.56786  0.00205  56984.15879  0.64052  0.17325      8136.4901   47.7662  22.38252  57012.18808    49.89075       43.38278   14.15257   26.3133   24.5    0.52606  -19.21284  0.99875 
   -4.62447    0.003   12.3532     15.02512  1.85686   0.8483    5.0619  0.05307     0.34296  5753.21379   3212.28151  4.94364         3068.29018      16.3685    1e-05  56986.52553  0.99945   0.0152   234374.81494  44.98415  22.36223  57014.46336    49.93611       43.44939   12.29048  24.58096   25.5    0.55609   -19.2256  0.98915 
   -7.15271   0.0039   10.2481     14.57243  1.29651  1.16845   4.07544  0.05201     0.06027  6534.84988   7057.85201  3.98432         2202.85124     17.19268    9e-05  56983.99729  1.03818  0.01588   905751.85484  44.40332  22.36982  57014.46336    49.93197       43.43583    15.3631  24.58096   26.5    0.59321   -19.2453  0.98653 
   -4.84385    0.023    7.2039     15.05043  1.61276  0.77756   3.80944  0.10827     0.01564  6100.95184   6381.76455  3.80729         3157.62415     19.82903  0.03748  56986.30615  0.84583  0.08761    61610.68241  45.97162  22.34028  57012.18808      49.929       43.38555    15.3631  26.11727   27.5    0.46885  -19.25142  0.97555 
   -7.10532  0.02718  13.54111      15.0892  1.73146  0.53751    2.0372  0.11642     0.04833  5965.03591   3420.69053   4.8124          2904.8005     17.75841  0.00032  56984.04468   0.4324  0.05538   195495.26928  44.95281  22.42123  57012.18808    49.99353       43.45057   16.89941  24.58096   27.0    0.55149    -19.209  0.94903 
   -4.30584  0.00144    3.0504     15.09711  1.66593  0.90536   9.65733   0.0507     0.18443  7221.68291   5250.70041  2.80801         2285.32855      18.8725  0.00414  56986.84416  3.00442  0.01387     9203.65452  47.55783  22.32845  57014.46336    49.99291       43.49246   12.29048  26.11727   23.5    0.50011  -19.38392  0.99975 
   -6.80793  0.00392   5.81795     14.97315  1.43792   0.5749  10.74261  0.02677     0.02777  6257.02886   6252.02047  1.26639         2608.88958     20.47954   0.1676  56984.34207  2.50884  0.04213    51144.34497  46.18824  22.38733  57014.46336    49.96896       43.46719   13.82679  24.58096   25.0    0.54886  -19.41512  0.99053 
   -6.69401  0.00266  10.35343     14.76989  1.58027  1.39089   3.80058  0.07435     0.30338  6772.61403   7013.12729  4.23786         2261.59337      18.1339  0.00076  56984.45599  1.03989  0.01012   453869.60188  44.78048  22.38784  57014.46336    50.00282       43.44169   12.29048  27.65358   24.0    0.58957  -19.21874   0.9935 
  -12.43018  0.00198  12.08699     14.85685  1.57593  0.52484   4.31637  0.04188     0.01122  5382.07246   3919.16994    0.855         3676.14694     17.68658  0.00027  56978.71982  0.74584  0.00855   413330.96236  44.68545   22.4135  57014.46336    49.93763       43.41652   16.89941  23.04465   31.5    0.47675  -19.20714  0.99239 
    -5.8669  0.00988  14.74768     14.90658  1.98571  1.20123   4.57699  0.04819     0.16564   6198.2206   6961.95543  3.08432         3127.75865     19.07866  0.00666   56985.2831  1.04892  0.04522   616625.19174  44.43929  22.38791  57014.46336    49.91149       43.40828   18.43572  25.10277   25.5    0.60865  -19.28272  0.95935 
   -3.82218  0.01666   4.70107     15.07749  1.84553  1.06916    4.1097  0.09795     0.11059  7570.73995   3094.76811  3.95306         2027.74191     19.93505  0.04784  56987.32782  1.40512  0.06846    26506.79507  46.76722  22.37141  57014.46336    50.03427       43.52497    15.3631  24.58096   22.0    0.59362  -19.38761  0.99531 
  -10.08874  0.00985  11.10645     14.73786  1.81404  1.46115   1.86039  0.09862     0.03843  5800.12698    5514.2901  0.07437         5100.75362      19.5089  0.01793  56981.06126  0.37334  0.01833   694865.40784  44.59444  22.37554  57012.18808    50.01547       43.44952   12.29048  26.11727   28.0    0.59344  -19.21331  0.98898 
   -8.81189  0.00132   6.23757     15.05693  1.63636   0.5194   5.92394  0.04373     0.01827  6060.28523   5427.61138  1.00261         2078.24423     20.48558  0.16995  56982.33811  1.29785  0.00784    45485.49313  46.23482  22.34286  57014.46336    50.07319       43.56347    15.3631  23.50962   24.5    0.58524  -19.33517  0.99831 
  -11.64547  0.00119  10.29653      14.9583  1.66566  0.57157   1.34584  0.18059     0.04198  6277.72778   6362.62631  0.14734         2660.26127     16.31455    1e-05  56979.50453  0.31639   0.0016   198694.25813  45.16686  22.34897  57012.18808    49.94751       43.40437    15.3631  25.10277   25.5    0.55951  -19.20049  0.99905 
   -9.93951  0.01774   7.76548     14.99395  1.71635  0.66912    3.9105  0.05632      0.1489   5112.4643   5783.60164  0.51847         3920.47437     20.20631  0.08934  56981.21049  0.60971  0.06937    98822.14204  45.72826  22.34171     57012.08    50.01043       43.41001   18.43572  26.11727   27.5    0.52084  -19.20408  0.97843 
  -10.54486  0.00297  12.06351     14.70715  1.66952  1.04431   1.73773   0.1386     0.03082  6539.51047   3260.12497  0.71245          3137.0065     16.82176    4e-05  56980.60514   0.4433  0.00516   869082.43001  44.38943  22.30234  57014.46336    49.96013       43.48179   12.29048  24.58096   26.5     0.5563  -19.28065   0.9958 
   -4.39301   0.0067   2.66446      15.0327  1.49259  0.96451   7.31524  0.04916     0.44686  5883.07565   7062.46676  1.28079         3522.82945     17.79749  0.00035  56986.75699  1.51031  0.04899     8464.04754  47.66399  22.37407  57012.18808      50.066       43.56466    15.3631  21.50834   23.5    0.56088  -19.27139  0.99935 
   -9.98983  0.01447  11.57377     14.91408  2.13753  1.54577   6.71907  0.03708     0.07448  6116.38506   6169.35526  0.11375         4350.95863     18.58967  0.00216  56981.16017  1.49943  0.09722    394923.0237   44.8753  22.32842  57012.18808     50.1148       43.68604    15.3631  21.50834   27.0     0.5539  -19.20842  0.95244 
   -7.81644  0.00697   0.92278     14.91328  1.44585  1.28998  18.43206   0.0194     0.01729  6043.46509   5270.65197   0.8097         2383.31909     20.50542  0.17789  56983.33356  4.01581  0.12856     1704.36587  49.26721  22.34683  57014.46336    50.03437       43.53522   11.09063  27.31712   24.5    0.53631  -19.06065  0.99997 
  -10.58854  0.00137   12.4969     14.62255   1.6187   1.5387   5.25584  0.04198     0.01536  6313.08136   5383.87103  1.60296         2676.57496     17.88305  0.00042  56980.56146  1.24954   0.0072  1335017.49336  44.15892  22.34614  57014.46336    50.01205       43.51373    15.3631  24.58096   28.5    0.53881  -19.21784  0.99343 
   -9.20525  0.01369  13.09319     14.92682  1.71817  0.68256  10.00414  0.02479     0.01842  6579.66263   4591.44047  1.50424         3164.12553     19.21355  0.00908  56981.94475  2.58353  0.13692   383121.51181  44.68648  22.38274  57012.18808    49.96606       43.42961   13.82679  26.11727   29.5    0.53145  -19.30793  0.88814 
   -6.48234  0.00904   11.5418     15.02788  1.83116  0.71614   5.38189  0.05913     0.03698  6515.35411   5566.68243  2.99816         2983.25711     18.17415  0.00083  56984.66766  1.36282  0.04864   199221.76561  45.10769  22.35079  57012.18808    49.91178       43.37376    15.3631  26.11727   26.5    0.53479  -19.31808  0.96958 
   -6.40922  0.01212    3.9848     15.00025  1.47302  0.62657   7.92322  0.04198     0.32085  6906.22785   4843.48071  1.76467         2122.63081     20.65647  0.25188  56984.74078  2.25429    0.096    21693.81882  46.89991  22.35081  57014.46336    49.94006       43.43719   16.89941  24.58096   23.5    0.56265  -19.53237  0.99181 
   -3.95713  0.00397   7.43603     15.04677  1.68226  0.84095    5.7564  0.07537     0.03137  6352.04714    7894.7449  3.77757          3136.8554     18.02151  0.00058  56987.19287   1.3855  0.02288     69639.9129   45.9092  22.37979  57014.46336    50.07452       43.55914   12.62694  25.78081   25.0     0.4509  -19.23442  0.99349 
   -7.60133  0.00459   3.59945     14.98759  1.74309   1.2022   2.77068  0.17193      0.0231   7028.3726   3742.77205  0.92989          2226.9096     16.09123    1e-05  56983.54867  0.81644  0.01273    22203.88061  47.05126  22.38879  57014.46336    50.07218       43.56214   16.89941  23.04465   23.0    0.53454  -19.25635  0.99954 
   -10.5773  0.00199   5.30922     14.78313  1.39566  0.86757   2.25287  0.13642     0.11555   5521.3065   4028.47651  0.81624         3091.43294       20.455  0.15839   56980.5727  0.40968  0.00449    99172.63546  45.96717  22.37394  57014.46336    49.99509       43.52425    9.54757  27.32388   26.5    0.48382  -19.17759  0.99912 
   -7.23049  0.01066   3.27719     15.15903  1.78524  0.74916   2.92657  0.17439     0.01569  7225.57787   6663.98202  0.63562         2212.20777     17.26563   0.0001  56983.91951  0.91145  0.03119     8559.50062  47.55709  22.36759  57014.46336    49.97083       43.44841    15.3631  24.58096   21.5      0.559  -19.49325  0.99929 
   -5.69969  0.02428   3.84696     15.12656  1.76228  0.88612   1.72769   0.2943     0.21771  7740.88968   6058.03432  0.66216         3650.95009     16.91169    5e-05  56985.45031  0.61756  0.04195    13520.70529  47.21369  22.37832  57014.46336    50.04187       43.54283    15.3631  24.58096   22.5    0.58713  -19.54503  0.99844 
   -8.53949   0.0071   4.48134     14.88953  1.71349  1.19418  13.65541  0.02025     0.16933   6050.2496   4286.16175   0.2448         2722.19702     20.43803  0.15232  56982.61051   2.9818  0.09693    53144.68215  46.47445  22.33782  57014.46336    49.96971       43.50468   12.29048  23.50962   24.5    0.60632  -19.27254  0.99153 
   -7.18847  0.01091   6.66557     15.04539  1.53693    0.617   5.05273  0.06628     0.12066  6386.81339   5801.96105  0.82189         2899.27028     18.98115  0.00532  56983.96153  1.22948  0.05513    51446.78529  46.09647  22.42999  57014.46336    49.89275       43.37852   16.89941  26.11727   24.0    0.56846  -19.24484  0.98544 
  -10.33413  0.05573  15.01298     14.89793  1.82443  0.58409   1.96159  0.07358     0.26946   6624.3976   6663.21938  1.22207          2793.9432     19.68788  0.02708  56980.81587  0.51349  0.10932     610969.137  44.39102  22.39288  57014.46336    50.20698       43.75288    9.21786  24.58096   36.0    0.52865   -19.2827  0.89129 
   -9.25715  0.01666   5.82316     14.80464  1.49091  1.43142   7.01161  0.05355     0.13991  6546.17112   3043.17338   0.3002         3375.12099     17.54644   0.0002  56981.89285  1.79234  0.11683   115428.47244  45.84967  22.34944  57012.18808    49.94816        43.3751   18.43572  26.11727   25.5    0.53176  -19.13489  0.97632 
   -4.99246  0.00409   2.09323     15.05442  1.63627   1.1331   7.68455   0.0807      0.2456  7892.93547   3683.40998  0.84272         3359.52369     17.28903  0.00011  56986.15754  2.85577  0.03145     5181.65361   48.1266  22.35048  57014.46336    49.94164       43.40824   16.89941  24.58096   23.5    0.54648  -19.26228  0.99988 
   -4.78459  0.00555   4.70585     15.15045  1.69362  0.70174    2.2664  0.21756     0.02058  7402.73071   5918.79899  2.63245         2551.58484     16.23525    1e-05  56986.36541  0.74088  0.01258    17418.20865  46.91138  22.40925     57012.08     50.0377       43.58176   16.89941  21.50834   23.5    0.52326   -19.3327  0.99894 
   -5.27464   0.0198   5.36574     14.97641  1.53247  0.91415   2.63856  0.16326     0.11349  7562.23562   3532.58621  2.07618         2342.00838     17.60579  0.00022  56985.87536  0.90011  0.05223    45672.42622  46.33532  22.32438  57014.46336    50.00003       43.42844   14.15257   26.3133   23.0     0.5532  -19.30916    0.992 
   -3.17352  0.02698   2.67847     15.06359   1.5773  1.01807   4.15526  0.11289     0.14831  6979.09462   4830.56214  1.85118         2769.65758      18.5254  0.00186  56987.97648  1.20732  0.11211     7839.96142  47.71667  22.38048  57012.18808    49.97854       43.47288   16.89941  23.04465   24.0    0.51129  -19.12659  0.99877 
   -6.12968  0.00125   5.95173     15.01876  1.90423   1.2673   1.90571  0.20386     0.03535  6127.33428   4469.29467   1.1212         3729.31595     19.08819  0.00681  56985.02032   0.4268  0.00238    57451.69944  46.23997  22.37988     57012.08     50.0134       43.56334   13.82679  23.04465   24.0    0.52719  -19.28193  0.99968 
   -8.38434  0.00359   3.14366     14.83691  1.57757  0.62287   6.02235  0.02533     0.01117  5374.18031     6813.332  0.19159         4218.83382     21.00881  0.56693  56982.76566  1.03757  0.02163    30679.98193  46.98511  22.35586  57012.18808    49.99627       43.42137   13.82679  27.65358   28.0    0.59942   -19.7047  0.99885 
   -9.78089  0.00677    8.5483      14.7377  1.42776  0.99503   9.65969  0.02633     0.09901  5741.61778   5839.88876  0.78998         3237.85268     19.15058  0.00786  56981.36911  1.89959  0.06538    324217.6014   45.0489  22.40787  57014.46336    50.02104       43.47873   16.89941  23.04465   27.5    0.53266  -19.19179  0.96755 
   -5.16651  0.01762   8.12803     15.03247  1.61978  0.80657   10.9567  0.02478      0.3471   5624.6951   4682.49904  2.15043         3535.43836     20.20107  0.08827  56985.98349  2.06778  0.19311    85565.03839  45.72603  22.36631  57014.46336     49.9335        43.4192   16.89941  24.58096   27.5    0.51864   -19.3154  0.93317 
   -5.61103  0.04529   8.90447     14.99928   1.8893  1.54137   4.51374  0.06755     0.16063  6477.32771   5407.48698   1.8518         2847.78235     18.70646  0.00283  56985.53897  1.12968  0.20443   139564.69391  45.50115  22.37697  57012.18808    49.95614       43.43879   17.22519   25.7915   26.5    0.53397  -19.23499  0.93303 
   -8.12121   0.0034    6.9738     15.08183  1.15885  0.28805    4.7088  0.07344     0.12498  6834.23391   5843.35969   1.0235         3383.85755     20.04068  0.06101  56983.02879  1.31195  0.01602    35901.29812  46.09082  22.37393  57014.46336    50.02503       43.53683    9.55432  26.24578   25.0    0.54453  -19.37443   0.9926 
   -8.71486  0.05785   7.10924      14.9676  1.50495  0.91879   6.40643  0.04502     0.18108  6327.49233   5709.56501  0.52238         3736.08781     16.24451    1e-05  56982.43514  1.53005  0.37063    81992.69594  45.82895  22.36499  57014.46336    49.96747         43.477    15.3631  24.58096   32.5     0.5115  -19.18075  0.89724 
   -7.39871  0.00267   9.88996      14.9224  1.87139  1.11875   1.79368  0.18664     0.25279  6836.83088   5209.14924  4.64595         2044.55582     16.43082    1e-05  56983.75129  0.50013   0.0048   242976.68378  45.16506   22.3709  57012.18808    49.97617       43.46328   12.29048  27.65358   24.0    0.53398  -19.27006  0.99783 
   -8.67602  0.00188  10.22835     14.99913  1.82996  0.74425   4.67799  0.06658     0.18013  6623.17105   6348.97663  2.39886         2068.69331     18.84265  0.00387  56982.47398   1.2241  0.00879   178488.72297  45.26006  22.41311  57012.18808    49.97597       43.40045   19.97203  25.10277   25.0     0.5636  -19.23236  0.99557 
   -5.57965  0.04644   8.75888     15.12071  1.83748   0.7539   3.29651  0.10675     0.19621  6746.44071   4630.69076  4.98879         2330.70437     17.68241  0.00027  56985.57035  0.89502   0.1531    75079.26644  45.77265  22.37652  57014.46336    50.04655        43.5629    9.21786  27.65358   26.5    0.49561  -19.24504  0.94811 
   -5.90974  0.00172   6.62986     14.97769  1.32104  0.57191   6.34672  0.06134     0.05549  6696.38983   4546.41824  1.89234         2915.62778     17.86699  0.00041  56985.24026  1.69769  0.01091     59753.3643  45.97039  22.36841  57012.18808    49.99107       43.39102   16.89941  26.11727   24.5    0.50761  -19.25741  0.99633 
    -7.6009  0.01663    2.7601     15.00419  1.72078  1.06372   2.12313  0.22593     0.40694  7243.71828   6499.36818  0.20201         3524.41895      20.3998  0.13949   56983.5491  0.66455  0.03531    11940.23704  47.54571  22.37921  57014.46336    50.02314       43.52269    9.21786  29.18989   23.0    0.53906  -19.35357  0.99948 
  -10.39826  0.00752  15.86995     14.73902   1.9259  1.26782    15.999  0.01463     0.05428  6048.58695   4926.74626  3.55141         2926.99729     18.00579  0.00056  56980.75174  3.49163  0.12028   1498147.8464  43.97677  22.30663  57014.46336    50.01609       43.50477   16.89941  23.04465   33.5    0.47308  -19.25085  0.87879 
   -7.63056  0.00533   0.80495     15.11093  1.78905  1.19288   2.45602   0.2948      0.0132  7539.23721   3349.79964  0.46911         2441.49435     17.75894  0.00032  56983.51944  0.83275   0.0131      645.84328   49.8998  22.39588  57012.18808    50.00035       43.48068    15.3631  24.58096   21.0    0.56628  -18.94712      1.0 
   -6.37466  0.02701   8.31374     14.96944  1.68095  1.01167   4.51655  0.08427     0.12933  6996.26329    6225.1524  2.01019         2948.38605     16.51019    2e-05  56984.77534  1.31876  0.12201   124188.89941  45.56073   22.3258     57012.08    49.94867       43.36795    15.3631  26.11727   25.5    0.54037  -19.27933  0.95694 
   -7.00665  0.00726  13.73413     14.92836  1.85984  0.84972   0.99293  0.27349     0.19091  6828.26043   3963.26862  2.58323         3181.30504      18.8541  0.00397  56984.14335  0.27616  0.00721   453077.58594  44.60654  22.35972  57014.46336    49.94011       43.44746   13.82679  24.58096   25.5    0.60808  -19.32377  0.99357 
   -6.02095  0.05358   9.42098     14.88371  1.47124  0.97553   5.21304  0.05258     0.01329  6763.70104   4269.02736  2.63085         2469.08648     18.46426  0.00162  56985.12905  1.42262  0.27934   207144.11177  45.17206  22.38165  57014.46336    49.99245         43.479    15.3631  23.04465   28.0    0.53822  -19.24586  0.85837 
   -7.55908  0.01881   7.35699     14.99158  1.91015  1.42941   7.37549  0.04653     0.04172  6839.65782    3915.1979  0.82685          2485.4129     17.94198  0.00049  56983.59092   2.0582  0.13871    99799.41937  45.81738  22.33747  57014.46336    50.02555       43.54242   12.29048  25.04593   24.0    0.59561  -19.25123  0.96936 
   -2.09142  0.00513   1.89669     15.15429  2.13158  1.23881   1.94975  0.25518     0.36877  7370.78657   7130.33688  2.98202         2596.13671     20.80253  0.35258  56989.05858  0.63188     0.01     3498.91663  48.49762  22.47824  57014.46336    49.96995       43.46137    9.54757  28.86019   24.0    0.50522  -19.41321  0.99998 
  -11.42442  0.00115  11.97445      14.9882   1.6532  0.40768   0.58182  0.26004     0.06384  5975.06142   3621.62654  0.33011         2036.31053     17.91292  0.00045  56979.72558  0.12391  0.00067    232409.3284   44.9644  22.35245  57012.18808    49.90348       43.37848    15.3631  25.10277   28.5    0.55646  -19.19752  0.99945 
