 log(Bfield)      Mns    Pspin  cutoff_power  cutoff_wavelength  fnickel    kappa  kappagamma  mejecta  log(nhhost)  temperature  texplosion  thetaPB      vejecta      A_V        MJD_0   log(KE)      M_Ni  Peak_mag     Peak_MJD 
    14.21115  1.92624  4.41401          0.81         4248.81163  0.00684   0.2403     0.05266  1.15609     19.42489   4762.81446    -6.69449  1.01327  10831.08633  0.01478  55253.80151  52.39517   0.24282  18.31757  55282.82782 
    14.11024  1.86026  4.29433       0.76644         4410.37418  0.07918  0.10641     0.01846  2.23149     16.95215   8086.73232    -6.96485  1.17186   9964.60889    5e-05  55253.53115  52.42584   3.56366  18.32835  55282.82782 
      14.212  1.76347  4.02821       0.81211         4580.65988  0.03289   0.1652     0.03121  1.69119     17.79734   3443.58037    -7.24093  0.93302   9556.83605  0.00035  55253.25507  52.34903   1.34864  18.32287     55282.02 
    14.17103  1.79375  4.07589       0.79561         4523.27195  0.00266  0.09983     0.02333  2.53045     18.99146   4939.00655    -6.60742  1.18129   9793.62408  0.00545  55253.88858  52.42801   0.12464  18.36639     55282.02 
    14.44597  1.85482  4.10564       0.63556         4282.54505  0.01509  0.17259     0.05409  1.82731     16.38041   4785.96893     -6.4785  0.59805  11076.57343    1e-05   55254.0175  52.48891   0.63547  18.33936  55282.82782 
    13.84949  1.48442   3.5316       0.89159         3973.15254  0.00425   0.1961     0.02259  1.46464     17.00319    5128.5947    -9.29155  1.18364  10014.85252    6e-05  55251.20445  52.36708   0.16537     18.34  55282.82782 
    14.20167  1.57647  3.66509       0.83459         3320.50232  0.00126  0.14327      0.0203   2.2943     18.63482    3893.0554   -11.00477  0.48056  10959.89348   0.0024  55249.49123  52.51239   0.05704  18.34181  55282.82782 
    14.22995  1.93776  4.39367       0.77353         3832.31225  0.01058  0.18348     0.05709  1.78424     18.71981   3616.51157    -7.91731  1.21966  11292.49508  0.00291  55252.57869  52.50211   0.44186  18.36248  55282.82782 
    14.15214  1.69261  3.93871       0.48688         4368.01347  0.00788  0.12781     0.02756  2.18857     18.68459   5329.81001    -8.31596  0.79938  11154.53432  0.00269  55252.18004   52.5211   0.35224  18.38113  55282.82782 
    14.10503  1.46411  3.58472       0.64319         4362.30929  0.00331  0.17131     0.03248  1.62092     16.95931   4047.57811    -9.06166  0.68942  10444.35723    5e-05  55251.43434  52.41961   0.13359  18.37401  55282.82782 
    14.08182  1.53228  3.59173        0.7595         4254.34158  0.00217  0.13276     0.02797  2.27192     17.85924   3254.25731    -7.89861  1.06932   9976.31212   0.0004  55252.59739  52.42936   0.09831  18.33706     55282.02 
    14.20132  1.67605  3.73681       0.87406         4011.22674  0.01708  0.19659     0.04717  1.92367     18.60165   8034.14925    -8.21069  1.05803  10103.50363  0.00222  55252.28531  52.41664   0.73205  18.35847  55282.82782 
    14.28369  1.73712  4.01154       0.70253         4261.51114  0.00301  0.10069     0.02365  2.96463     16.43621   4323.43341    -7.46674  0.69061  10893.72572    2e-05  55253.02926  52.54121   0.14794  18.35132  55282.82782 
    14.22022  1.52662  3.68198       0.73656         4356.29283   0.0012  0.14525     0.03806  1.94722     17.16495   4717.73392    -6.30208  0.70041  10884.73937    8e-05  55254.19392  52.48311   0.05143  18.34177     55282.02 
    14.20921  1.91759  4.06536       0.79582         4148.88163   0.0246  0.23213     0.03446  1.58331      19.0648   8126.64342    -9.98122  1.15723   9228.40097  0.00645  55250.51478  52.30843   0.98507  18.36731  55282.82782 
    14.11964  1.79394  3.98619       0.64829         4590.58259   0.0641  0.20266     0.02847  1.40044     16.96884   3458.91976    -9.61828  0.94583   9590.24068    5e-05  55250.87772  52.32215   2.45327  18.33877     55282.02 
    14.24973   1.7887  4.03305       0.69192         4359.15057  0.00332   0.1495     0.04066  1.70618     17.45485   3401.48116     -6.0448  0.87584  10601.33043  0.00016   55254.4512  52.44047   0.13634  18.36014  55282.82782 
    14.18093  1.64483  3.95145       0.76544         4063.35026  0.00197  0.11036     0.03027  2.67592     18.48142   3983.32045     -6.9514  0.91686  11103.67124  0.00168   55253.5446  52.54448   0.09383  18.38134  55282.82782 
    14.10823  1.38935  3.12962        0.6413         4311.88845  0.01955  0.15084     0.03629  2.34045     16.66337   4977.28507     -8.0162  0.91239  10355.68984    3e-05   55252.4798  52.46588   0.89328  18.34264  55282.82782 
    14.08826  1.47974  3.27327         0.648         4655.31655  0.06009  0.09588     0.02432  3.22839     19.05696   3253.78143    -6.72407  1.28911   9876.95071  0.00633  55253.77193  52.46687    3.0255  18.32127     55282.02 
    14.01578  1.47336  3.36661       0.57443         4347.32303  0.08969  0.18077     0.03696  1.79513     16.64693   4109.95464    -9.59342  1.39142  10056.99549    2e-05  55250.90258  52.40238   3.75451  18.34198     55282.02 
    14.30172  1.95699  4.30297       0.95014         4146.71975  0.00111   0.1225     0.02841  2.76172     16.54265   3408.79337    -7.25403  1.05769   9726.75207    2e-05  55253.24197  52.43363   0.05355  18.35648  55282.82782 
    14.21636  1.84661  3.94791       0.55791         4699.86411  0.00464  0.17169     0.04256  1.61934     17.01768   4388.01292    -6.16636  1.11873  10507.24967    6e-05  55254.32964  52.42467   0.18725  18.34922     55282.02 
    14.14545  1.47431   3.5395       0.74599         4377.85534  0.01958  0.10396      0.0217  2.64546     18.23753   3133.78958    -7.22148  0.76915   9975.44632  0.00096  55253.27452   52.4499   0.92946  18.36106  55282.82782 
    14.23355  1.70934  3.95224       0.56617         4422.47709  0.14057  0.10191     0.01675   2.7808     16.28009   5317.19338    -8.49659  0.61947  10812.79017    1e-05  55251.99941  52.52647   6.77401  18.38002     55282.02 
    14.08161  1.72427  4.05183       0.86205         4290.78175  0.06079  0.09054     0.01324  2.73928     18.89193   3209.72106    -7.88419  0.84487  10144.79076  0.00433  55252.61181  52.46911    2.9163  18.33945  55282.82782 
    14.14456  1.52889  3.76417       0.67072         4194.51057  0.01469   0.0544     0.01202  5.63571     17.17539   5343.69203    -7.86168  0.77244  11112.25522    8e-05  55252.63432  52.63369   0.85802  18.37798  55282.82782 
    14.37011  2.12954  3.97253       0.81618         4341.46538   0.0162  0.06789     0.01981  5.42324     18.17964    3699.2418    -6.49327  1.54914   9473.16458  0.00084  55254.00273  52.49093   0.93715  18.32585  55282.82782 
    14.19889  1.77051  3.83633       0.78339         4756.57009  0.04304  0.16318     0.03746  1.59489     16.90986   5218.74071    -5.56864  1.26924   9190.54814    5e-05  55254.92736  52.30601   1.72815  18.34655     55282.02 
    14.43246  1.74265  4.11075       0.89668           4124.415  0.01367  0.07591     0.02076  4.04566     18.14507   4868.59758    -6.33541  0.54149  10704.76121  0.00078  55254.16059  52.56405   0.73308  18.37027  55282.82782 
    14.50606  2.02209  4.54201       0.70504          4436.3218  0.01389  0.13536     0.02647  1.88263     18.59001   4268.02312    -7.79798  0.45162  10239.22734  0.00216  55252.69802  52.42506   0.59082  18.37278     55282.02 
    14.30041  1.86361  4.16127       0.76748         4643.74388  0.00719  0.10181     0.02127  2.82546     19.50325   3684.76667    -6.66684  0.80332   9895.34971   0.0177  55253.82916  52.45153   0.34807  18.36537  55282.82782 
    14.11931  1.38203  3.28144       0.58398         4766.93207  0.00959  0.09011      0.0199  3.20707     16.09776   4786.21984    -7.23502  0.75967  10210.87653    1e-05  55253.26098  52.49492   0.48172  18.34514     55282.02 
    14.15039  1.55718  3.80039       0.74624         4247.71472  0.03389  0.09179     0.02116  2.94341     18.92805   5235.80563     -7.2375   0.7714  10850.11627  0.00471   55253.2585   52.5368   1.66109  18.33434  55282.82782 
     14.4509  1.97418  4.50295       0.77038         3875.06197   0.0642  0.22684     0.06742  1.42534      16.7098    5609.4242    -7.42834  0.60786  11362.73307    3e-05  55253.06766  52.47234   2.47339  18.32012  55282.82782 
    14.25057  1.76357  3.59687       0.77115          4268.6239  0.00366  0.11141      0.0213  3.78004     19.36259   8130.14846   -10.15257  0.99193   9363.18249   0.0128  55250.34343  52.43971   0.19278  18.36235  55282.82782 
    14.23071   1.5861  3.77409       0.77849         4289.11904  0.09041  0.12578     0.03087  2.11704     18.25339   3808.70457    -5.98198  0.75899    10200.705    0.001  55254.51402  52.43877   4.00048  18.35997     55282.02 
    14.25625  1.80777  4.06383         0.611         4269.96297  0.00812  0.15819     0.03172  1.77335      18.9894   4794.37655    -8.68403  0.73645  10278.48911  0.00542  55251.81197  52.41946   0.33851  18.36075     55282.02 
    14.13363  1.34115  3.18187       0.54188         4802.98898  0.01609  0.17064     0.04502  1.56126     18.43184   6132.90842    -6.44218  0.72342  10665.39474   0.0015  55254.05382  52.43193   0.64123  18.35052  55282.82782 
    14.51299   1.8565  4.17254       0.64806          4533.7091  0.01163  0.09598     0.01938  2.39985     19.06379   3795.43176    -7.15478  0.38033  10174.68717  0.00643  55253.34122  52.45399   0.53591  18.33887     55282.02 
    13.96747    1.424  3.34226       0.65744         4581.48332  0.05164  0.11088     0.02261   2.4446     19.41688   3288.43098    -7.19316  1.44966   9915.11931  0.01451  55253.30284  52.43406   2.39222  18.32155     55282.02 
    14.22677  1.63583  2.88835       0.57099         4218.16234  0.06138  0.10435     0.03523  4.67604     17.43786   3982.19018    -8.05956  1.48828  10449.02289  0.00015  55252.43644  52.55969   3.41942  18.35207     55282.02 
    14.13824  1.64487  3.76228        0.5589         4358.00618  0.00148  0.21572     0.04627  1.40641     17.99338   5444.81482      -9.336  0.89019  10528.18357  0.00055     55251.16   52.4039   0.05655  18.33374     55282.02 
    14.18322  1.95585  4.21072       0.64502         4270.43086  0.00257  0.11953     0.02243  2.63924     19.50904    3305.5241    -8.63183  1.19118  10220.06407  0.01794  55251.86417  52.47064   0.12212  18.36918  55282.82782 
    14.00669  1.42754  3.43197       0.65758         4630.15523  0.02963  0.11444     0.02589  2.32051     16.30162   4489.92765    -6.81755  1.19014  10133.89661    1e-05  55253.67845   52.4459   1.35037  18.35127     55282.02 
    14.00463   1.3411  3.35759       0.67999         4292.88807  0.00337  0.15653     0.02981   1.7538     16.33864   3220.26226    -8.23634  0.78683  10501.04346    1e-05  55252.25966   52.4364   0.13979    18.336  55282.82782 
     14.5895  1.85068  3.74613       1.08355         4079.79812  0.17599  0.16546     0.04026  2.64354     18.85759     5001.802    -7.47409  0.51888   9724.31784    0.004  55253.02191  52.42766   8.35245  18.36597  55282.82782 
    14.15303  1.80069  4.03659       0.62607         4512.85694  0.00497   0.1626     0.03313   1.5449     18.90532   3635.02968    -7.60437  0.98044  10302.78413  0.00447  55252.89163  52.40022   0.19718   18.3185  55282.82782 
    14.39956  1.75796  4.16242       0.86208         4144.44317  0.00164   0.1646     0.03226  1.48598     17.70226   4763.53945    -7.90057  0.42758  10468.00172  0.00028  55252.59543  52.40784   0.06403   18.3588  55282.82782 
    14.10117  1.62169  3.80672       0.73074         4455.54568  0.00251  0.12251     0.03158  2.63024     16.87678   5566.00758    -6.86603  1.39315   10546.2424    4e-05  55253.62997  52.49747    0.1188  18.32073  55282.82782 
    14.30765  1.79372  4.05459       0.69628         3867.08487   0.0027  0.14128     0.02095  2.46261     16.96762   5332.23411   -10.97915  0.53839  10548.54438    5e-05  55249.51685  52.48884   0.12517  18.36693  55282.82782 
    14.10498  1.64594  3.78949       0.62162         4108.63905  0.00656  0.19603     0.03482  1.51541     18.12816    3708.3778   -10.05738   0.8529   10475.0077  0.00075  55250.43862  52.41156    0.2584  18.36622     55282.02 
     14.2655  1.79141   4.0182       0.59107          4399.4278  0.01462  0.10855     0.02215  2.74857     17.48061   5098.84169    -7.92735  0.74941  10595.78733  0.00017  55252.56865  52.50734   0.70199   18.3341  55282.82782 
    14.31464  1.96972  3.97874       0.75028         4269.35375   0.0959  0.10754     0.02403  2.55596     19.86715   3912.36888    -6.49443  0.97263    9568.0655  0.04091  55254.00157  52.40911   4.50481  18.38194  55282.82782 
    14.13643  1.65463  3.73568       0.66147         4392.22316  0.00185  0.15276     0.03393  1.86715     16.54338   4524.48911    -7.89688   1.0697  10002.53984    2e-05  55252.59912  52.40352    0.0783  18.38435  55282.82782 
    14.15117  1.78018  4.00114       0.65716         4597.41628  0.06738  0.11848     0.02615  2.00477     18.26066     3874.493    -6.31254  1.19229    9922.6039  0.00101  55254.18346  52.40696   2.92823  18.34252     55282.02 
    14.35341  1.72962  3.99654        0.7061         3993.79906  0.03054  0.06782     0.01544  3.94409     18.46385   9435.97111    -7.81631   0.5468  10443.82069  0.00162  55252.67969  52.53963   1.62594  18.35579  55282.82782 
    14.23209  1.73988  4.25053       1.17874          4038.5048   0.0077  0.22045     0.04348   1.2632     16.48196   5477.65353    -7.35045  0.78693   9844.45994    2e-05  55253.14555  52.32761   0.28323  18.34681  55282.82782 
    14.47932  1.56134  3.94514       1.10014         4000.05019  0.00162  0.09845     0.02294  3.12335     17.59132   4048.90675    -7.65695  0.35809  10429.55418  0.00022  55252.83905  52.51001   0.08098   18.3342     55282.02 
    14.10023  1.69209  3.69477       0.73413         4562.68523  0.06187  0.08544     0.01393  3.57671     18.41298   4060.70628    -8.64252  1.44489   9095.09292  0.00144  55251.85348  52.40783    3.2068  18.33637  55282.82782 
    14.25286  2.03834  4.55304       0.69569         4491.54489  0.00123  0.09479     0.03051  2.81525     16.67523   5644.51547    -5.45689  1.41553  10851.84281    3e-05  55255.03911   52.5312   0.05937  18.36116  55282.82782 
    14.21608  1.46662  3.55296       0.74844         4302.30522  0.07719  0.16167     0.04104  1.68979     16.09893   5515.98995    -5.64125  0.68391  10601.97995    1e-05  55254.85475  52.43905   3.16366  18.33148  55282.82782 
    14.23066  2.05816  4.60766       0.75177         4393.02947  0.07785  0.23322     0.04638  1.22238      18.4891   5478.69959    -8.23521  1.12426   9922.40361  0.00171  55252.26079  52.32882   2.82638  18.35463     55282.02 
    14.16855  1.95425  4.33789       0.62365         4343.82049  0.04524   0.1013     0.02566  2.78677     19.54549   3274.51796    -7.06676  1.50509  11075.97816  0.01951  55253.42924  52.54764   2.18165  18.33316  55282.82782 
    14.34871  1.78482  3.93237       0.71516          4203.0453  0.00455  0.12643     0.03126  2.61267     17.87716   4549.00788    -7.81078  0.72413  10123.98699  0.00042  55252.68522  52.46109   0.21509   18.3344     55282.02 
    14.24095  1.84909  4.41906       1.08184         3961.76904  0.05922  0.11536     0.02671  2.65391      18.6631   3267.30486     -7.1808  1.01134  10059.58729  0.00256   55253.3152  52.45762   2.81395  18.34386     55282.02 
    14.33995  1.74874  4.18667       0.74208         4434.13266  0.11958  0.08975     0.01826  2.70026     16.80691   6282.33624    -7.07442   0.5332  10492.54563    4e-05  55253.42158  52.49651   5.71169  18.34816  55282.82782 
    13.93774  1.51859  3.68244       0.76951         4398.94869  0.01517  0.13616     0.02384   1.7285       17.674   5208.30495    -7.46658    1.171  10228.73236  0.00026  55253.02942  52.41137    0.6267  18.36341     55282.02 
    14.20645  1.74566   3.8562        1.0169           4022.188  0.00102  0.10294     0.02338   3.3695     17.37635   3432.19207    -7.66357  1.20161   9513.11818  0.00013  55252.83243  52.43957   0.05178  18.31984  55282.82782 
    14.24689  1.96425  4.22431         0.687         4402.25467  0.01454  0.14221     0.03511  2.09606     16.20199   6176.28133    -7.12671  1.22896  10001.41563    1e-05  55253.36929  52.42022   0.64138  18.35296     55282.02 
     14.1431  1.67747  3.81728       0.62949         4289.84342  0.01537  0.10679     0.02657  2.39598     18.84146   3699.21628    -7.17219  1.00346  10779.55491  0.00386  55253.32381  52.50393   0.70769  18.32724  55282.82782 
    14.20348  1.51346  3.11884       0.49547         4574.81551  0.17783  0.24636     0.06141  1.52686     17.80318   5147.10174      -8.065  0.91018  10092.80199  0.00035    55252.431  52.38047   7.02797  18.32382     55282.02 
    13.97331  1.39238  3.52397        0.7768          3979.8304  0.19362  0.15495      0.0368  1.86273     16.97865   6794.26292    -7.32011  1.21998  11174.97934    5e-05  55253.17589  52.49945   8.20865  18.34276     55282.02 
    14.12625  1.78684  4.24376       0.85007         4082.76524  0.07419  0.20553     0.04725   1.4114     17.35679   5727.36546    -7.56887  1.29075  10548.97984  0.00013  55252.92713  52.40619   2.84748  18.33128  55282.82782 
    14.38458  1.94913   4.3174       0.59385         4460.67913  0.05105  0.15151     0.03285  1.99322     17.95401   3885.12729      -8.063  0.64528  10547.29851   0.0005    55252.433  52.45915   2.21429  18.35455  55282.82782 
    14.16837  1.92238   4.1893       0.65729         4280.06083  0.00274  0.09114     0.01444  2.94208     18.20923   3870.81867     -9.1047  0.86581  10148.60946   0.0009   55251.3913  52.47869   0.13416  18.35373     55282.02 
    14.19587   1.6485  3.71945        0.4182         4471.85274  0.00899  0.08791     0.02164  3.41158     19.52829   4338.05956    -7.55144   0.7878   11271.8224  0.01875  55252.94456  52.58844   0.45978  18.38126     55282.02 
    14.10919  1.65084  3.84253        0.5975         4390.14017  0.03067  0.05324     0.01135  5.05676     19.17636   8064.88308    -7.97743  0.88286  11148.87093  0.00834  55252.51857  52.62474   1.74327  18.35855  55282.82782 
     14.0664  1.52385  3.72533       0.73791         4371.49703  0.01546  0.13461     0.03304  1.98217      16.9496   5681.18861    -7.26163  1.04927   10541.7104    5e-05  55253.23437  52.45788   0.66916  18.32076  55282.82782 
     14.1727  1.81865  4.27317       0.88957         3678.57174  0.00821  0.11374     0.01972  2.62662      16.1684   3491.18874    -8.48307  0.70788  11535.44998    1e-05  55252.01293  52.57516   0.38909  18.34559  55282.82782 
    14.23463  1.95134  4.32668       0.60656         4465.76444  0.00141  0.17047     0.04018  1.85587     18.22526   3076.80413    -8.81749  1.04209  10699.30291  0.00093  55251.67851  52.46112   0.05954  18.34289  55282.82782 
     14.2037  1.69319  4.11105       1.14768         3867.87956  0.24242  0.26874     0.08159  1.20071     17.09865   6896.23465    -5.25859  1.22596  10535.77449    7e-05  55255.23741  52.37781   8.73792  18.32307  55282.82782 
    14.15979  1.28464  3.30043       1.28936         3418.63325   0.0125   0.0876     0.01745  4.44716     18.16463   3129.67294    -9.57588  0.58053  10647.80507  0.00081  55250.92012  52.57036   0.68734  18.36845  55282.82782 
    14.21947  1.97303  4.31113       0.55822         4557.75409  0.06309  0.12861     0.03332  2.26699     18.68478   3869.57164    -7.25171  1.24526  10878.37704  0.00269  55253.24429  52.50424   2.85383  18.34781  55282.82782 
    14.39858   2.1477  4.20891       0.61604         4595.23242  0.00378  0.12552     0.02726  2.78732     16.98459   4599.06376    -8.73931  0.94222   9429.62945    5e-05  55251.75669  52.40789    0.1824  18.31112  55282.82782 
    14.27691  1.62972   3.7196       0.68338         4974.40163  0.06726  0.12619      0.0232  2.04151     17.07097   3005.92492    -7.18479  0.64968   9394.36655    7e-05  55253.31121  52.36206    2.9408  18.33429  55282.82782 
