 texplosion  fnickel    Pspin  log(Bfield)      Mns  thetaPB  mejecta    kappa  kappagamma      vejecta  temperature    alpha  cutoff_wavelength  log(nhhost)      A_V         MJD0  kenergy  mnickel            TSD   log(L0)  Peak_mag     Peak_MJD  log(E_rad)  log(Peak_lum)  Rise_Time    E_fold  tau_1  delta_m15     r_peak     frac 
   -8.80327  0.00887  3.40518     13.87662  1.39386  1.29849  2.16473  0.10548     0.02041   9736.92586   4078.63969  0.98539         4354.39985      17.0415    6e-05  55251.69273  1.22426   0.0192  2648984.53523   44.9257  18.34498  55282.11025    50.99954        44.5297    17.3149  22.38524   31.5    0.45785  -21.55657  0.99835 
   -7.16302  0.01601  4.45927     14.24408  2.04656  0.85292  3.03233  0.05626     0.01325   9631.93594   4415.81767  0.87611         4602.59638     16.58588    2e-05  55253.33298  1.67815  0.04854  1228007.11681  45.19214  18.34197     55282.02    50.97173       44.51228    17.3149  22.11444   32.0     0.4731  -21.55888  0.99598 
   -5.56731  0.00266  4.44799     14.27081  1.91494   0.9089  1.89102  0.10623     0.03074   9687.95386   4099.48478  1.14482         4423.49731      18.2238  0.00093  55254.92869  1.05873  0.00502  1010820.70415     45.25  18.34281     55282.02    51.02565       44.57856   16.62216  21.85541   31.5    0.49112  -21.57869  0.99954 
   -6.79094  0.06172  3.84367     14.35553  1.98683  1.17815  3.33539  0.09774     0.03356   9673.90578   4216.41707  1.06493         4358.06642     17.85048  0.00039  55253.70506  1.86199  0.20587   530157.81769  45.67311   18.3405  55282.11025    51.01562       44.57277   16.62216  21.85541   30.5    0.47072  -21.54309  0.98709 
   -6.73286  0.45064  3.72847     13.99659  1.61371  1.54551  2.20754  0.07419     0.01883  10079.42697   4179.76574  0.77729         4574.54706     16.97944    5e-05  55253.76314  1.33785  0.99481  2116066.84716  45.00808  18.33403     55282.02     50.9929       44.55209   14.70316  21.85053   32.0    0.49343  -21.56011  0.92397 
   -7.61795  0.00359  3.91863     14.15904  1.69282  0.83592  1.44528  0.15075     0.03544  10053.70403   4589.15368  0.90789         4443.76672     17.50943  0.00018  55252.87805  0.87143   0.0052  1160394.22635  45.24658  18.34086  55282.11025    50.98534       44.52201    17.3149  22.38524   31.5    0.49043  -21.56247  0.99956 
   -6.89037  0.03023   3.9269     14.14139  1.77658  1.25486  1.24199  0.17295     0.05357  10308.33224   4365.66849  0.83253         4505.40782     18.59863   0.0022  55253.60563  0.78727  0.03755  1326562.95723   45.2076  18.35598     55280.57      50.996       44.56713   14.69828  21.85541   32.0     0.4923  -21.56524  0.99704 
   -7.26552  0.01601  4.35529     14.11787  1.87745  0.91907  2.05708  0.09175     0.01825   9825.52062   4157.14208  1.12752         4276.19678     18.82003  0.00367  55253.23048  1.18465  0.03294  1921665.35894   44.9807  18.34787     55282.02    50.99194       44.55018   14.69828  21.85541   31.5    0.49387  -21.57584  0.99702 
    -7.7809  0.04836  3.84248     14.16946  1.76448   1.2317  3.45431  0.07491     0.01702   9247.25137   4371.74536  0.98169         4483.83209     17.02898    6e-05   55252.7151  1.76203  0.16704  1108500.84399   45.3015  18.34211  55282.11025     51.0449       44.61358   14.69828  19.93153   31.0    0.48215  -21.53993  0.98741 
   -9.45918  0.01455  3.39075     14.13359  1.47577  0.77424   2.3883   0.1119     0.03283  10627.54902   4106.61145  0.73027         4309.85808     17.37622  0.00013  55251.03682  1.60909  0.03476   851614.64924  45.44703  18.33989     55282.02    50.99761       44.53509   16.62704  22.11108   33.0    0.44859  -21.53003   0.9973 
   -7.77777  0.00238  4.02949      14.4209  1.71698  0.35204  1.69672  0.10258      0.0257  10428.02268   4401.42623  0.89203         4401.71869     16.37045    1e-05  55252.71823  1.10063  0.00403   372627.29762  45.72184  18.31799     55282.02    50.99831       44.56523   14.70316  21.85053   32.5    0.45866  -21.55661  0.99964 
   -7.10803  0.02064  3.85864     14.04776  1.67592  1.55756  1.68391  0.11717     0.03828  10533.98353   4368.82963  0.82402         4496.77796     19.00897  0.00567  55253.38797  1.11463  0.03475  1859574.98469  45.05082  18.35763     55282.02    51.01074       44.54448   16.62216  22.11596   32.5    0.46511  -21.56842   0.9971 
   -6.39917   0.0046  3.65755     14.40091     1.48   0.3338  1.80309  0.10135     0.02364   9880.48186   4334.92857  1.11159         4236.00966     17.45061  0.00016  55254.09683  1.05003  0.00829   290158.27796  45.85009  18.34023     55282.02    51.02401       44.59824   14.69828  19.93153   31.0    0.50022  -21.56679  0.99925 
    -7.2359  0.18269  3.58196     13.88615  1.54728  1.26496  1.30653  0.10552     0.02561  10110.93467   4233.34083  0.78793         4657.50429     16.29701    1e-05   55253.2601  0.79676   0.2387  3114050.56916  44.85685  18.34737     55280.57    51.04362       44.62214   15.39103   20.6009   32.5    0.46966  -21.55888  0.98078 
   -7.22799  0.03369  4.45597     14.25179  2.07455  1.16432  6.01053  0.04034     0.01042  10283.64984   4283.38197  0.83344          4498.1395     18.90735  0.00449  55253.26801   3.7917   0.2025  1199619.56145  45.20884  18.31956     55282.02    51.03101       44.60461   14.69828  19.93153   31.0     0.4819  -21.56114  0.98392 
   -7.60132  0.00113  4.05931     14.14069   1.8202   1.4067   1.5097  0.15825     0.03566   9311.91863   4131.57923  1.09004         4466.24029     16.78255    3e-05  55252.89468   0.7809  0.00171  1457033.75611  45.14859  18.35171     55282.02    51.05366       44.63372   14.69828  19.93153   31.0    0.48054  -21.58257  0.99986 
   -8.11377  0.00305  3.18406     14.33202  1.60961   0.7892  2.16824   0.1924     0.05183    9421.1358   4387.08127  1.23837         4206.50151     16.20359    1e-05  55252.38223    1.148  0.00662   328444.48524  45.95314  18.37428  55282.11025    51.03059       44.58714   16.62216  19.93153   30.5     0.4378  -21.53663  0.99961 
   -7.74997  0.00731  4.30543     14.12172  1.93683  1.19731  0.98883  0.18476     0.04614   9771.32292   4354.94829  0.93756         4407.33908     19.35224   0.0125  55252.74603  0.56319  0.00723  1903265.35079   45.0084  18.32355  55282.11025    51.04364       44.61409   14.69828  19.93153   32.5    0.46055   -21.5629  0.99939 
   -7.40218  0.12124  4.05375     14.45937  1.81008  0.35511  1.47467  0.10194     0.02673  10158.36542   4356.45149   0.7944         4572.06352     19.20869  0.00898  55253.09382  0.90775  0.17878   333036.10213  45.78834  18.35226     55282.02    51.00769       44.57401   14.69828  19.93153   33.0    0.46248  -21.55809  0.98541 
   -7.57308  0.02547  3.98813     14.15103  1.76877  1.16549  1.85038  0.13586     0.03521   9918.30676   4103.18211   0.9856         4371.53282     16.26397    1e-05  55252.92292  1.08584  0.04712  1303052.79133  45.20002  18.32509     55282.02    51.03798       44.60548   16.62216  19.93153   31.5    0.48314  -21.56499  0.99614 
   -6.05142  0.00276  4.16748     14.11525  1.84778  1.43981  1.71863  0.10754     0.03086  10073.18552   4356.28696  0.91285         4485.55474      16.7153    3e-05  55254.44458  1.04026  0.00474  1752737.54858  45.05203  18.34341     55282.02    51.01132       44.56871   16.62216  21.85541   31.5    0.49883  -21.56829   0.9996 
    -7.0979  0.00572  3.74232     14.02886  1.57958  1.27419  3.34014  0.06177     0.01512   9630.79187   3702.65846  1.00847         4499.51416     17.97129  0.00052   55253.3981  1.84806   0.0191  1798531.73339  45.06619  18.37484     55282.02    50.99431       44.54474   16.62704  21.85053   31.5    0.47729  -21.57139  0.99836 
   -6.43541  0.17081  4.17458     14.49858  1.82348  0.47682   1.8573  0.12794     0.04265  10663.96632   4231.95866  0.94521         4254.95427     17.46128  0.00016  55254.06059  1.25993  0.31725   297022.36165  45.81573  18.35201  55282.11025    51.00045       44.54402   16.62704  22.11108   32.0    0.47657  -21.55718  0.97347 
   -6.74216  0.01734  3.90357     14.33354  1.65913  0.50497  4.05555  0.04336     0.01218   9901.82619   4389.99174  0.95431         4461.08083     19.33222  0.01194  55253.75384  2.37196  0.07031   505298.03408  45.60225  18.35045     55282.02    51.05099       44.62807   15.39103   20.6009   32.0    0.48522  -21.56416  0.99392 
   -8.39997  0.05365  4.28108     14.26869  1.91656  0.80205  2.26717  0.10156     0.02578  10173.30851   4261.92231  0.84916         4409.79928     16.46514    2e-05  55252.09603   1.3997  0.12164   946381.14459  45.31219  18.33416     55282.02    51.03479       44.58829   15.39103  21.16266   32.5    0.47196  -21.54291  0.98987 
   -7.59068  0.01235  3.90518     14.10444  1.72926  0.78375  1.54295  0.09772     0.02315    9821.7925   4304.82734  0.84529         4568.83258     17.88806  0.00043  55252.90532  0.88789  0.01905  1513841.68381  45.14334  18.37179  55282.11025    50.99293       44.52005    17.3149  22.92765   33.0    0.45711  -21.55443  0.99843 
   -8.22907  0.00117  4.15881     14.15303  1.92408  1.14153   1.6993   0.1295     0.02554   9388.65488   4097.57496   0.8818          4506.0903     16.42126    1e-05  55252.26693  0.89352  0.00199  1527270.82977  45.13121  18.33792  55282.11025    51.00543       44.53992    17.3149  22.11444   31.5    0.48402  -21.54434  0.99984 
   -6.64368   0.0064  3.81037     14.39549  1.78613  0.65023  7.04608  0.03545     0.01043   9418.81701   3217.56564  0.98395         4609.00531     18.09286  0.00069  55253.85232  3.72879  0.04509   389661.43965  45.76814  18.34091     55282.02    51.01307       44.58433   14.69828  19.93153   31.5    0.48968  -21.56998  0.99669 
   -7.38327  0.00507  4.34313     14.34314  1.90426  0.58108  3.66678  0.04978     0.01317  10099.06652   4318.62319  0.95649         4346.12316     16.32684    1e-05  55253.11273  2.23087  0.01859   686871.80898  45.43609  18.32235  55282.11025    51.02355       44.57589   16.62216  21.85541   32.0     0.4647  -21.56015  0.99837 
   -6.88485  0.00981  4.11891     14.48127  1.78351  0.42401  4.23242  0.05392     0.01429  10158.85705   4329.02602  0.99164         4359.59431     18.95681  0.00503  55253.61115  2.60559  0.04151   306273.82259  45.80445  18.30651     55282.02    51.03469       44.60784   14.69828  19.93153   31.5    0.47695  -21.57176  0.99641 
   -7.70111  0.00885  3.80825     14.02858   1.6884  1.05715  2.32788  0.07439     0.01939  10427.61601   4155.79827  0.79716         4293.61946     19.40723  0.01419  55252.79489  1.50994  0.02061  1993379.71128  45.03528  18.36455  55282.11025    51.03044       44.57598   15.39103  23.08654   32.5    0.45769  -21.55469  0.99833 
   -7.85211  0.00292  3.66209     13.97685  1.54209  1.03887  1.40404  0.12257     0.03254   10331.0346   4423.51038   0.8477         4363.75601     17.82707  0.00037  55252.64389  0.89391   0.0041    2136374.821  44.99982  18.35037     55282.02    51.00557       44.57124   14.69828  21.85541   33.0    0.46575  -21.54529  0.99965 
   -8.20546   0.0105  3.06647     14.00916  1.27504    0.833   2.3151  0.09997     0.02081   9252.34657   4272.10705  0.96761         4494.11208     16.17584    1e-05  55252.29054  1.18223   0.0243  1067304.83334   45.3728  18.32194  55282.11025    50.98415       44.52739   18.05259  21.37676   31.5    0.47169  -21.55306  0.99807 
   -6.03122  0.00812   4.1319     14.46333  1.76128   0.4199  1.33874  0.13238     0.03869   9859.78243   4355.53751  1.06494         4369.06183     19.23559  0.00956  55254.46478  0.77635  0.01088   330584.38278  45.76309  18.29735     55282.02    51.00183       44.55353   15.39103  21.37686   32.0    0.48418  -21.57627  0.99903 
   -8.33369  0.00364  3.09386     13.76526  1.30647  1.51168  2.15842   0.0856     0.01579   9819.76184   4465.28933  0.79189         4532.56104      17.1042    7e-05  55252.16231  1.24155  0.00785  3422922.44896  44.86955  18.34079     55282.02    51.02968       44.59418   16.62216  19.93153   32.0    0.47468  -21.55028  0.99938 
   -7.53428  0.00623  3.96167     14.55252  1.78779  0.38522  4.08148  0.05986     0.01586   9959.45059   4318.12299  0.94267         4389.22394     17.44472  0.00015  55252.96172  2.41499  0.02543   204574.35314  46.01455   18.3506     55282.02    51.03218       44.58687   16.62216  19.93153   31.5    0.47712  -21.56291  0.99798 
   -5.87787  0.00378  3.06073     14.07777  1.40043  1.13498  2.38955  0.09752      0.0263   8867.54139   4433.65509  1.01899         4597.60669     18.07891  0.00067  55254.61813  1.12085  0.00904   851512.92502  45.51326  18.31099  55282.11025    51.02986       44.59012   16.62216  21.85541   31.0    0.48627  -21.55553  0.99938 
    -7.0834  0.00894  3.09735     14.35831  1.53395  0.67052  3.96055  0.08902     0.02381   8925.74991   4456.56253  1.27255         4417.77876     17.44959  0.00016   55253.4126  1.88223   0.0354   262419.38943  46.05368  18.34737     55282.02    51.01911       44.58648   16.62216  19.93153   30.0    0.46069   -21.5793  0.99785 
   -7.63339  0.00336  3.68697     14.47842  1.51453  0.25539   1.3789  0.11935     0.02901  10021.60778   4420.11417  0.94695         4417.05623     18.22826  0.00094  55252.86261   0.8261  0.00463   211153.06565  45.99119  18.34793     55282.02    51.01126       44.55604   16.62216  21.85541   32.5    0.46323  -21.54547  0.99958 
   -7.11248  0.00364  3.92566     14.69806  1.79394  0.24041  2.00632  0.09036       0.023   9459.22145   4267.52205   0.8764         4639.70008     19.64147  0.02433  55253.38352  1.07087   0.0073   103115.90895   46.3215  18.33476  55282.11025    51.02796       44.59439   16.62216  19.93153   32.0    0.47453  -21.57337  0.99943 
   -7.63887  0.00288  4.07225     14.21456  1.86743   1.2413  3.33316  0.08421     0.02272   9735.30955   4248.72563  1.06458         4298.68841     16.52564    2e-05  55252.85713  1.88444  0.00961  1070554.42808  45.29081  18.34559     55282.02    51.01952       44.58197   16.62216  19.93153   31.0      0.461  -21.55252  0.99924 
   -7.26483  0.00126  3.43417     14.27118  1.86419  1.49579  4.58873  0.08125     0.02505   9837.85529    4320.9395  0.93409         4414.77512     17.63268  0.00024  55253.23117  2.64924  0.00576   585570.69197  45.70011  18.32564     55282.02    51.04938       44.62563   15.39103   20.6009   30.0    0.46862  -21.54916  0.99968 
   -9.13393  0.01148  3.29421     14.35052   1.4193  0.39991  4.13157  0.05829      0.0102    8698.9281   4596.29089  1.10673         4401.00134      16.8186    4e-05  55251.36207  1.86498  0.04744   284674.76277  45.93107  18.33541  55282.11025    51.01234       44.57716   14.70316  21.85053   31.5    0.45476  -21.56094  0.99631 
   -8.06227  0.00188   3.8747     14.18186  1.75502   0.8468  2.23728  0.08899     0.01749   8944.46805   4458.51105  0.88489          4689.4577     16.03465    1e-05  55252.43373  1.06772   0.0042  1058900.70175  45.31179  18.32381     55282.02    51.01879       44.57938   16.62216  21.85541   31.5    0.46664  -21.53616  0.99967 
   -7.70176  0.00736  4.22375     14.23875  2.03652  1.53279  2.08772  0.13402     0.04098  10408.88271   4086.41301  0.81705         4399.48159     17.32877  0.00012  55252.79424   1.3493  0.01537   1123576.8594  45.27574  18.33381  55282.11025    51.02725       44.57526    17.3149  21.16266   32.0    0.48306  -21.55038  0.99886 
    -6.8022  0.00303  3.87936     14.74381  1.75644  0.24149  2.09061  0.10043     0.02949   9681.56456   4513.59014  0.93165         4471.59728     19.01487  0.00575   55253.6938  1.16894  0.00633    79864.97787   46.4336  18.34775     55282.02    51.00467       44.55961   16.62704  21.85053   32.0    0.49121   -21.5541   0.9995 
    -7.2281  0.08126  4.15487      14.4759  1.99153  0.64827   2.7393  0.11106     0.02674    9771.0077   4236.23423  1.09117         4328.62058     18.06888  0.00065   55253.2679  1.56007   0.2226   356708.92483   45.7786  18.36039     55282.02    51.01789       44.58508   16.62216  19.93153   30.5    0.47964  -21.57916  0.98374 
   -7.16619  0.13433  4.03396     14.01512  1.70818  1.47002  1.87406  0.09477     0.02221   9680.41895   4433.84649  0.96722         4447.39474      16.5139    2e-05  55253.32981  1.04761  0.25175  2407555.29416  44.90834  18.33485  55282.11025    50.99555       44.54077    17.3149  22.11444   32.0    0.47823  -21.54723  0.97805 
   -7.76624  0.00146  3.74623     14.46351  1.71141  0.26594  1.97816  0.08154     0.01386   9724.95149   4274.71361  0.87318         4423.97795     17.32618  0.00012  55252.72976    1.116  0.00289   263834.73288  45.93368  18.34727     55282.02    51.01518       44.56682   16.62216  21.85541   32.0    0.48343  -21.55266  0.99978 
   -7.64482  0.02601  3.89679     14.06665  1.70877  1.34075   1.4069  0.15371     0.03987  10054.32794   4135.56391  0.90444         4295.37209     17.65165  0.00025  55252.85118  0.84839   0.0366  1772629.51166   45.0715   18.3483     55282.02    51.02841       44.59421   16.62216  19.93153   32.0    0.47457  -21.54546  0.99698 
   -8.33112  0.02919  4.48112     14.22743  2.08603  0.92551  1.92589  0.10439     0.02457  10106.96015   4366.87997  0.87334         4298.69931     16.29306    1e-05  55252.16488  1.17355  0.05622  1364766.45143  45.15033  18.31839     55282.02    51.03951       44.61468   16.62216  19.93153   32.0    0.45919  -21.56405  0.99544 
   -8.61145  0.01717  3.63423     14.08415  1.57634  1.14771  4.55183  0.06193     0.01158   9042.58965   4274.60636  1.15205         4403.46651     18.87148  0.00413  55251.88455  2.22024  0.07814  1312150.61269  45.22769  18.34967     55282.02    51.01451       44.57602   16.62216  21.85541   30.5    0.46822  -21.56279  0.99371 
   -7.90535  0.00532  3.34649     14.15601    1.475  0.83279  2.05325  0.13967     0.04048  10359.52544   4282.99072  0.85025         4305.85384       16.689    3e-05  55252.59065  1.31447  0.01093   747775.29086  45.51469   18.3266     55282.02    51.01297       44.56199   16.62704  21.85053   31.5    0.47781  -21.54007  0.99917 
   -7.09061  0.00157  4.31085     14.51598  2.02287  0.54282   3.5401  0.07159     0.02265  10465.31681   4317.89282  0.89686         4255.99939     18.62532  0.00234  55253.40539  2.31285  0.00554   324308.82704  45.79473  18.34653     55282.02     51.0189       44.58119   16.62216  19.93153   31.5    0.48084  -21.55147  0.99957 
   -7.09029  0.00508  3.41163     13.93739   1.4131  1.54854    2.987  0.06754     0.01839   9963.18131   4385.13037  0.95345         4431.68698     18.93743  0.00481  55253.40571  1.76872  0.01517   2037649.7926  45.04396  18.35902  55282.11025    51.04819       44.60863   15.39103  21.16266   31.5    0.49005  -21.57038  0.99872 
   -6.42701  0.02712  3.79065     14.20867  1.70986  0.97545  1.06078  0.22087      0.0729  10144.41176   4236.72344  0.91027         4487.18506     17.06242    6e-05  55254.06899  0.65119  0.02877   872700.74309  45.40351  18.34401     55282.02    51.03868       44.59815   15.39103  21.16266   31.5    0.47713  -21.56956  0.99776 
   -8.28977  0.00146  3.96631      14.0961  1.76983  0.91381  1.90151  0.09281     0.02114   9986.16405   4206.94807  0.87298         4250.53661     18.37398  0.00131  55252.20623  1.13116  0.00277  1660798.88118  45.09969  18.32283  55282.11025    51.00752        44.5567   16.62704  22.06473   32.5    0.47846  -21.54032  0.99977 
   -7.29076   0.0034  3.99511     14.23596  1.73645  0.86236   1.1363  0.22744      0.0594    9880.2177   4123.38412  1.02249         4316.01379     16.02371    1e-05  55253.20524  0.66169  0.00386   868191.14737  45.36683  18.33001     55282.02    51.03054       44.57743   15.39103  23.08654   31.5    0.47236  -21.53843  0.99967 
   -6.55719  0.01124  4.21944     14.64919   1.7909  0.27994  2.08106  0.08843     0.02579   9784.14765   4401.49077   0.9839         4560.32259     17.19922    9e-05  55253.93881  1.18838  0.02338   148941.10179  46.09839  18.35026     55282.02    51.06121       44.64437   15.39103   20.6009   32.5    0.47667  -21.55385  0.99789 
