 log(Bfield)      Mns     Pspin  cutoff_power  cutoff_wavelength  fnickel    kappa  kappagamma   mejecta  log(nhhost)  temperature  texplosion  thetaPB     vejecta      A_V        MJD_0   log(KE)      M_Ni  Peak_mag     Peak_MJD 
    14.81787  2.02981  26.29176       2.71105         3264.42459  0.16829  0.01505     0.07567  12.89946     18.56996   6424.91477   -16.60437  1.01697  4475.47103  0.00206  56517.67563  51.92477  11.84482   22.4725  56560.38667 
    15.07909  1.62119   19.9401        3.0425         3186.83039  0.16661  0.01852     0.27994   14.4042     18.61817   6812.84069   -18.31408  1.51277  4412.99273  0.00231  56515.96592  51.92229  11.99206  22.51422     56563.21 
    15.15357  2.00451  10.17161       1.65745         3930.63465  0.11259   0.0134      0.4488  18.41435     17.59745   8282.30977   -14.21169  1.31124  3913.38448  0.00022  56520.06831  51.83885   8.50356  22.47969  56560.38667 
    15.10416  1.52745  19.67532       1.83423         3559.67534  0.18286  0.01451     0.08689  13.18747     18.15064   8608.08037   -15.57465   1.2697  4279.58673  0.00079  56518.70535  51.88786  12.92816  22.51405  56560.38667 
    15.06024   1.6401  26.60777       4.73397         3043.19454   0.4831  0.04918     0.05169    4.8086     19.13748   8150.03231   -16.05691  0.75406   4832.6618  0.00762  56518.22309  51.89305  27.10738   22.5417  56560.38667 
    14.75531  1.34577  17.41765        4.0387         3138.74858  0.15677  0.01726     0.02666  14.06105     19.54027   8798.40214   -18.09628  1.25318  4073.52235  0.01928  56516.18372  51.85066  11.22927  22.57653  56560.38667 
    15.12188  2.12854  29.98235       2.50196         3206.88875  0.17966  0.01349     0.45128  12.97636     20.10443   6273.38087   -16.86566  0.54605  4636.26808  0.07066  56517.41434  51.95596  12.65997  22.55856     56563.21 
     14.2107  1.41688   8.99753       0.70681         3776.78902  0.10014  0.02091     0.03166   10.0264     17.11063   7773.65129   -23.41357  0.63414  5144.38528    7e-05  56510.86643  52.02267   6.68343  22.58948     56563.21 
    15.08006  1.68841  14.30856       1.04894         3881.60111  0.14195  0.01201      0.0684  18.45882     20.15648   7182.64513   -16.99766    1.434  4627.01663  0.07965  56517.28234  51.98455  10.72653  22.48873  56560.38667 
      14.202  1.70731  11.75381       1.68899         3425.55627  0.15363  0.02307     0.15305   7.62144     19.48817   7630.62686   -22.76656  1.39782  4278.56093   0.0171  56511.51344  51.83599   9.64379  22.50386     56559.21 
     15.1586  1.65174  27.77884       2.10839         3344.20282  0.21021  0.02122     0.02039   11.0966     17.95623   8185.62373   -16.92855  0.63602  4935.18103   0.0005  56517.35145  51.99605  14.33709  22.51367     56563.21 
    14.51571  1.73334  13.69515       4.84372          2969.0182  0.42213  0.06588     0.13154   4.00587     20.04871   7771.64772   -18.12267  0.75027  5105.09333  0.06215  56516.15733  51.91974  22.57132  22.58244     56563.21 
     15.1059  1.10707   19.4036        1.4052         3900.38201  0.24571  0.01526     0.09898    9.3203     19.19863   8377.07286   -16.01873  0.48281  4007.96367  0.00878  56518.26127  51.79892  16.13846   22.5647     56563.21 
    14.55158  1.67101  12.91171        2.2251         3490.04955  0.23442  0.02406     0.06372   8.39843     20.42422   8975.13567   -19.12835  1.27565  3504.18959  0.14755  56515.15165  51.67217  15.04386  22.49608  56560.38667 
    15.00004   1.6047  16.11598       1.79043           3883.911  0.19864  0.01514      0.0233   11.0342     17.87904   4987.14611   -16.93745  1.45661  3426.29691  0.00042  56517.34255  51.67857  13.53175  22.48741     56559.21 
    14.64461  1.81833  10.08348       3.43986         3084.78124  0.03469  0.01065     0.36117  21.18939     17.32976   7714.74151   -20.67857  0.26163  5686.32835  0.00012  56513.60143  52.17493    2.6903  22.56338  56560.38667 
    14.72193  1.85209  25.85017       1.43603             3774.0  0.27362   0.0188     0.21889   7.79941     17.46344   7931.19651   -14.75407  0.87921  4547.28788  0.00016  56519.52593   51.8912  17.26712  22.55158      56559.2 
    14.98746  1.59196  29.90012       4.32411         3133.41265  0.24257  0.01858     0.01242    8.8675     17.25965   4756.20627   -16.55196  1.34621  3882.78598   0.0001  56517.72804  51.76657  15.75772  22.63066     56563.21 
    14.52604  1.61421  16.91333       1.86073         3588.19184  0.29795  0.02749     0.07461   6.10934     18.52925   6938.83361   -18.71893  0.95099  4162.05672  0.00188  56515.56107   51.7893  17.75011  22.57121  56560.38667 
    14.67335  1.90548   9.51903       0.79001         3817.64326  0.48331  0.04556      0.1002   6.43051     20.84156   6677.83221   -23.82877  1.12496  4167.37575  0.38574  56510.45123  51.79577  29.15063  22.55704      56559.2 
    14.57045  1.64651  23.49037       4.66412         2998.77775  0.24344  0.02321     0.03563   8.68665      18.5725   9679.82555   -16.78866   0.8423   4488.8605  0.00208  56517.49134  51.89056  15.74174  22.55049  56560.38667 
    14.15937  1.83172   9.95359       0.94272         3487.98094  0.16315  0.04166      0.0568   4.88171     16.22317   7391.79951   -21.40937  0.94792   5844.2746    1e-05  56512.87063  52.05982   9.19027   22.4591     56559.21 
    15.02036  2.14293  16.83464       1.32602         4370.42094  0.17099  0.01309     0.29899  10.96823     17.95538   9997.13461   -15.46132  0.92455  3194.49985   0.0005  56518.81868  51.61718  11.63345  22.50346  56560.38667 
    14.97962  1.75266  21.52059       1.93997         3640.84338  0.15691  0.01331     0.12145  13.66749     18.86766   9593.21329   -15.90334  1.02873  4256.28125   0.0041  56518.37666  51.88628   11.1748  22.53027      56559.2 
    14.96667  1.60764  19.07088       3.53721         3301.32566  0.23775   0.0223     0.03233   8.63894     17.49459   9912.63197   -15.65237  0.84887  3763.04945  0.00017  56518.62763  51.73683  15.35494  22.53966     56563.21 
      14.804  1.68579  21.65233       1.60563         3515.79179  0.48387  0.04658     0.14663   4.72711     19.58482   8838.82408   -18.13159  0.85352  4654.38751  0.02136  56516.14841  51.85848  27.03076  22.50999  56560.38667 
    15.07168  2.19004   21.8923       1.69694         3997.06368  0.15524  0.01095     0.06056  13.56662     17.75317   6788.19525   -15.12628  1.35554  3545.87442  0.00031  56519.15372  51.72701  11.03946  22.55545     56557.48 
    14.85082   1.3313  21.89819       3.95315         3004.70898  0.14392  0.01444     0.25845  15.41261     18.01447   9291.47315   -18.09521  0.25847  4985.52401  0.00057  56516.18479  52.03411  10.49963  22.49649  56560.38667 
    15.17126  1.58108  19.18004       3.90052         3144.32722  0.14295  0.01286     0.25852  17.75878     20.36785   6939.32014   -14.13947  0.56673  5242.54019  0.12959  56520.14053   52.0898  10.72214  22.41736  56560.38667 
    14.53275  1.76199   9.70257       4.69206         2981.39068  0.06082  0.03034     0.04644   6.95937     16.37168    8951.4654   -23.41674  0.38462  3899.15404    1e-05  56510.86326  51.74614   3.73808  22.57701  56560.38667 
    15.04875  1.55145  15.58623       2.33746         3372.32542  0.15166  0.01107     0.28978  16.48093     20.36822   8369.00459   -16.02929  0.67226  4011.46986   0.1297  56518.25071  51.85103  11.21119  22.48926      56559.2 
    14.55618  1.64467  12.29023       4.77179         2992.72302  0.44766  0.03938     0.03694   5.19373     20.78746   8154.21315   -18.93257  0.61661  4935.14422  0.34056  56515.34743  51.91982  25.61757   22.4812  56560.38667 
    14.41411  1.15548  13.04606       1.99015         3427.37306  0.18277  0.01706      0.0299  12.73986     20.29204    8900.3343   -20.11896  1.43398  4528.01185  0.10883  56514.16104  51.93379   12.8308  22.56928  56560.38667 
    14.85122  1.26415  11.03698       1.83395          3580.9083  0.11904  0.01429     0.15496  19.86615     19.60939    6880.0048   -17.47193  1.48495  4829.08834   0.0226  56516.80807  52.02774   9.12133  22.51622  56560.38667 
    15.00548   1.3749  25.32167       3.70062         3198.50653  0.33089  0.02764     0.02019   6.75688     16.07904   7829.90249   -15.03836  1.00939  4258.78857    1e-05  56519.24164  51.81975  20.19414  22.52179  56560.38667 
    14.32208  1.52335   15.3161       1.77051          3645.3882  0.15676  0.01348     0.49328  11.29181       19.549   8169.36483   -15.99026  1.41043  4333.12707  0.01967  56518.28974  51.88465   10.7312  22.59088  56560.38667 
    14.75573  1.98044  23.91525        1.8415         3623.50074  0.28578  0.02577     0.03988   7.28344     18.65101   8200.27142    -18.7508   1.4377  4067.60044  0.00249   56515.5292  51.78751  17.75146  22.55631      56559.2 
     14.3175  1.45086  16.62949       1.67708         3540.94234  0.14079  0.01381     0.08494  13.83233     18.06571    7288.9545   -17.52039   1.3131  4932.32904  0.00065  56516.75961  52.01538  10.05138  22.51963  56560.38667 
    14.96717  1.40905  14.16673       2.19273         3326.26041  0.09298  0.01064     0.12369  25.13278     18.79662   9882.92464   -17.27324  0.90331  4488.92983  0.00348  56517.00676  51.98315   7.44099  22.49742     56563.21 
    15.09875   1.6975  16.95038       2.52273         3245.27222  0.35271  0.04623     0.12806   5.79511     18.64004   9731.23446   -18.46423   0.4115  4258.83515  0.00243  56515.81577  51.80366   20.7428  22.52635  56560.38667 
    14.50952  1.71834  20.15514       4.22588          3120.7103  0.39202  0.04007     0.36277    5.2068     19.63025   8426.42006   -17.49888   1.5698   4626.3718  0.02371  56516.78112  51.86397  22.44805  22.50291  56560.38667 
    14.52047  1.68037  16.92956       2.33093         3393.92699   0.2555  0.02876     0.10963   7.27402     17.83303   8137.89376   -20.97296  1.56009   3836.1644  0.00038  56513.30704  51.73649  15.86598  22.51221  56560.38667 
    15.15513  1.42939  18.69887       1.17937         3492.66863  0.11542  0.01259     0.02157  19.72649     16.74938   7634.75008   -20.15907  0.27418  4785.58776    3e-05  56514.12093   52.0193   8.83241  22.51498  56560.38667 
    14.96782  1.55455  13.60994       2.96475         3005.92086  0.28031  0.03186     0.03725   7.02464     20.12498   9286.46267   -19.89594  0.16888  5134.31553  0.07408  56514.38406  51.98612  17.26498  22.56412  56560.38667 
    14.95639  1.40401  26.75137       2.92343         3274.48893  0.22014  0.01881     0.16023  10.40943     16.65373   8791.07665   -16.04628  1.02345  4313.01591    3e-05  56518.23372  51.87308  14.81127  22.50152  56560.38667 
    14.70076  1.76821  19.51817       2.95407         3220.23292  0.36153  0.02984     0.33457   7.10641     20.00137   7929.32088   -18.75826  0.11276  4896.15289  0.05573  56515.52174  51.94604  22.32811  22.50767     56559.21 
    14.71411  1.39972  19.75208       2.07602         3557.38038  0.26522  0.02412     0.03911   7.65312     18.38079   8526.38737   -18.19758  0.74662  4266.31413  0.00134  56516.08242  51.83391  16.66451  22.48971  56560.38667 
    14.63217  1.36422  10.66595       1.47865         3711.94124   0.2253  0.02056     0.01254  11.49534     20.59584   9884.78605   -19.55904  0.79185  4008.75524  0.21906  56514.72096   51.8187  15.48152  22.61189      56566.2 
     14.7048   1.6522  22.81928       2.77063         3300.27231  0.14176  0.01211      0.0255  15.13311     16.13818   8323.56587   -16.53043  1.10149  4072.69989    1e-05  56517.74957  51.85688  10.30459   22.5395     56563.21 
    15.08917  1.60055  16.81334       2.48698         3338.21742  0.14995  0.01472     0.04917   14.9106     17.28457   8896.59916   -16.19849  1.08728  4149.10965  0.00011  56518.08151  51.87174  10.86783   22.4549  56560.38667 
    15.13524  1.81192  27.85784       2.45475         3242.52659  0.25871  0.02636     0.01812   8.89694     18.81518   7081.18823   -16.95827  0.76499   4779.5188  0.00363  56517.32173  51.94737  16.81849  22.56624     56559.21 
    14.39333  1.90775   9.43915       2.40542         3145.04526  0.01841  0.01156     0.33759  22.55328     20.05456   7506.19874    -23.8803  0.56605  5125.30898  0.06299   56510.3997  52.08973   1.44415    22.579     56559.21 
    14.92222  1.88146  23.21697       2.17471         3476.20041  0.18716  0.01516     0.12598  10.88535     18.75503   8306.68326   -17.41124  0.51224  4131.26934  0.00316  56516.86876  51.83984  12.71325  22.47503  56560.38667 
    15.04344  1.27706  10.04764       1.98901         3674.31081  0.23213  0.02055     0.21741   9.37181     18.36421   8094.76977   -13.20729  1.37425  4337.82035  0.00129  56521.07271  51.86814  15.26534  22.58621  56563.29333 
    14.98231  1.74133  20.89649       1.28948         3562.29523  0.41537  0.04354     0.06336   5.24489     17.35692    6352.1733   -19.24844  0.51484  4620.67497  0.00013  56515.03156   51.8637  23.82839  22.47834  56560.38667 
    14.55079  1.45001  14.04121       4.59356         3105.52697  0.12752  0.01389     0.08747  16.64515     20.34352   8149.46809   -16.76267  1.51463  4070.52694  0.12253  56517.51733  51.86456   9.44503  22.52233  56560.38667 
     14.1057  1.50541  10.08043       2.76513         3124.33346  0.30102  0.03275     0.07152    5.7092     20.64554   8553.09603   -18.22459  1.49702    5069.419  0.24562  56516.05541   51.9534  17.63792  22.40803  56560.38667 
    15.10339  1.90185    27.702       1.59459         3475.78398   0.2339  0.02002     0.01453   9.95282     16.29976   8584.62203   -16.70131  1.21256  4758.91995    1e-05  56517.57869  51.95432  15.58508   22.6309     56563.21 
      14.817  1.98339  16.80169       2.14518         3215.82632  0.29153  0.04357     0.26397   6.84075     19.58994   8850.26049   -17.80761  1.32604  4617.46445  0.02161  56516.47239  51.89125  17.84397  22.56641     56563.21 
    14.37809  1.58986  17.91633       1.74768          3555.2336  0.11627  0.01102     0.03749  17.08372     19.04263   8264.43951   -16.89523  1.55347  4904.55124  0.00613  56517.38477  52.02866   8.65577  22.50048     56559.21 
    14.17417  1.72569   8.66356       0.71432         3882.82523  0.03223   0.0143     0.08858  12.59476      17.8432   7402.86835   -23.77064  0.63873  5747.60092  0.00039  56510.50936  52.13992   2.25735  22.56488  56563.29333 
    14.93136  1.70651   22.6551       2.70134         3248.05458  0.45377  0.05251     0.08792    5.1174     17.34316   7744.16347   -19.76816  1.17627  4467.70434  0.00012  56514.51184  51.83176  25.87001  22.56214     56563.21 
    14.58019  1.70215  12.36391       4.52321         2932.60173  0.19294  0.03068     0.23867   7.22572     18.78488   9262.26471   -21.06963  0.37056  4926.66366  0.00339  56513.21037  51.95313  11.96248   22.5414  56560.38667 
    15.03772  1.60228  19.66741       4.27605         3052.36493  0.16452  0.02013     0.02615  12.93052     16.46055   8213.95907    -16.8477  0.65694  4614.17248    2e-05   56517.4323  51.95149  11.58469  22.52157  56560.38667 
    14.91137  1.79927   26.8938       4.58977         3074.38039  0.24388  0.02622     0.17966   9.36385     19.39713   7401.12141   -18.77898  1.13743  4548.29721  0.01386  56515.50102  51.90922  16.03497  22.61141  56560.38667 
    15.04224  1.64238  19.31502       2.08734         3345.10686  0.21884  0.01994     0.12445   9.94208     17.08491   9476.19044   -17.91026  0.64285  3992.94462    7e-05  56516.36974  51.80179  14.57808   22.4331     56559.21 
    15.01313  1.87956  17.59016       1.61969         3750.09597   0.1706  0.01663     0.01639  12.73507     17.26896   7101.09511   -16.31079  1.45706  4140.72316   0.0001  56517.96921   51.8561  11.97524  22.58167  56560.38667 
    14.47411  1.78355  17.22737       1.22031         3817.23574  0.22875  0.01974     0.35507   8.47803     19.27826   8987.43865   -15.94359  0.72428  5300.27838  0.01054  56518.33641  52.03252   14.7117  22.61218  56560.38667 
     14.6985  1.77658  13.33391       1.19355         3578.05338  0.10803   0.0142     0.08356  12.57795     17.92848   7989.70409   -19.75955  0.35579  5142.33191  0.00047  56514.52045  52.04315    7.5641  22.51095  56560.38667 
    14.96539  1.54243  24.02931       2.65235         3411.19206  0.38876  0.03657     0.04519   5.68042     17.04158   7193.45252   -18.47408  0.68524  4269.08899    6e-05  56515.80592  51.80361  22.75056  22.54653  56560.38667 
     15.0541  2.10021  18.61801       1.94237         3363.58481  0.20828   0.0217     0.01741  10.61495     20.34054   9014.59284   -17.41988  0.62496  4609.39495  0.12169  56516.86012  51.93262  14.07197  22.55447  56560.38667 
    15.15966  1.72145  17.45248       2.00775         3386.66903  0.11906   0.0111     0.37765  18.46875     18.85476   7247.69009    -14.2526  1.00307  4720.50935  0.00398   56520.0274  52.00197   8.99778   22.6832     56559.21 
    14.63341  1.41396  12.38357       2.65064         3372.27318  0.11811  0.01527      0.0614  14.50596     19.75522   7796.05186   -20.30128  0.56098   3626.6092  0.03162  56513.97872  51.75244    8.5134  22.52116     56563.21 
    14.68332   1.4963  14.87517       2.32556         3394.17247  0.26448  0.03068     0.08838   6.74966     18.96063   7803.57298   -20.49687  0.57553  4035.25207  0.00507  56513.78313  51.77281  16.13707  22.50049  56560.38667 
    15.12291  1.98015     19.54       2.35664         3461.42567  0.36743  0.03986     0.09749   5.62038     18.11635   8931.23922   -15.92845  0.67133  4415.46777  0.00073  56518.35155  51.83175  21.44568  22.43946  56560.38667 
    15.00507  1.73809  19.57836       3.79827         3076.87858  0.13831  0.01159     0.13948  17.96383     20.37956   8060.39113   -14.20797  1.15701  4694.70511  0.13313  56520.07203   51.9949  10.39729  22.51839  56560.38667 
    14.96603  1.47269  23.99937         3.007         3270.04707  0.13664  0.01095     0.02632   16.2614     16.52759   7959.65303   -14.23649  1.36673  4126.50822    2e-05  56520.04351  51.87445  10.07472  22.56209  56560.38667 
    14.71264  1.83445  18.96493        2.5197         3172.41532  0.32073  0.03376     0.04853   6.04907     18.38713   9192.91759   -20.42939  0.54647  4678.55108  0.00135  56513.85061  51.88986    19.061  22.55638  56560.38667 
    14.71775  1.82767  23.02308        3.8952         3077.31405  0.35147  0.02968      0.1159   7.01995     20.32989    7339.5186   -18.56394  1.30204   4132.0125  0.11874  56515.71606  51.79741  21.64466  22.58549  56560.38667 
    15.16068  2.11321  25.13587       3.12924          3328.0308  0.27475  0.02389      0.1071   7.34146     17.83226   9905.39918   -15.46356  0.87873  3929.73116  0.00038  56518.81644  51.75836  17.09773   22.4674     56559.21 
    15.05315   1.9609  21.00359       1.71533         3615.73019  0.32464  0.02576     0.03935   6.66879     17.73721   8840.37401   -14.84999  1.55055  3884.09084   0.0003  56519.43001   51.7384  19.75159  22.45454  56560.38667 
    14.38619  1.44443  23.58101       4.93508         3079.31847  0.25359  0.02022     0.03894   8.07946     19.38833   9465.19461   -16.32446  1.29738  4237.56495  0.01358  56517.95554  51.83343  16.13237  22.52886  56560.38667 
    14.75839  1.80312  12.31322       3.28424         3341.92691  0.11697  0.01236     0.30594   17.9896     20.53584   8241.58506   -16.26358  1.55526  3332.29555   0.1908  56518.01642  51.69729   8.79496   22.5029  56560.38667 
    14.86848  1.66098  21.93526         4.167         3175.67579   0.1849  0.01959     0.01548   11.7837     19.15403   6194.62598   -19.20249  1.17753  4105.43498  0.00792  56515.07751  51.84166  12.77143   22.5897     56559.21 
    14.41671  1.68571  22.57529       1.40174           3728.138  0.21778   0.0142     0.06542    9.7452     18.82987   7694.05997    -16.7611  1.16714  4429.31162  0.00375   56517.5189  51.88999  14.44492  22.45272     56559.21 
