 texplosion  fnickel     Pspin  log(Bfield)      Mns  thetaPB  mejecta    kappa  kappagamma     vejecta  temperature    alpha  cutoff_wavelength  log(nhhost)      A_V         MJD0  kenergy  mnickel             TSD   log(L0)  Peak_mag     Peak_MJD  log(E_rad)  log(Peak_lum)  Rise_Time    E_fold  tau_1  delta_m15     r_peak     frac 
  -17.53876  0.49634  17.51184     14.68874  1.60787   1.3964  4.00191  0.07935     0.06509  5659.57768   7514.95545  3.72244         3148.65087     19.24853  0.00985  56516.74124  0.76465  1.98631    1919775.6987  43.70518   22.5111  56560.67092    50.45632       43.57074     27.843   70.3402   86.5    0.21495  -19.86725  0.21552 
  -22.16967  0.33224   9.46571     14.11748  1.60312  1.56264  1.75912  0.19068     0.23093   6328.8121   7759.34122  1.88888         3380.06061     17.48996  0.00017  56512.11033  0.42031  0.58445   7764715.51167  43.63138  22.60858  56560.67092    50.46107       43.57427   32.23926  68.87478   67.5    0.21762  -19.95547  0.75287 
  -19.80137  0.41026  11.48144     14.42606  1.81589   1.0533  2.00827  0.14752     0.42231  5388.54721   8522.00951  2.48387         3379.07004     18.44256  0.00154  56514.47863  0.34785  0.82391   3124470.16056  43.91317  22.49911  56560.67092    50.48568       43.59429   24.91216  60.08226   59.5    0.23299  -19.90469  0.64481 
  -19.69396  0.37347  12.80295      14.5071  1.59865  0.95866  3.55373  0.08361     0.23915  5325.26074   8544.14512  2.92481         3299.82089     18.48067  0.00168  56514.58604  0.60117  1.32723   2354984.45399  43.88599  22.45416  56560.67092    50.47059       43.60273   24.03367  53.63364   68.0    0.22274  -19.84992  0.42978 
  -16.14527  0.42838  14.25317     14.54755  1.67562  0.83241   3.3267  0.08834     0.32991  6873.50331     8223.393  2.95651         3151.59929     19.36582   0.0129  56518.13473  0.93756  1.42511   2539280.16251  43.78049  22.58972  56563.10791    50.41524       43.55843   32.23926  61.54768   69.0    0.26285  -19.94354  0.37583 
  -20.47247  0.13023   8.35483     13.94967  1.24557   1.5269  5.13869  0.04741     0.06905  5846.83447    7721.6665  3.38586         3169.22116      17.7181  0.00029  56513.80753   1.0479  0.66921  10179448.38577  43.51261  22.49964  56560.67092    50.47773       43.58458    27.9104  64.41112   76.0    0.21219  -19.88634  0.69863 
  -20.70801  0.42243  13.65099      15.0203  1.43053  0.28485  4.43343  0.07539       0.363  5896.27241    7665.6077  1.64863         3427.57445     18.29323  0.00109  56513.57199  0.91944  1.87282    225440.99724  44.80098  22.46227  56560.67092    50.49928       43.60456   25.49909  62.42616   84.5    0.21619  -19.88332   0.2858 
  -21.77325  0.21794  13.29855      14.9302  2.06146  0.28776  5.11885  0.06672      0.0718  6226.75605   7372.24767  2.12422         3299.72832     17.57808  0.00021  56512.50675  1.18392  1.11558    466868.40511  44.66622  22.56337     56563.22    50.47994       43.55112   29.37582  67.24594   74.0    0.21204  -19.94045  0.54326 
  -20.27967  0.42436  18.29165     14.91996  1.79462   1.0711  5.00739  0.07221     0.08463  6032.32946   7660.01734  1.99975         3444.88001     16.24606    1e-05  56514.00033  1.08695  2.12492    806085.39491  44.09193  22.49702  56563.10791     50.5002       43.59017   26.44498  64.41112   89.5    0.21226  -19.87477   0.2185 
  -21.43231  0.39863   9.44946     14.68039  1.14089  0.28209  3.28725  0.12396     0.49703  6800.22772   7891.72696  4.46999         2930.29156     17.33518  0.00012  56512.84769  0.90679  1.31038     412177.2212  44.76019  22.45302  56563.10791    50.43542       43.58866    27.9104  52.68775   67.5    0.22995  -19.95882  0.45612 
  -18.52949  0.40988  14.94225      14.5901  1.44776  0.83424  4.31493  0.07773     0.47134   6196.6079   7093.65589  2.84425         3240.13532     18.36111  0.00128  56515.75051  0.98835  1.76859   1982183.71436  43.78357  22.53702  56560.67092    50.49152       43.60173   26.37758  60.08226   84.5    0.23154  -19.88873  0.26366 
   -18.5344  0.31298  16.69346     14.63561  1.82693  1.11172  5.28449   0.0517     0.31245  5588.99124    7938.6264  2.51082         3380.35676     16.04477    1e-05   56515.7456  0.98468  1.65396   2531683.02733  43.68207  22.53959  56563.10791    50.43141       43.56763   29.36981  58.55545   80.0    0.23456   -19.8625  0.30318 
  -15.39431   0.4854  11.32768     14.72723   1.4482  0.90545   3.5924  0.11561     0.39671  6547.30684   8082.08509  1.96429         3445.64934     18.69314  0.00274  56518.88569  0.91862  1.74374     605992.0149  44.53892  22.51368     56563.22    50.47658       43.59361     27.843  55.68599   69.0      0.241  -19.93117  0.39214 
  -14.14875   0.4807  16.11229     15.14329   1.6103  0.61549  4.02052  0.06374     0.24568  5765.85386   8536.71882  2.07261         3850.22579      16.6175    2e-05  56520.13125  0.79733  1.93268    200653.83553  44.75899  22.53841  56563.10791    50.47428       43.56481   29.36981  61.48629   82.5    0.27357  -19.88855  0.25304 
  -18.36026  0.43089  14.25286     14.58724  1.84946  1.47845  3.40916  0.10767     0.39827  6087.15303   7735.62848  2.45331         3337.10314     18.05803  0.00063  56515.91974  0.75353  1.46897   2334442.05538   43.8599  22.49245  56560.67092    50.47408       43.56519   29.30842  62.52681   70.5    0.24262  -19.91542  0.40789 
  -18.22502  0.39291  16.81077     14.61125  1.58116  1.11441  4.61614   0.0641     0.24233  5968.76032   7885.66496  3.59088         3097.48518     16.69642    3e-05  56516.05498  0.98101  1.81374   2485821.30333  43.62118  22.52092  56563.10791    50.46726       43.59945     27.843  55.68599   82.0    0.22763  -19.86621  0.23997 
  -18.12864   0.2775  12.00103     14.29289  1.38184   1.5458  5.20924  0.05959     0.35096  6041.22894   7400.60259  3.65009         3165.69164     18.60523  0.00224  56516.15136   1.1341  1.44555   4796671.28915  43.56993  22.51132  56560.67092    50.50483       43.56305     27.843  74.52922   77.0     0.2378    -19.922   0.3859 
  -15.80499  0.44152  12.68417      14.8997  1.46417  0.65203  4.22433  0.07959     0.22365  6225.59606   8052.42739  1.57193         3597.28981     16.56867    2e-05  56518.47501  0.97667  1.86513    347158.90819  44.68738  22.48424  56560.67092    50.44297       43.58493   26.37758  58.61684   78.0    0.24403  -19.88928  0.32848 
  -16.84893  0.40334  14.78564     14.95752  1.98205  0.64467  4.42193   0.0614     0.38993  5914.63178   8724.81678  1.48056         3852.38609     20.16348  0.08095  56517.43107  0.92277  1.78355    489300.49821   44.5367   22.4778  56560.67092     50.4991       43.57881   26.37758  67.40936   69.0    0.27649  -19.99367  0.37094 
  -20.23194  0.40098  10.44373     14.24878  1.36325  1.49036  2.95404  0.10178     0.40234  5596.41123   8204.82882  2.11495          3556.8167     19.12629  0.00743  56514.04806   0.5519  1.18451   4390780.07523  43.72317  22.48981  56560.67092    50.47949       43.58586     27.843  64.47852   66.0    0.23209  -19.91173  0.49878 
  -22.37781  0.30047  12.67982     14.46522   1.6518  0.99798  4.71006  0.05737     0.13358  4464.13213   7399.11178   2.5669         3416.76406     19.35929  0.01271  56511.90219  0.55992  1.41521   2894429.33937  43.81901   22.4716  56560.67092     50.4781       43.60496   26.37758  55.68599   85.0    0.18979  -19.80665   0.4296 
  -17.21953  0.41158  17.19948     14.93317  1.93388  0.94684  4.65396  0.06491     0.47023  5387.72546   8121.26286  2.51316          3457.6044      18.7792  0.00334  56517.06047  0.80586  1.91549    722646.06641  44.22532  22.44408  56563.10791    50.53529       43.63943   26.37758  60.08226   83.5    0.22122  -19.86627  0.28165 
  -22.26896  0.44179    8.6956     14.69432  1.15741  0.21091  2.49725  0.13928     0.08221   6035.5981   7401.51456  3.57617         3066.12091     17.80044  0.00035  56512.01104  0.54266  1.10327    332090.49553  44.93248  22.50127  56563.10791    50.46836       43.56564    27.9104  60.01486   70.5    0.20879  -19.92547  0.54225 
  -19.60704  0.34346  11.42566     14.63782   1.6127  0.64475  3.59994   0.1234     0.25237  6160.58345   7830.91449  3.16169         3206.17431     17.63598  0.00024  56514.67296  0.81502  1.23642   1036318.65337  44.34514   22.5409  56563.10791    50.51256       43.60962     27.843  61.54768   63.5     0.2265  -19.94384  0.50842 
  -18.23225  0.38491  12.53247     14.63678  1.87908  1.42533  3.78433  0.12242     0.37757  6130.40261   8029.42079  3.06495         3248.68742     19.73065  0.02988  56516.04775  0.84839  1.45664   1459733.53164  44.18244  22.48979  56563.10791    50.47485       43.58981   26.37758  58.61684   63.5    0.22883  -19.96181  0.48102 
  -19.52791   0.4839  13.99881     14.48466  1.72986  1.29345  3.38964  0.10255     0.42037  6033.77826   7384.86562  3.18641         3115.80542     19.76219  0.03213  56514.75209  0.73614  1.64026   3378202.41358  43.68599  22.49184  56560.67092    50.48914       43.60537   26.37758  57.15142   78.5    0.21692  -19.94729  0.36426 
   -19.8107  0.37632  13.46696     14.66317  1.81102  0.76896  3.87651   0.0934     0.49225  6194.20654   7930.59421  1.51059         3511.38799     18.40695  0.00142   56514.4693  0.88724   1.4588   1438585.71348  44.11029  22.52465  56563.10791    50.48035       43.58273   29.30842  58.61684   68.0     0.2346  -19.93045  0.42833 
  -25.57403  0.38091    9.8276     14.39021  1.55907  0.91446  2.57036  0.19168     0.22061  6282.17174   7625.77786  1.20806         3167.31001     17.94627  0.00049  56508.70597  0.60512  0.97907   2318251.11816  44.11166  22.53621  56560.67092    50.46657       43.56791   26.37758  59.75892   61.0    0.21245  -19.89355  0.62523 
  -20.50194  0.34337  13.14943     14.66015  1.61775  0.51386  4.47407  0.08493     0.19299  6785.16575   8154.74204  2.89025         3142.24495     18.83911  0.00384  56513.77806  1.22871  1.53625   1242359.70716   44.1457   22.5246  56560.67092    50.46808       43.62495   24.91216  57.04515   70.5    0.22731  -19.97472  0.38295 
  -16.46893   0.3398  12.30086     14.83201   1.3659  0.53711  5.02595  0.07584     0.19632  6725.96836   8010.94484  1.76166          3373.7151     18.56107  0.00202  56517.81107   1.3563  1.70784     415997.7791   44.6053   22.5267  56563.10791    50.49648       43.60156   26.37758  61.54768   69.5    0.25895  -19.90304  0.33739 
  -18.29058  0.41112   13.9442     14.83862  1.62175  0.74359  4.69358  0.10293     0.03602  6628.05918   7907.00751  3.01564         3180.50088     16.66021    3e-05  56515.98942     1.23  1.92962    615667.23949   44.4007  22.51879  56560.67092    50.45878       43.59872     27.843  63.99223   64.5    0.21118  -19.94637  0.31231 
  -17.85624  0.35703  13.82856     14.53598  1.37188  0.99253  4.95464  0.06016     0.36859  5864.89552   7317.65074  2.56272          3402.1428     18.47327  0.00165  56516.42376  1.01662  1.76897   2064049.97162  43.80989  22.48869  56563.10791    50.51402       43.58763   26.37758  68.87478   83.5    0.24268  -19.90449  0.27936 
   -17.5003  0.32058  10.96168     14.51814  1.43017  1.01761  4.42228  0.09413     0.35534  6031.52647   8287.11521  2.56061         3396.84466     17.12181    7e-05   56516.7797  0.95968  1.41769   1467840.56451   44.1778  22.50472  56563.10791    50.49584       43.59125   26.37758  67.40936   63.0    0.23594   -19.9248  0.45192 
  -14.81375  0.46742   13.0131     14.83943  1.38253  1.10165  4.32251  0.08469     0.07963  6370.98079   7948.08092  3.49281         3210.66613     17.54851   0.0002  56519.46625  1.04659  2.02041    455407.42762  44.52236  22.53204  56563.10791    50.49041       43.59272   26.37758   63.0131   82.0    0.23384  -19.89515  0.28354 
  -15.18595  0.45055  15.01938     14.58644  1.57064  1.18728  3.55873  0.07787     0.14053  6085.45572   7677.03772  2.96546         3278.38669     17.38508  0.00013  56519.09405  0.78615   1.6034   2209601.90943   43.7673  22.55126  56560.67092    50.43727       43.55491    27.9104  64.41112   75.5    0.26217  -19.89077  0.30784 
  -16.15708  0.43634   12.7345     14.76524  1.76443  1.51485  3.89146  0.09563      0.4958  5812.12911   8168.49347  2.17865         3561.16621     16.84771    4e-05  56518.12292  0.78417    1.698    783249.58069  44.41158  22.57442  56563.10791    50.51443        43.6491   32.23926  60.08226   72.5    0.23716  -19.89797  0.41376 
  -19.45705  0.36611  13.18118     14.55748  1.66827  0.72091  3.74505  0.09254     0.49534  6536.46032   7896.62879  2.68866         3220.78159     16.82879    4e-05  56514.82295  0.95449  1.37109   2065512.43466  43.93618  22.50807  56560.67092    50.47442       43.56722     27.843   63.0131   71.0    0.23277  -19.93979  0.42078 
  -19.20309  0.28377   8.85807     14.18459  1.19395  0.84581  3.53691  0.07414     0.47403  5960.18499   8117.55201  1.61319         3661.04042     19.28094  0.01061  56515.07691   0.7495  1.00367   3717845.88552  43.88086  22.48965  56560.67092    50.46842       43.58392   26.37758  60.08226   67.5    0.23565  -19.93301  0.56928 
  -18.24202  0.48544  17.27075     14.87105  1.82672  0.82095  3.82782  0.08693     0.45649  6079.32173   7996.99445  2.06113         3468.26269     18.20552  0.00089  56516.03798   0.8439  1.85816    916224.24845  44.09389  22.49725  56560.67092    50.47847       43.58361     27.843  58.61684   79.0    0.23817  -19.89044  0.26798 
  -17.23311  0.39229  16.52851     14.66206  2.07674  1.29902  4.15144  0.07736     0.47323  6242.54192    8187.9008  2.87204         3276.98055     19.83698  0.03817  56517.04689  0.96505  1.62859   2497767.28729  43.75221   22.4831  56563.10791    50.48511        43.5998     27.843  58.61684   71.0     0.2464  -19.97181  0.35381 
  -17.19935  0.44343  14.93252      14.9524  1.82906  0.88395  4.33093    0.079     0.32389  5476.03504   7591.23266  2.32053         3450.27815     18.89061  0.00432  56517.08065  0.77471  1.92045    471528.80127   44.5093   22.6088  56563.10791    50.59122       43.62293   28.42392  77.08638   86.0    0.21755  -19.85201  0.32382 
  -20.96142   0.4203  10.99405      14.2407  1.19975  1.46664  3.70859   0.0938     0.49453  5933.58237   7783.71255  3.01703           3131.162     17.93677  0.00048  56513.31858  0.77888  1.55874   4444419.07836  43.61781   22.5894  56560.67092    50.48499       43.59258   26.37758  61.54768   77.0    0.21237  -19.88254   0.3607 
  -20.53926  0.15526  10.21763     14.22917  1.60324  1.23095  5.52292  0.04332     0.46251  5084.96301   7408.84611  1.88361         3651.77466     19.36543  0.01289  56513.74074  0.85187  0.85747   5409779.84331  43.72196  22.52628  56560.67092    50.47468       43.57233   26.37758  60.08226   75.5    0.22079  -19.91085  0.64341 
  -18.73171  0.49272  15.10401     14.58638  1.53856  0.97706  3.47599  0.09714     0.48441  6355.59837   7881.79213  2.84874         3243.57385     18.49509  0.00174  56515.54829  0.83756   1.7127   2189550.90616  43.75742  22.47621  56560.67092    50.49074       43.60095   26.37758  59.75892   77.5    0.23846  -19.90465  0.28438 
  -18.37447  0.47556  12.90195     14.45988   1.7603  0.89153  2.60689  0.13227     0.46144  6585.27749    7634.6607  3.48989         3121.76476     17.80836  0.00036  56515.90553  0.67437  1.23973   3272990.59494  43.77818  22.54031  56560.67092    50.44519       43.57601   29.37582  60.01486   72.0    0.22812  -19.96261  0.47461 
   -20.9128  0.36494  12.32727     14.43591  1.76675  0.86967  2.80986   0.0972     0.16088  6125.97039   8362.09516  1.78007         3513.84879     18.65462  0.00251   56513.3672  0.62902  1.02544   3348954.82232  43.80938  22.54701     56563.21    50.45513        43.5814   29.37582   62.9457   66.5    0.23707  -19.90078   0.5454 
  -21.35065   0.4316  13.16775     14.55036  1.75496  0.94174  3.38384  0.14139     0.48402  6927.14037   8093.12972  3.33231         2913.11103     18.70226   0.0028  56512.92935   0.9686  1.46046   2240696.66627  43.92371  22.48145  56563.10791    50.43258        43.5603    27.9104  68.80738   65.5     0.2156  -19.95579  0.42672 
  -20.31071  0.37127   9.89097     14.15209   1.4388  1.26575  2.46129  0.10844     0.49766  5793.94738   7973.93881  1.72706         3540.64105     18.26425  0.00102  56513.96929  0.49288  0.91381   6488045.90391  43.62426  22.54169  56563.10791    50.48495       43.56285    27.9104  67.24594   72.5    0.22378  -19.89615  0.60452 
  -20.51892  0.19093  12.61229     14.41382  2.03857  1.09065  4.89323  0.05932     0.07093  6127.86889   7767.81102  1.74964         3484.77158     19.24856  0.00985  56513.76108  1.09608  0.93426   4478099.32473  43.72549   22.5488  56560.67092    50.47774       43.58898   29.30842  60.08226   71.0     0.2227  -19.94783  0.60855 
  -17.67588  0.31496  16.61207      14.7973  1.71546  0.97724   6.1282  0.06124     0.22991  6420.89385   7322.85339   3.3828         3136.76049     17.84303  0.00039  56516.60412  1.50713  1.93012   1117993.09026  44.01394  22.53575  56560.67092    50.54977       43.64295   25.49909    65.357   82.5    0.22536  -19.92326  0.25765 
  -19.48182  0.36771  11.63364     14.42631   1.3163  1.20412  5.01715  0.07232      0.2786  6105.92271   8339.40999  2.58852         3201.55607       20.119  0.07307  56514.79818   1.1158  1.84484   2322635.75165  43.89079  22.58035  56560.67092     50.4713       43.55198   29.30842  68.87478   73.0    0.21975   -19.9656    0.331 
  -20.26856  0.39984  12.18587     14.34423   1.9601  1.28039  1.97739  0.12754     0.15614  6058.68996   8388.09354  1.45068         3621.28739     18.33257  0.00119  56514.01144  0.43299  0.79063   5538003.65311  43.64606  22.49704  56560.67092    50.51087       43.59729   26.37758  65.94394   65.5    0.23529  -19.90234  0.64935 
  -17.68289  0.28541  17.26504     14.52536  2.03196  1.35881  5.13975  0.05306     0.35738   6172.0478   7695.85832  3.28272         3208.50188     16.13278    1e-05  56516.59711  1.16796  1.46692   5004412.92831  43.40307  22.49367  56560.67092    50.50754        43.6125   24.91216  61.54768   79.5    0.24364  -19.88206  0.34548 
  -15.80233  0.36718  11.28468     14.81742  1.43894  1.21787   5.3554  0.06425     0.41056  5265.35713   8461.81945   3.5365         3287.50769     19.50217  0.01766  56518.47767  0.88568  1.96638    394461.46338   44.7259  22.57727  56563.10791    50.52584        43.6066     27.843  65.94394   84.0    0.20756  -19.83501  0.36543 
  -19.68813  0.24336  10.58087        14.26  1.63433  1.48136   3.6675  0.09066     0.26461  6191.62334   8555.28196  2.23498         3257.80494     18.49221  0.00173  56514.59187   0.8387  0.89251   5131074.92519  43.72293  22.51693  56560.67092    50.50952       43.57495   24.91216  71.80563   60.0    0.22706  -19.95367   0.6261 
  -20.48599  0.45171  11.85559      14.6204  1.77686  1.43339  3.48027  0.14032     0.14249  6712.28648     8244.648  1.16634         3555.70908     19.61991  0.02315  56513.79401  0.93537  1.57208    1332013.3073  44.24614  22.48595  56563.10791    50.57421       43.68695   29.30842  54.22057   60.5    0.23728  -19.96166  0.46916 
  -16.49019  0.48968  12.24932      14.9843  1.40681  0.48996  3.87293  0.10183     0.46491  6373.52482   7803.04692  2.76984         3265.17944     17.61283  0.00023  56517.78981  0.93848   1.8965    210704.80287  44.91718  22.44265  56563.10791    50.50404       43.59195   24.97956  64.41112   78.0    0.24064  -19.91791  0.32699 
  -20.57849  0.29682  10.75552     14.24531  1.32874  1.25731  4.60591  0.08212     0.41812  6134.95786   7610.25823  4.07008         3007.17718     19.22563  0.00934  56513.70151  1.03411  1.36711   4612025.00845  43.66513  22.53003  56563.10791     50.4854       43.60583   26.37758  55.68599   74.0    0.21101  -19.92077  0.43788 
