 log(Bfield)      Mns    Pspin  cutoff_power  cutoff_wavelength  fnickel    kappa  kappagamma   mejecta  log(nhhost)  temperature  texplosion  thetaPB     vejecta      A_V        MJD_0   log(KE)      M_Ni  Peak_mag     Peak_MJD 
    13.69826  1.87634  2.66037       2.09377         2450.75297  0.24714  0.07624     0.01004    8.3963     18.56472   9509.19589    -6.27529  1.20615  5686.11263  0.00204  55019.10271   52.0926  15.85979  18.34835    55084.257 
    13.62348  1.65488  2.29679       1.95891          2517.8263  0.01232  0.09783     0.01309   8.39103     18.09483   6414.19736    -6.65092  1.38675  5667.91326  0.00069  55018.72708  52.08976   0.79075  18.34484    55084.257 
    13.63959  1.79577  2.52593       1.93684         2439.78622  0.35568  0.11237     0.01259   7.17865     16.97701   7995.51108    -8.41161  1.45683   5946.3065    5e-05  55016.96639  52.11586  22.01911  18.30641    55084.257 
    13.60753  1.67935  2.42839        2.3483         2296.26005  0.00145  0.09902     0.01947   7.14919     17.51737   7456.93769    -7.30912  1.30884  6132.07011  0.00018  55018.06888  52.14216   0.08985  18.33187    55084.014 
    13.67015  1.65106  2.31443        1.2882         2584.17113  0.05284  0.09036     0.01247   8.36032     18.75721   6679.01944    -7.50954  0.85033  6409.11594  0.00318  55017.86846  52.19615   3.38764   18.3255    55084.014 
    13.42789  1.47623  2.02376       1.26645         2570.83443  0.07897  0.08936     0.01099   6.58839     17.63437    3460.9835    -8.62173  0.83335  6668.05211  0.00024  55016.75627  52.20657   4.79062  18.32798  55087.10276 
    13.40126  1.44666  2.08711         1.392         2807.14263  0.02745  0.07894     0.01061   7.81886     19.08289   6929.21919    -7.52898   1.4446  6091.90444  0.00672  55017.84902  52.14545   1.73298  18.33756    55084.014 
    13.54918  1.72465  2.37842       2.22138         2345.80278  0.07395  0.10045     0.01383   6.45705     16.47779   3888.61598    -7.04579   1.1726  6408.29904    2e-05  55018.33221  52.16996   4.46444  18.27595    55084.257 
    13.74764  1.52052  2.19168       1.91352          2535.7026  0.01203  0.07431     0.01142   9.83272     18.19671   6659.75673    -7.59573   0.6759   5691.2113  0.00087  55017.78227  52.10857   0.79944  18.33342    55084.257 
    13.69835  1.85103  2.67017       2.28758         2387.50652  0.22458  0.07811     0.01327   8.15125     18.58397   5240.53744     -6.6717  1.30656  5754.75718  0.00213   55018.7063  52.10012  14.31543  18.31963  55087.10276 
    13.76556  1.95897  2.70172        1.5105         2595.20791  0.00122  0.08347     0.01336    8.1702      17.3259   3630.73248    -7.67692  0.96483  5998.72914  0.00012  55017.70108  52.13641   0.07808  18.34638    55084.014 
    13.54667  1.47617  2.17747       1.76662         2548.73944  0.24082  0.08897     0.01116   8.52774     18.67469   9228.68526    -7.57861  1.25337  5730.78848  0.00263  55017.79939  52.10092  15.50771  18.34226  55087.10276 
    13.65489  1.83983  2.60009       1.79434         2628.77514  0.05473   0.0743     0.01007   8.31794     18.79403   7159.32804    -6.55894   1.1913  5654.42816  0.00346  55018.81906  52.08683   3.50469  18.31716  55087.10276 
    13.62109   1.9011  2.65703        1.3331         2833.42637  0.03984  0.06591     0.01107   9.05693     18.11469   9268.36079    -7.28298  1.49272   5966.6707  0.00072  55018.09502  52.14179   2.60057  18.32981    55084.257 
    13.61701   1.5757  2.20831       1.73691         2500.63037  0.00512  0.10078     0.01058   6.95666     16.63478    5841.0847    -6.85512  0.81477  6005.59863    2e-05  55018.52288  52.12128   0.31493  18.33009    55084.257 
    13.63898  2.06808  2.70406       1.61577         2687.15616  0.00145  0.12653     0.01299   4.78118     16.33899   8615.59669    -8.21621  1.23453  5603.52075    1e-05  55017.16179  52.02096   0.08139   18.3553    55084.257 
    13.47911  1.65031  2.23823       1.10558         2827.74163  0.00615  0.09247     0.01087   7.04939     19.52449   6766.54421    -7.89883  1.27453  6281.34768  0.01859  55017.47917  52.16162   0.37912  18.32018  55087.10276 
     13.6269   1.7412  2.47984        2.2871         2463.14955  0.00642  0.06985     0.01338   8.01958     19.01578   6637.10514    -6.43173  1.17742   5660.7456  0.00576  55018.94627   52.0842   0.40776  18.33882    55084.014 
    13.83251  1.92686  2.58673       1.65165         2541.77696  0.00457  0.07827     0.01217   9.81482     17.87111   9000.69098     -6.4158  0.89613  5919.58312  0.00041   55018.9622  52.14257   0.30343  18.34955  55087.10276 
    13.58511  1.41829    2.078       1.87739         2422.04083  0.00163  0.07082      0.0106  10.50146     17.83475   9097.47282    -8.07114  0.85518  6044.31741  0.00038  55017.30686  52.16703   0.10979  18.34233    55084.257 
     13.6781  1.66061  2.37841       2.00923         2506.05058  0.09906  0.07488     0.01011   9.63236     18.28558   7716.36894    -6.18364  1.06122   5728.8678  0.00107  55019.19436  52.11235   6.55334  18.29659  55087.10276 
    13.51492   1.7531  2.41681       2.08681         2418.22752   0.0048  0.07484     0.01133   7.49865     17.37111   7181.58168    -8.03576  1.29987  6049.65084  0.00013  55017.34224  52.13522   0.29996  18.34743    55084.014 
    13.65155   1.7504  2.50436       2.08996         2495.68224  0.00348  0.04993     0.01022  12.29952     17.14043   7341.45415    -4.96799   1.3872   5779.4227    8e-05  55020.41001  52.14259    0.2426  18.35944  55087.10276 
      13.704  1.95323   2.7139       1.69431         2633.07206   0.0047   0.0681     0.01108   9.06401     17.18113   9566.05418    -7.02818  1.19523  5700.51218    8e-05  55018.34982  52.10223   0.30665  18.31646    55084.257 
    13.54067   1.5192  2.22288       1.99476          2547.2583  0.04292  0.07343     0.01095   8.24277     18.21289   5187.56484    -7.17405  1.09012  5774.13336  0.00091  55018.20395  52.10414   2.74307  18.36962    55084.257 
    13.77493  1.97367   2.7476       1.04266         2814.70666  0.00659  0.06721     0.01241     9.611     18.61327   9723.14246    -6.60932  0.90727   6319.3414  0.00228  55018.76868  52.19734   0.43547  18.32829    55084.257 
    13.78907  2.09144  2.89514       2.16772         2513.70121  0.00129  0.05166     0.01122  10.84752     16.97722   6506.34605    -7.28935  1.26078  5149.09183    5e-05  55018.08865  52.03081   0.08763  18.33114    55084.257 
    13.65301  1.71948  2.47795       1.72632         2538.55429  0.06882  0.06554     0.01231  10.31482     16.20117   3531.45863    -7.04775  1.18083  5915.60985    1e-05  55018.33025  52.14666    4.6213  18.34986  55087.10276 
     13.6655  1.48509  2.16334       1.48202         2555.46087     0.07  0.11285     0.01446   6.47179     18.57777   3166.07398    -7.17558  0.72037  6189.59345   0.0021  55018.20242  52.14004    4.2283  18.39348    55084.014 
    14.18082  1.85703  2.48643       0.95913         3118.38764  0.00996  0.08136     0.01249  10.71556     19.12237    4221.9663    -6.50621   0.3564  6110.37637  0.00736  55018.87179  52.17835   0.67428  18.31433  55087.10276 
    13.74588  1.73037  2.37251       1.39492          2595.3566  0.04215  0.10707     0.01234   7.75151     18.39374   6939.83076    -7.75041  0.80363  6009.97105  0.00138  55017.62759  52.13283   2.65624  18.34242    55084.257 
     13.5965  1.69645  2.43696       2.02899         2380.07161  0.00526  0.08662     0.01506   6.25273     16.10723   6684.53269    -6.76974  0.98004  6248.75529    1e-05  55018.60826  52.14471   0.31533  18.34022    55084.257 
    13.68417  1.91173  2.56707       1.77713          2503.5283  0.02286  0.08823     0.01042   7.79596     17.73375   5491.47816     -7.8632  1.00276  6007.15215   0.0003   55017.5148  52.13299   1.44248  18.35558    55084.257 
    13.69097  1.74916  2.44265       2.62585         2296.24768   0.0045  0.08433     0.01393   8.44315     17.58465   3113.63746    -6.51538  1.03644  5772.11262  0.00021  55018.86262  52.10619   0.28933  18.32407    55084.014 
    13.40905  1.56264  2.10563        1.8901         2493.84202  0.01821  0.08905     0.01024    6.2715      17.7999   6120.05232    -6.77239  1.01662  6323.84115  0.00035  55018.60561   52.1554   1.09185  18.34024    55084.014 
    13.63263  1.81083  2.45846       1.60133         2582.77998  0.00378   0.0823     0.01282   6.74933     18.51628   6992.52442    -7.22672  0.88572  6209.10331  0.00182  55018.15128  52.14712   0.23092  18.35088    55084.257 
    13.70543  1.44922  2.24657       1.92611         2488.52143  0.09787  0.05916     0.01133  10.38795     16.98561   6637.61572    -6.96775  0.68001  5948.59043    5e-05  55018.41025  52.15215   6.58184  18.33619    55084.257 
    13.70486  1.50765  2.24699        2.2799         2493.40929  0.41611  0.07881     0.01043   9.59025     19.13313   8069.93482    -6.53854   0.9989  5268.56589  0.00755  55018.83946  52.03918  27.50268  18.33108  55087.10276 
    13.74586  1.98572  2.69933       1.73096         2580.64442  0.00172  0.10179       0.017   7.20001     17.48252   6130.13156    -6.09115  1.49406  5919.13396  0.00017  55019.28685  52.11218   0.10685  18.36111    55084.257 
    13.50127  1.70873  2.33355       1.54866         2553.77249  0.00102  0.06685     0.01089   7.28018      16.5758   8965.20576     -8.0673  1.00936  6239.12195    2e-05   55017.3107  52.15903   0.06363   18.3455    55084.257 
    13.62504  1.40195  2.10474       1.58263         2670.09073  0.09707  0.08113     0.01214   8.53983     18.49796   5641.10182    -7.26375  0.88249  5614.84953  0.00175  55018.11425  52.08331   6.25285  18.32992    55084.257 
     13.4671  1.57032  2.20344       1.86789         2494.11677  0.00113  0.09434     0.01102   6.66132     16.29529   5787.56436    -6.35986  1.37173    6134.415    1e-05  55019.01814  52.13525   0.06847  18.32614  55087.10276 
    13.61577  1.50614   2.1557        1.2727          2728.1343   0.1415  0.07303     0.01024   7.16982     19.08424   4709.65447     -7.9521  0.60673  6150.52686  0.00674   55017.4259  52.14506   8.75732  18.31188  55087.10276 
    13.81818    1.702  2.39872       1.60513         2601.21857  0.00176  0.07983     0.01169   7.88329     17.87407   7133.80346      -8.029  0.57728  5743.67346  0.00042    55017.349  52.09514    0.1111  18.31589  55087.10276 
    13.58068  1.49176  2.11294       2.18419         2370.27464  0.00561   0.0901     0.01022   7.63831     19.12468   6917.62027    -8.40029  0.77334  6049.21685   0.0074  55016.97771  52.13701   0.35252   18.3333    55084.257 
    13.73418  1.67455  2.37277       1.93136         2555.39594  0.04868  0.08066     0.01034   7.35662     17.87751   5655.91321    -6.54061  0.67378  5812.99862  0.00042  55018.83739  52.09864   3.03068  18.31902  55087.10276 
    13.63838  1.75817  2.44879       2.67222         2243.23035  0.19731  0.10186     0.01148   7.08922     17.42483   5411.69271    -7.67054  1.03774  5959.77831  0.00015  55017.70746  52.11655  12.17881  18.29846    55084.257 
    13.63247  1.41281  2.07452        2.1912         2431.69619   0.0018   0.1124       0.017   6.18892     16.72153    7672.6405    -5.83159  0.80556   5818.6748    3e-05  55019.54641  52.08169   0.10768  18.35245    55084.257 
    13.63552  1.95723  2.72294        1.9799         2333.56875  0.03447   0.0818      0.0148   6.74296     18.23019    3493.5447    -7.69882  1.32409  6323.17622  0.00094  55017.67918  52.16283   2.10254  18.36354    55084.257 
    13.64757  1.70903  2.46363       1.82939         2493.01957  0.00312  0.08063     0.01435   7.45698     18.60415    3312.9583    -6.53506  1.05114  5880.66452  0.00223  55018.84294  52.11006   0.19508  18.34698    55084.257 
    13.75095  2.07215  2.74347       1.79238         2505.37804  0.03352   0.0862     0.01128   7.58684     16.93348   7428.84508    -7.23938  0.89431  6157.75984    5e-05  55018.13862  52.15178   2.10206   18.3203    55084.257 
    13.55163  1.82367  2.45172       1.46652         2565.57594  0.00261  0.09629     0.01211    6.6188     17.04514   7184.00097    -6.34709   1.1756  6549.53586    6e-05  55019.03091  52.19147   0.15821  18.32545  55087.10276 
    13.77536  1.83046  2.51229       1.78355         2482.19839  0.24929  0.10448     0.01043   7.20591     16.67661   6912.46407    -7.23314  0.74063  5947.45879    3e-05  55018.14486  52.11641  15.44636  18.37613    55084.014 
    13.81786  1.95915  2.67845       1.65054         2536.96499  0.00791  0.07622      0.0121   9.84966     17.17786   6467.41381     -8.6801  0.94781  5606.21579    8e-05   55016.6979  52.09566   0.52566  18.33578    55084.257 
    13.47525  1.69182  2.33228        1.3185         2726.22136  0.00172  0.10641     0.01433   5.91325     18.03111   5352.06864    -6.48507  1.44137  6591.59996   0.0006  55018.89293  52.18521   0.10172  18.30342  55087.10276 
    13.76251  1.99314  2.74263       1.75771         2641.17342  0.14142  0.06996     0.01046   7.72774     16.14578   6468.09621     -7.0445  0.77073  5890.65702    1e-05   55018.3335   52.1151   8.90561  18.39704  55084.14632 
    13.54035  1.34841  1.96732       2.10508         2410.15759  0.02727  0.08441     0.01055   9.80062     16.70353   6513.70677    -7.79733  1.03733  5851.30887    3e-05  55017.58067  52.13236   1.81128   18.3089    55084.257 
    13.83062   1.9965  2.68572       2.44328         2405.59902  0.09532  0.07876     0.01046    9.6977     18.08137   5018.22596    -6.69356  0.94356  5664.39682  0.00067  55018.68444  52.10316    6.3155  18.30138  55087.10276 
    13.64249  1.75876   2.4668       1.45998         2483.17751  0.06403  0.07976     0.01329   9.52044     17.83752   4816.13009     -6.4818  1.29329  6215.84269  0.00038   55018.8962   52.1821   4.22549  18.33011  55087.10276 
    13.53789  1.30885  1.99817        1.8036         2471.81771  0.19046  0.08426     0.01177  10.27457     18.21628   5756.83916    -6.87631  1.03755   6184.7246  0.00091  55018.50169  52.18494  12.77805  18.32925    55084.257 
    13.53773  1.61041  2.28283       1.08868         2693.87725  0.01158  0.08763      0.0113   8.81825     18.58088   5030.45699    -7.41143   1.1941  6508.92871  0.00212  55017.96657  52.21477     0.751  18.32762    55084.257 
    13.74368  1.45847  2.12779       2.86794         2224.62274  0.02249  0.08288     0.01139   7.81754     16.19939    3648.4897    -7.83504  0.52642  5894.32666    1e-05  55017.54296  52.11679   1.42013  18.33643    55084.257 
    13.69253  1.72514  2.38581        1.8063         2475.83638  0.00488  0.09275     0.01183   8.25877      17.7807   4958.48591    -6.80056  0.92406  6002.04728  0.00034  55018.57744  52.13795   0.31229  18.32501    55084.257 
    13.57519   1.4179  2.05766       1.53343         2495.20856  0.01244  0.11349     0.01489   7.47769     18.89411    9474.2655    -7.58808  0.96552  6278.48557  0.00435  55017.78992  52.16719   0.77727  18.31903  55087.10276 
    13.65666  1.78283  2.49132       1.44857          2642.6136  0.01015  0.07281     0.01257  10.50171      17.3234   9486.58422    -6.59669  1.38418  6090.08465  0.00012  55018.78131  52.17359   0.68403  18.32708    55084.257 
    13.67531  1.57654  2.25067       1.46875         2641.97892  0.00694  0.08427     0.01009   8.83361     16.87593    8990.4883    -6.53742   0.8293  6058.51954    4e-05  55018.84058  52.15265   0.45064  18.35381    55084.014 
    13.60421  1.40527  1.98647       1.50713         2510.78047  0.00507  0.10199     0.01077   6.69657     17.78537   3178.78968    -8.79551   0.5781  6269.72976  0.00034  55016.58249  52.15475   0.30889  18.31075  55087.10276 
    13.46251  1.42171  2.01199       1.68591         2491.30741  0.00654  0.08242     0.01018   6.36568       19.066   7098.12842    -7.06473  0.77136  6294.58913  0.00647  55018.31327  52.15293   0.39323  18.35307    55084.257 
    13.61082  1.64455  2.40443       1.78952         2331.39835  0.33523  0.10455      0.0145   6.32581     17.43464   3877.70631    -8.14404  0.90354  6483.09915  0.00015  55017.23396   52.1779   20.1395  18.34503    55084.257 
    13.72732   1.6474  2.33898        1.4826         2691.78135  0.03023  0.08667      0.0116    7.4177     18.31277   4975.00329     -7.8766  0.66447   5889.2047  0.00114   55017.5014  52.11079   1.88585  18.34597    55084.257 
    13.92544  2.08408   2.6655       2.21241         2434.49319  0.01118  0.09771      0.0146   9.63796     17.38097   8572.61274    -6.66252  0.91721  5674.57953  0.00013  55018.71548  52.10413   0.73963  18.33931    55084.014 
    13.59602  1.59726  2.29246        1.6807         2650.55909  0.03061  0.07977     0.01092   8.50684     18.90007   8186.14013    -7.23015  1.10761  5685.52552  0.00441  55018.14785  52.09379   1.97029  18.31193  55087.10276 
    13.58521  1.49713  2.22742       1.71645         2543.56699  0.07118  0.08012     0.01198   8.43116     17.67294   5772.37952     -7.0375  1.12706   5752.5319  0.00026   55018.3405   52.1031   4.57173  18.37225    55084.014 
    13.56812   1.9352  2.50289       1.69808         2372.68438  0.01609  0.10413      0.0113   6.94863     16.61318    4418.0066     -7.6975  1.19153  6477.45127    2e-05   55017.6805  52.18685   0.98825  18.30228  55087.10276 
    13.72948   1.6754  2.44267       1.49679         2549.90978  0.12101   0.0765      0.0127   7.98276     17.79923   3970.36361    -7.41307  0.75467  6023.78863  0.00035  55017.96493  52.13774   7.67697  18.36499    55084.014 
    13.63078  1.78636  2.42078       1.70434         2452.13369  0.00357   0.1003     0.01325   6.45436      16.1256   5382.40524    -7.42773  0.90322   6366.6615    1e-05  55017.95027  52.16426   0.21563  18.29855  55087.10276 
    13.54416  1.63563  2.26518       1.48316         2496.00649  0.00123   0.1138     0.01419   6.29744     16.99177   6833.58065    -7.74492  1.07865  6329.51622    5e-05  55017.63308  52.15661   0.07407  18.33371    55084.257 
    13.69823  1.69268  2.34745       1.67146         2570.39054  0.00298  0.11788     0.01724   4.46288     18.15061   4621.55393    -6.83377   0.6256  6050.55825  0.00079  55018.54423  52.07983     0.164  18.33954    55084.257 
    13.53296  1.69777  2.27967       1.25839         2571.21743  0.00865  0.10465     0.01071   7.09899     18.17043   4332.99764      -7.961  1.04843   6452.7001  0.00082    55017.417  52.18571   0.53394  18.34587    55084.014 
     13.7954  1.65154  2.38073       1.57707         2731.49087  0.00708  0.06812     0.01013   8.34263     16.70481    7262.5219    -7.01673  0.61797  5625.76613    3e-05  55018.36127  52.08271   0.45375  18.36046    55084.257 
    13.62105  1.63492  2.29916       1.81351         2480.91232  0.07486    0.089     0.01096   8.76247     18.02006   3865.52465    -9.62365  1.15046  5492.10982  0.00058  55015.75435  52.06661   4.85039  18.32823    55084.014 
    13.62712  1.55134  2.24039       2.14895         2496.21535  0.18213  0.08746     0.01019   8.17196     18.50738   3160.96227    -6.95686   0.9724  5610.45086  0.00179  55018.42114  52.07831  11.61608  18.35349    55084.257 
    13.51906  1.37113  2.03868       2.17133         2452.41579   0.0013  0.08081     0.01262   9.23284     17.60828   8204.70874    -7.18392  1.37391  5488.21466  0.00023  55018.19408  52.07103    0.0851  18.41558  55081.18987 
    13.49475  1.37666  2.11377       1.79982         2548.47855   0.2551  0.06737      0.0105   8.69077     17.68242    8036.5064    -6.13717  0.96129  6019.22093  0.00027  55019.24083  52.14541  16.49724  18.35008    55084.257 
     13.5857  1.41256  2.06938       1.87136         2475.46662  0.00239  0.09239     0.01717   8.45012     17.80178   4385.38149    -6.09385  1.10838  5935.70105  0.00035  55019.28415  52.13054   0.15345  18.32115  55087.10276 
    13.61516  1.47591  2.12844       1.81146         2523.23085  0.00627  0.07949     0.01064   9.36721     16.90912    3314.5455    -7.76818   0.9322  5546.38984    5e-05  55017.60982  52.08157   0.41237  18.28589  55087.10276 
