 texplosion  fnickel    Pspin  log(Bfield)      Mns  thetaPB   mejecta    kappa  kappagamma     vejecta  temperature    alpha  cutoff_wavelength  log(nhhost)      A_V         MJD0  kenergy  mnickel             TSD   log(L0)  Peak_mag     Peak_MJD  log(E_rad)  log(Peak_lum)  Rise_Time    E_fold  tau_1  delta_m15     r_peak     frac 
   -9.02987  0.31432  2.16133     13.38124  1.60642  1.48459   6.36481   0.1054     0.01083  6514.05522   4450.63079  2.51611         2490.36061     18.05002  0.00062  55016.34813  1.61107  2.00062   12040105.5527  44.72463  18.31615  55086.10286    51.46086       44.61981   45.05438  53.09222   74.0    0.11271  -21.87295  0.94316 
   -8.65396  0.01925  1.70772     13.32861  1.08557  1.16511   6.12077  0.12613     0.02123  6436.76521   3402.60808  2.23812         2571.21771     16.62085    2e-05  55016.72404  1.51275   0.1178    6472710.4538  45.02859  18.30326  55088.57302    51.46221       44.61777   41.22157   54.9621   77.5    0.09825  -21.83496  0.99619 
   -8.69954  0.02147  2.49406     13.75056  1.86085  0.94959  10.34959  0.08627     0.01325  6569.86125   4352.05682  2.46773         2472.82646     19.07546  0.00661  55016.67846  2.66479  0.22219   3390145.10128  45.21453  18.33714  55086.10286    51.45534       44.60896   45.05438  53.09222   74.5    0.09879  -21.86721  0.99323 
   -8.32743  0.12281  2.19759     13.81181  1.57661  0.52229    9.3772  0.09356     0.01006  6471.78414   5148.35934   2.1625         2663.72073     16.24776    1e-05  55017.05057  2.34287  1.15159   1681942.59316  45.55687  18.35495  55086.10286     51.4806       44.63287   41.38305  54.80061   70.5    0.10794  -21.89886  0.96575 
   -7.93629  0.31844   2.7507     13.62394   2.0316  1.37704   7.53781  0.07956     0.01058  6282.13454   4558.81836  2.44976         2587.99023     16.60956    2e-05  55017.44171  1.77455  2.40033   8065899.01964  44.79114  18.29845  55086.10286    51.45759       44.62448   45.14744  51.03623   77.0    0.10923  -21.84525  0.92526 
   -7.92387  0.00488  2.38107     13.76029  1.76345  0.82688   8.08179  0.11758     0.01578  6755.68109   3492.09751  2.22006         2528.42587     16.44421    2e-05  55017.45413  2.20025  0.03944   2799913.10367  45.31452  18.31666  55086.10286    51.46373       44.62063   45.05438  51.21186   69.5    0.10362  -21.88598  0.99881 
   -8.33157  0.00434  2.25686     13.61575  1.63725  1.41732   6.51633   0.1414     0.02345  6367.39384   3353.26816  2.22854         2610.40192     17.51016  0.00018  55017.04643  1.57599  0.02825   4543950.97713  45.11852  18.30104  55088.57302    51.46473       44.61894    43.1845   54.9621   74.5    0.09811  -21.85283  0.99915 
   -6.76508  0.17076     1.98     14.06065  1.33786   0.2823   6.13774  0.14571     0.02462  6558.31373   4818.50511  2.25422         2587.53465     17.09668    7e-05  55018.61292  1.57478  1.04808    368349.65397  46.23567  18.31032  55091.04317    51.47227       44.61372   45.14744   54.9621   73.0    0.09977  -21.85438  0.96811 
   -7.01877  0.00223  2.05443     14.06014  1.58159   0.4161   15.9106  0.07342     0.01294  6622.62568   3693.81735  2.09007         2601.63037     19.06091  0.00639  55018.35923  4.16269  0.03555    469898.70087  46.17055   18.3365  55086.10286    51.45521       44.60848   41.22157   54.9621   71.5    0.09545  -21.87377  0.99908 
   -7.16643  0.29482  2.17923     13.54217  1.48695  1.06147   7.61578  0.09619     0.01137  6245.52772   5460.91741  2.62298         2557.48223     18.27829  0.00105  55018.21157  1.77207  2.24525   5399773.03802  45.03216  18.33415  55088.57302    51.46935       44.61915   45.05438  53.09222   74.0    0.10673  -21.85603  0.93083 
   -7.88048  0.08468  2.77018     13.85399   2.1734  1.02459   7.47198   0.1266     0.01492  6135.35086   5739.94927  2.25424         2707.89677     16.34417    1e-05  55017.49752  1.67781  0.63269   3033833.61223  45.23898  18.32689  55088.57302     51.4532       44.60996   45.14744  52.99916   72.0    0.10369  -21.87157  0.98148 
   -8.84591  0.06249  2.45083      13.5085  1.88048  1.45177   6.79391  0.09494     0.01097  6436.73346   5528.98943  2.05874         2668.10347     17.69094  0.00027  55016.53209  1.67911  0.42452  10085572.39747  44.76079   18.3292  55086.10286    51.44723       44.62311   43.09145  49.16635   74.0    0.11288  -21.86707  0.98728 
   -8.10203  0.19427   2.4157     13.90075  1.75465  0.59507   7.29064  0.12469     0.01857  6664.28149   3464.97435  1.92457         2667.74912     17.01247    6e-05  55017.27597  1.93152  1.41638   1501706.93042  45.57036  18.30146  55088.57302    51.47506       44.63351   45.05438  51.21186   72.5     0.1012   -21.8857  0.95755 
   -9.42357  0.00437  2.52395     13.61752  1.92267  1.41235     8.295  0.09478      0.0107  6370.68858   3218.46652  2.23356         2575.25514     18.11537  0.00072  55015.95443  2.00824  0.03623   6619881.69007  44.92774  18.34033  55086.10286    51.45963       44.61888   41.22157  53.08174   72.0    0.10884  -21.86586   0.9989 
    -8.3501  0.08972  2.26138     13.47109  1.72874  1.54399   7.01299  0.10963     0.01002  6683.15492   3351.20219  2.01178         2617.09939     17.89396  0.00044   55017.0279   1.8685  0.62923   9378073.34907  44.82571  18.31537  55088.57302    51.46491       44.62061   45.05438  53.09222   70.0    0.11962  -21.90065  0.98206 
    -8.9585  0.00157  1.90789     13.50221  1.38268  0.65356   7.06482   0.0964     0.01055  6773.06517   3001.93814  2.28523          2470.3192     17.34869  0.00012   55016.4195   1.9333  0.01111   4626075.98606  45.18325  18.32806  55088.57302    51.46142       44.61044   41.22157   54.9621   72.5    0.11154  -21.87228  0.99968 
   -7.46963  0.06699  2.25357      13.6899    1.686  1.37334  12.29663  0.08198      0.0113  6240.17497    3436.3569  2.60831         2540.03055     17.09192    7e-05  55017.90837  2.85632  0.82371   3315944.95122  45.26935  18.30988  55086.10286    51.46499       44.62791   45.05438  51.21186   71.0    0.10056  -21.84793  0.97698 
   -7.85415  0.07986  2.20929     13.59382  1.55048  1.43297   7.91577  0.11788     0.01995  6729.22938   4376.18482  2.05827         2567.35127     16.34739    1e-05  55017.52385  2.13821  0.63217   4561985.00402  45.11165  18.30032  55086.10286    51.46421       44.62845   43.09145  51.21186   72.5    0.10371  -21.85269  0.98053 
   -7.61731  0.02702  2.38216     13.69033  1.78284   1.5377   7.64898  0.12616     0.02004  6271.45382   4186.31203  2.48977         2562.75677     17.10037    7e-05  55017.76069   1.7946   0.2067   3910219.38311  45.17382  18.33471  55086.10286    51.45559       44.61852   41.22157  53.07935   74.5    0.09377   -21.8463  0.99394 
   -8.16138  0.05445  2.11672     13.48182  1.51461  0.97835   6.75894   0.0955     0.01061  6243.01247   4333.97885  2.54451         2551.94319     18.10228   0.0007  55017.21662  1.57143  0.36801    6851709.4733  44.96202  18.34014  55086.10286    51.45897       44.61526    43.1845  53.08174   75.0    0.11262  -21.84533  0.98872 
   -7.85189  0.05219  2.17046     13.64676  1.54057  0.70539   7.32843  0.09336     0.01081  6180.35369   5090.04491  2.48165         2587.48216       17.102    7e-05  55017.52611   1.6698  0.38248   3428314.15503  45.24834  18.32257  55088.57302    51.46164       44.61246   43.09145  54.40957   72.5    0.11437  -21.84913  0.98813 
    -7.9968  0.00137  2.42756     13.94417   1.7936  0.62358  11.67265  0.08131     0.01388  6454.98459   4263.85739  2.33023         2548.01295     16.08472    1e-05   55017.3812  2.90126  0.01599   1269209.63411   45.6487  18.35086  55086.10286    51.47327        44.6212    43.1845   54.9621   73.5    0.10301  -21.82482  0.99952 
    -7.7117  0.00344  2.29375     13.68675  1.69461  1.23468   9.75602  0.10936     0.02164  7268.98757    3015.8844   1.7434         2632.46927     16.66237    3e-05   55017.6663  3.07502   0.0336   3503268.28043  45.23235  18.31138  55088.57302    51.44964       44.60976   47.11037  51.03623   70.0    0.10338  -21.91492  0.99901 
   -7.70212  0.27286  2.49409     13.69061  1.79736  1.09624   8.95427  0.09385     0.01181  6342.10088   3508.58445  2.26423         2638.48902     18.45597  0.00159  55017.67588  2.14844  2.44326    4315744.1457   45.0946  18.29049  55086.10286    51.46459       44.62207   45.06392  53.08268   72.5     0.1018  -21.87599  0.92671 
    -7.6264  0.00897  2.47093     13.63951  1.80791  1.55142   9.13137  0.09149     0.01498  6809.32463   3487.98134  2.07985         2652.74279     17.85072  0.00039   55017.7516  2.52564  0.08192   5391257.19835  45.00861  18.29905  55088.57302    51.47019        44.6206   43.09145  54.40957   71.5     0.1088  -21.89791  0.99743 
   -8.88682  0.10387  2.55053     13.95457  1.90066  0.49087   6.44016   0.1169     0.01511  6459.81697   4164.14748  2.09891         2616.74126     18.97355  0.00523  55016.49118  1.60311  0.66892    1415293.4162  45.58364    18.327  55086.10286    51.45877       44.62104   41.22157  53.08174   72.5    0.11008  -21.86825  0.97943 
   -7.29431  0.00876  2.55731     14.01265  2.09711  0.72773   10.2855  0.11603     0.01717  6764.38132    3573.7323  1.94013         2663.36688     17.02371    6e-05  55018.08369  2.80743  0.09006   1201422.21196   45.6952  18.29909  55088.57302    51.46607       44.62259    43.1845  52.99916   67.0    0.09785  -21.89941  0.99762 
   -6.63703  0.00175  2.69956      13.8382  2.17745  1.37871  15.13315  0.07115     0.01023  6578.86058   5226.64463  2.32047         2620.22091     18.33544   0.0012  55018.74097  3.90713  0.02655   3104262.27346  45.25225  18.28395  55091.04317    51.45992         44.611   47.11037  52.35358   69.0    0.10177  -21.89786  0.99926 
   -5.96822  0.01316  1.99421     14.05394  1.50295  0.39328    6.9946  0.16156     0.02781  6424.90426   5652.81669  2.49822         2572.78061     17.25729   0.0001  55019.40978  1.72236  0.09202    432927.81542  46.20983  18.31422  55086.10286    51.45755       44.61964   45.14744   51.1188   71.5    0.09914  -21.86238  0.99757 
   -6.92039  0.00288  2.25188     14.24317   1.7732  0.31837  14.33371  0.08208     0.01262  6562.17876   3956.29055  2.07884         2661.49853     18.04229  0.00061  55018.45761  3.68198  0.04127    272474.75929  46.37719  18.31219  55088.57302    51.46032       44.62082   45.05438  51.21186   69.5      0.098   -21.8758  0.99891 
   -8.24398  0.09653  2.27848     13.71001  1.67309  0.94992   7.11491  0.13003      0.0161  6186.50265   5387.81019  2.28892         2627.15255     17.16437    8e-05  55017.13402  1.62438  0.68684    3066176.2743  45.29048   18.2899  55088.57302     51.4574       44.61808   45.14744  52.99916   72.5    0.10109  -21.85838  0.97991 
   -7.79279  0.11459  2.19714     13.57737  1.58608  1.53987   6.38985  0.15401      0.0208  6736.29987   3573.87316   2.6255         2452.45581     16.50025    2e-05  55017.58521  1.72966  0.73224   4978568.79314  45.08835  18.32988  55088.57302    51.46364       44.61067   41.22157   54.9621   70.0    0.10444  -21.89427  0.97842 
  -10.01623  0.00263  2.33304     13.63949  1.71035  1.30253   8.03164  0.11418       0.019  6169.65336   3839.80769  2.27722         2584.05493      17.5521   0.0002  55015.36177   1.8237  0.02109   4547394.39446  45.10832  18.34533  55086.10286    51.47502       44.61878    43.1845   54.9621   78.5    0.08964  -21.83081  0.99936 
    -8.9523  0.00272  2.43414     13.70467  1.86797  0.70734   6.81525  0.09768     0.01031  6228.32153   7801.37032  2.10374         2680.71045     17.08294    7e-05   55016.4257  1.57707  0.01852   4004432.48739  45.16498  18.32193  55088.57302    51.45785       44.61479   43.09145  53.09222   70.5    0.11228  -21.85473  0.99944 
   -8.62837  0.03019  2.14046     13.57182  1.68952  0.64112   6.22102  0.09679     0.01041  6552.59802    4514.2551  2.12246         2611.30341      16.6672    3e-05  55016.74963  1.59337  0.18779   5163569.89271  45.12264  18.30681  55086.10286    51.46096       44.62161    43.1845  53.08174   76.0    0.11137  -21.87151  0.99479 
   -8.09168  0.00209  2.09694     13.70539  1.53922  1.02775  10.47954  0.10108     0.02401  6537.31558   3197.78113  2.03116         2636.22873     16.93621    5e-05  55017.28632  2.67158  0.02188   2440666.20144  45.42547  18.33469  55088.57302     51.4611       44.61505   41.22157   54.9621   77.0    0.09661  -21.84369  0.99938 
   -8.13217  0.00171  2.07661     13.55138  1.49971  0.81751     9.658  0.08046     0.01031  6995.25462   5061.76188  2.24561         2531.38467     18.56789  0.00205  55017.24583  2.81917  0.01654   4739917.19471  45.13437  18.29227  55088.57302    51.46792       44.62454   45.14744  52.99916   71.5    0.11255  -21.92851   0.9995 
   -7.47305  0.01071  2.35825     13.66092  1.73017  1.45116   9.35986  0.09729     0.01764  6524.17976   5287.72781  2.65283         2439.64964     16.70402    3e-05  55017.90495  2.37656  0.10025   4258434.16939   45.1325  18.29873  55088.57302    51.46486       44.62142   45.14744  52.99916   75.0    0.09729  -21.84643  0.99697 
   -8.04397   0.0146    2.185     13.54889  1.53965  1.11791   9.98378   0.0839      0.0119  6778.39675   3391.62779  2.35241         2541.25735     18.10505  0.00071  55017.33403  2.73638  0.14577   5449448.07782  45.04101   18.3561  55086.10286    51.46115       44.61746   41.22157  53.08174   71.0    0.10593  -21.89001  0.99543 
   -8.90737  0.03704  2.51042     13.69571  1.95027  1.45968   8.70631  0.11454     0.01245  6606.24307   5334.38623  2.37685         2557.29934     17.79741  0.00035  55016.47063  2.26658   0.3225   4634305.05984  45.09346  18.31089  55088.57302    51.46677       44.62048   41.22157   54.9621   67.0    0.11147  -21.91196  0.99077 
   -7.41405  0.01079  2.21631     14.24237  1.89083  0.39658   19.1091  0.07335     0.01791  6614.16507   3577.73788  2.01976         2671.33865     18.76789  0.00326  55017.96395  4.98675  0.20617     282475.8612  46.40326   18.3404  55086.10286    51.47754       44.63466   41.22157  53.08174   73.0    0.09432  -21.87013  0.99527 
   -9.34376  0.01542  2.10195     13.49926  1.52126  1.23714   7.17073  0.12119     0.01309   6368.5345   4738.04087  1.82924         2819.36265     16.43621    2e-05  55016.03424  1.73488  0.11058   6262383.51628  45.00906  18.33163  55088.57302    51.45363       44.61849   45.05438  51.21186   71.0    0.10564  -21.90366  0.99672 
   -8.42202  0.15123  2.24557      13.6562  1.60658  1.19914  11.58983  0.08582     0.01211  6636.62382   3430.37504   2.0242         2635.42903     17.51618  0.00018  55016.95598  3.04508  1.75279   3664184.49491  45.20812  18.33232  55088.57302     51.4514       44.61161   43.09145  51.21186   70.5    0.10244  -21.87703  0.94895 
   -8.69219  0.19057  2.00075     13.54565  1.44978  1.43936   8.08727  0.13335     0.01192  6192.20763   7430.59049  2.35945         2614.58423     17.35797  0.00013  55016.68581  1.84978  1.54122    4367216.0936  45.18756  18.28886  55086.10286    51.46001       44.62469   45.14744   51.1188   66.0    0.10684   -21.8752  0.95804 
   -9.24221  0.03025  2.58312     13.99499  2.00845  0.52376   7.23072  0.13079     0.01596  6688.50082   3509.20536   2.1167         2551.91594     17.21653    9e-05  55016.13579   1.9296  0.21871   1273467.29592  45.64243  18.32834  55086.10286    51.46336       44.62232    43.1845  53.08174   70.5     0.1075  -21.90301  0.99362 
   -8.48238  0.15024  1.93534     13.51901  1.38658  1.23861    8.3547  0.12959     0.01215  6653.50741   7915.47255  2.41091         2513.72827     19.05803  0.00635  55016.89562  2.20627  1.25517    4418304.7078  45.19202   18.3249  55088.57302    51.45644       44.61808   43.09145  51.21186   60.5     0.1124  -21.90885  0.96545 
    -7.7201  0.23409  2.34518     13.66794   1.7359  1.06127   6.10347  0.15696     0.01911  6828.78717   5224.69001  2.29574         2525.92998      19.1297  0.00749   55017.6579  1.69782  1.42877   4090935.50154  45.15619  18.30023  55086.10286    51.45603        44.6256   45.05438  50.45772   69.5    0.10336  -21.92532  0.95876 
   -8.99304  0.00771  2.31796     13.48707  1.72529  1.32594   8.84414  0.08318     0.01122  7076.53028   3782.22991  1.94916         2541.30905     16.90881    5e-05  55016.38496  2.64194  0.06817   9135656.30274  44.81476  18.32287  55086.10286    51.45384       44.61708   45.05438  51.21186   73.0    0.11147  -21.90014  0.99791 
   -7.85662  0.00143  2.42638     13.70297  1.82542  1.55402   7.92137  0.13355     0.02298  6942.32355   3762.38003   2.5309         2451.31291     17.65977  0.00025  55017.52138  2.27739  0.01131   3918806.72526  45.16714  18.30037  55088.57302    51.46676       44.61636   41.22157   54.9621   72.0    0.09861  -21.88959  0.99967 
   -7.27262  0.00137  2.57807     13.80239  1.99666  1.37414   7.78434  0.13421     0.03077  6871.30426    5544.5989  2.28972         2494.66492     17.12697    7e-05  55018.10538  2.19244  0.01069   3061400.46857  45.26064   18.3347  55086.10286    51.44491       44.60543    43.1845  52.99916   74.5    0.10125  -21.86589  0.99969 
   -8.38899   0.0129  2.43062      13.7949  1.78696  0.61256   8.99598  0.07486     0.01167  6442.11507   3077.51011  2.26984         2503.35818     18.97626  0.00526  55016.98901  2.22706  0.11607   2520942.11706  45.34796  18.29639  55088.57302    51.46146       44.61191    43.1845   54.9621   77.5    0.10212  -21.84386  0.99635 
   -7.29754  0.00701  1.97588     13.94162  1.36893  0.36312   8.43022  0.10414     0.01343  6208.22303   4417.96532  2.20799         2719.53336     18.57846   0.0021  55018.08046  1.93821  0.05907    649346.62707  46.00123  18.30856  55091.04317    51.45053       44.61458   43.09145  53.09222   71.5    0.10495  -21.86111  0.99821 
   -7.00724  0.01503  2.29719     13.75671   1.7419  1.18454   6.53208   0.1644     0.03034  6549.26251   5405.50833  2.37723         2575.07637     17.42601  0.00015  55018.37076  1.67133  0.09816   2617102.64941  45.36965  18.26355  55088.57302     51.4705        44.6281    43.1845  52.99916   73.0    0.09801  -21.85232  0.99724 
    -7.6282  0.32998  2.60873     13.80873   1.9196  0.82575   7.32724   0.1224      0.0144  6648.65394   4209.59629  2.17181         2611.09703     17.64401  0.00024   55017.7498  1.93212  2.41782   2926991.66893  45.25278  18.32051  55088.57302    51.46308        44.6231   41.22157  53.08174   70.0    0.10646  -21.89666  0.92794 
   -7.68217  0.00236  2.39965     13.81872   1.9371  1.44951   9.30947  0.11914     0.02286  5995.75616   3510.01941  2.35351         2663.09865     17.79083  0.00034  55017.69583  1.99637  0.02199   2386816.24729  45.41788  18.29638  55086.10286    51.47092       44.62727   41.22157  53.08174   75.0     0.0938  -21.81454  0.99943 
   -7.50429  0.00306  2.24005      14.0465  1.69216  0.42006   6.30018  0.17368     0.02961  6903.52434   7171.84879  2.20059         2529.43497     19.23128  0.00946  55017.87371  1.79111   0.0193    636465.89791    45.993  18.33353  55086.10286    51.44708       44.61845   43.09145  50.45613   69.0    0.09891  -21.90829  0.99946 
   -8.54886  0.00124   2.0832     13.53648  1.50705  0.92012   7.54298  0.09666     0.01039   6151.5946   3305.99178  2.36756         2577.56161     19.30817   0.0113  55016.82914  1.70273  0.00939   5133950.39091  45.09906  18.32914  55088.57302    51.45896        44.6139   45.05438  53.09222   74.0    0.11258   -21.8605  0.99972 
   -7.62855  0.00461  2.02327     13.95971  1.49302  0.47447  14.11808  0.07251     0.01097  6044.17884   5685.63751   2.5812         2584.28359     17.65331  0.00025  55017.74945  3.07664  0.06512    683233.12736  45.99623  18.32923  55088.57302    51.46085       44.61912   41.22157  53.08174   73.5    0.09943  -21.82352  0.99821 
