 texplosion  fnickel    Pspin  log(Bfield)      Mns  thetaPB   mejecta    kappa  kappagamma      vejecta  temperature    alpha  cutoff_wavelength  log(nhhost)      A_V         MJD0   kenergy  mnickel           TSD   log(L0)  Peak_mag     Peak_MJD  log(E_rad)  log(Peak_lum)  Rise_Time    E_fold  tau_1  delta_m15     r_peak     frac 
   -17.8611  0.09906  0.98595     14.81497  1.58919  0.97605  16.67568  0.03134     0.29657  10006.22525   8331.39507  1.95273         3746.06743     16.13207    1e-05   56488.4159   9.95981  1.65183    3363.23908  48.95556  20.07845    56512.374    50.76979       44.18464    8.84146  26.52437   31.5    0.44051  -20.71844  0.99885 
  -16.00523  0.42458  6.59195     14.69309  1.74298  1.07041   4.68861  0.04117     0.34494   8689.80723   8670.97285   2.9123         3766.90033     20.19797  0.08764  56490.27177   2.11199  1.99071  289035.30812  45.41116  20.09005    56512.467     50.6791        44.1109   13.75012   21.6157   31.0    0.63371   -21.0412  0.68995 
  -19.24762  0.34079  2.62226     14.68569  1.73236  1.39069   4.78648  0.06572     0.12835   9118.42195   8739.24649     1.15         4282.91818     17.23932   0.0001  56487.02938   2.37401  1.63121   47034.85381  46.99771  20.06627  56509.93018    50.70749       44.07969    13.2981   25.6043   30.0    0.52505  -20.73002  0.95733 
  -12.94734  0.28489  1.83154     14.84542  1.49703  1.29131    6.5815  0.03013     0.30047   5479.01549   8372.85089   4.6549          3856.5314     20.05689  0.06333  56493.32966   1.17857  1.87503    9502.31342  47.94061   20.0746    56512.467    50.73191       44.11712   11.25271  22.34482   27.5    0.51559  -21.05666  0.99036 
   -26.2767  0.39928  2.69352     14.84698   1.9274   0.6849   4.32977  0.08275     0.10646   8403.03881   8518.27066  0.93447         4149.95793     18.52959  0.00188   56480.0003   1.82375  1.72878   26270.04376  47.27372  20.08847    56512.467    50.73544       44.18332    12.2883  21.30923   41.5    0.40182  -20.50249  0.95439 
   -13.1655  0.21263  1.52809      15.0248  1.80151  1.20686   9.97582   0.0238     0.24687   7353.66817   6871.97311  3.89821         3722.32393      18.7151  0.00288   56493.1115   3.21798  2.12116    3484.57064  48.61403  20.09489    56512.374    50.64201       44.01778   12.73459  22.63123   40.0     0.4876  -20.74746  0.99745 
  -12.34581  0.29228  2.76388     14.94841   1.7609  1.40444   7.27959   0.0383     0.20577   9070.55302   7439.27195   4.0254          3727.1192      17.9505   0.0005  56493.93119   3.57274  2.12766   15840.30758  47.43178  20.04736  56509.93018    50.72037       44.06791   13.41127  27.25943   27.5    0.54954  -21.19155  0.96923 
  -17.75471  0.34704  2.93196     14.75509  1.67474   1.2186   5.31936  0.07752     0.21249  10714.17316   7708.85912  3.11355         3342.69654     18.31642  0.00115  56488.52229   3.64254  1.84605    41294.5869  46.94258  20.10772    56511.471    50.66275       44.01627   11.33651  26.43962   31.0    0.48701  -20.91523  0.93907 
   -12.4439   0.4028    0.789     14.92906  1.54489  1.43243   5.36369  0.04754     0.21742   7275.49308   7304.94328  2.74796         4193.26372     18.15453  0.00079   56493.8331   1.69362  2.16051    1238.07927  49.57084  20.06103    56511.471    50.69376       44.05684    13.1048   25.7976   32.5    0.56902  -20.97729  0.99974 
  -21.22663  0.14528  5.21252     14.57186  1.66197   1.2924   9.35414  0.02855     0.09787   5866.83207   8510.73072  4.20359         3797.15478     20.20388  0.08884  56485.05037   1.92061  1.35894  301171.10127  45.57656  20.06325    56512.467    50.67247       44.07547   15.91462  24.75608   35.5    0.43786  -20.76657  0.82963 
  -19.14532  0.15103  1.73653     14.78604    1.655  1.25332  10.89243  0.04486     0.17051   8237.71355   7971.41551  3.98854         3687.98917     19.28373  0.01068  56487.13168   4.40926  1.64506   12413.55034  47.91438  20.06598    56509.377    50.72425       44.11683    8.84146  26.52437   40.5    0.37343  -20.53245   0.9911 
  -18.88375  0.25667  4.41521     14.53003  1.34446  1.47027   6.72906  0.03247     0.05268    6365.6967   9164.88824  3.57393         3763.94047     16.96956    5e-05  56487.39325   1.62657  1.72716  211933.91421  45.78129  20.05844    56512.374    50.84431       44.37058   12.37804   19.4512   33.5    0.49676  -20.78181  0.79829 
  -16.96325  0.07452  1.16568     15.00713  1.74615  0.93766  24.26327  0.01476     0.08057   7292.03672   8457.47536  3.52276         4014.85992     18.75499  0.00316  56489.31375   7.69616  1.80798    2132.05301  49.04897  20.07468    56509.473    50.64826        44.0115   10.52001  26.61411   31.0     0.4658  -21.01796  0.99892 
  -18.17161  0.34798  2.46084     15.00369  1.78102  0.74672   4.50148  0.08284     0.13552   7437.80961   7541.09559  4.50376         3771.90944     17.75255  0.00031  56488.10539    1.4855  1.56641    9846.30636  47.74407  20.09132    56511.471    50.73588       44.11444    9.87468  25.49114   36.0    0.41992  -20.69873  0.97788 
  -18.05618  0.14005  4.94259     14.87899  1.61863  0.74178  11.97742  0.01408     0.28423   4466.86337   8530.11001  4.80804          3839.2465     18.94095  0.00485  56488.22082   1.42559  1.67742   64104.19262   46.2832  20.07412    56509.377    50.77624       44.14189   10.60975  26.52437   34.0    0.46654  -20.77846  0.81476 
  -17.67222  0.35367  1.61283     15.06214  1.67425  0.58284   7.25324  0.06524     0.38482  13375.49994   6035.49621  2.32572         3202.46067     19.60434  0.02234  56488.60478   7.74068  2.56524    3037.63157  48.59495  20.05678  56509.93018    50.67621       44.04658    13.2981  27.37259   37.5    0.52995  -20.96344   0.9911 
  -17.55304  0.09933  1.05294     15.12482  1.76169  0.76031  26.80473  0.01247     0.02795   9363.02544   6249.33771  2.77268         3803.81178     19.30567  0.01123  56488.72396  14.01752  2.66259    1020.72092  49.46106  20.07777    56510.467     50.7104       44.11906    9.78802   25.5778   46.5     0.4575  -20.85405  0.99916 
  -15.16349  0.11512  1.49495     14.86119  1.50404  1.04912  18.15289  0.01706      0.0344   8013.79594   7914.37037  3.33917         3759.04684     18.21525  0.00091  56491.11351   6.95424   2.0898    5914.94626   48.3249  20.13899     56511.37     50.6971       44.02785   12.37804  28.29266   35.0    0.48485  -20.82786  0.99444 
  -18.15492  0.41384  4.72766     14.78124  1.73678  1.18947   4.98773  0.04217     0.07891   7664.92755   8003.78134  2.31557         4014.50546      18.2287  0.00094  56488.12208   1.74802  2.06411   98712.84367  46.16492  20.05439    56509.473    50.73297       44.08491    9.87468  25.49114   36.5    0.57708  -20.83677  0.81559 
  -21.14134  0.10118  0.85038     14.90372  1.53743  0.68052  18.67472   0.0258     0.32639  10080.79712   8583.65875  1.19669         4621.11436     16.07037    1e-05  56485.13566  11.32064   1.8895    1608.41298  49.39002  20.09235    56511.471    50.67589       44.05103   11.33651  24.02931   40.0    0.42196  -20.50618  0.99916 
  -15.38032  0.47978   0.8077     15.17192  1.89516  0.62954   5.49502  0.08324     0.40098  14412.44275   6160.24131  4.33712         2475.26918     19.77441  0.03305  56490.89668   6.80881  2.63641     520.13239  50.01588   20.0882    56510.375    50.65509       44.03371   14.78929  26.52127   26.5    0.55354  -21.54387  0.99968 
  -14.79513  0.18277  2.62143     14.74554  1.51798   1.1834  10.85373  0.01828     0.10022   7061.25331   8440.53506  1.92018         4772.28586     18.39586  0.00138  56491.48187   3.22827   1.9837   31266.37604  47.11796  20.07027    56509.377     50.7331       44.11293   10.60975  26.52437   31.0    0.59447  -20.98962  0.94726 
  -13.90383  0.26741  2.02565      14.8946  1.70269  1.19894   7.89893  0.04728     0.15109   9949.32308    7432.7273  4.85278         3296.38191     18.59626  0.00219  56492.37317   4.66426  2.11226   10540.71806  47.86398  20.09157    56511.471    50.77003       44.23406   10.60975  22.98779   29.0     0.5703  -21.13186  0.98654 
  -15.49716  0.14084  2.46826     14.92356  1.60847  1.04079  15.40484  0.01565     0.23271   7613.03327   7695.61249  3.45921         3840.33804     18.22784  0.00094  56490.77984   5.32598  2.16958   12938.59574  47.57859  20.07316  56509.93018    50.63848       44.02306    12.2883  24.84582   33.5    0.54924   -20.9412  0.97082 
  -13.63022  0.21199  1.24409     14.86203  1.57786  1.51363  11.15649  0.01763     0.11013   7572.72233   7908.44261  1.93713         4142.48623     18.94346  0.00488  56492.64678   3.81644  2.36506    4280.92013  48.64567  20.02579    56509.473    50.69667       44.01906   16.64138   27.5659   42.0    0.57965  -20.77487  0.99769 
  -21.82635  0.09541  4.74876     14.70608  1.73647  1.04545  16.29276  0.01489      0.0708   5170.09773   9066.49962  3.10811         4119.85229     18.25656    0.001  56484.45065   2.59788  1.55443  140763.12106  46.00686  20.08716    56510.467    50.67834        44.0538   13.75012  23.38399   40.5     0.3941  -20.60098  0.84802 
  -27.00682  0.11211  2.13084     14.91071  2.02491  1.25288  21.10546  0.01884     0.13696   6374.13905   7020.96512  2.90921         4341.66284     16.72586    3e-05  56479.27018   5.11523  2.36612   12879.38687  47.80825  20.08322     56511.37    50.71091       44.05602   11.25271   25.8814   77.0    0.26239  -20.33674  0.98409 
  -15.94378   0.2276  1.83841     14.82519  1.65602  1.34442   8.35702  0.03924     0.28021   7768.53426   7841.76485   2.7434         3924.93911     16.79841    3e-05  56490.33322   3.00855  1.90204   11624.59892  47.89365  20.09899    56512.374     50.6377       44.08245   11.98183   21.6157   31.0    0.47822  -21.00068  0.98962 
  -18.77777  0.11562  2.83343     14.76653  1.57072  1.21888  17.82266  0.01531     0.30581   5726.18107   7349.23411  4.41663         3796.94077     17.79026  0.00034  56487.49923   3.48602  2.06073   34313.92031  47.02485  20.10124    56509.377    50.71531       44.06233   10.60975  30.06095   47.5    0.38227  -20.65331  0.93709 
  -14.69031  0.24543  1.21789     14.85833  1.55909  1.54972   9.48332   0.0236      0.1357   6871.65878   8399.87695  2.50255         4263.28558     19.97527  0.05248  56491.58669   2.67123  2.32748    4123.30027  48.67525  20.09803    56509.473    50.70667       44.01541   14.14633  30.57062   40.5    0.50927  -20.81542  0.99788 
  -20.12959  0.32368   2.0501     14.94699  1.82673  0.86941   6.87221  0.04774      0.1108   8509.38235   7769.03197  1.99404          3983.0817     17.02711    6e-05  56486.14741   2.96838  2.22439    9100.49728   47.9479  20.08286    56512.467    50.75536        44.1913    8.84146  22.98779   50.0    0.42121  -20.58034  0.98335 
  -17.93605  0.22483  7.15637     14.93004   1.8835  0.61911   9.19032  0.01572     0.02993    6493.0388    8602.8937  2.97185         3653.91679     18.93038  0.00473  56488.34095   2.31129  2.06622   123621.6211  45.74233  20.06637    56510.467    50.62306       44.02263   13.75012  23.38399   38.5    0.60111  -20.85343  0.67136 
  -13.39712  0.30737  2.98066     14.69372  1.27354  1.23654    6.1598   0.0346     0.09394   6424.80285   9626.53351  4.84118         3702.65582      18.2209  0.00092  56492.87988   1.51675  1.89332   43053.07668  46.79123  20.05988     56511.37    50.68534       44.04299   10.21354  23.38399   29.5    0.54316  -20.90361  0.91011 
  -17.13222   0.4927  0.93821      14.8132  1.59014  1.49143   4.34775  0.05391     0.04144   4868.68301   7303.15501  2.98775         4431.02274     20.33373   0.1198  56489.14478   0.61477  2.14211    3072.21079  49.03823  20.03314    56509.377    50.78655       44.19024   10.60975  24.90724   39.0    0.35004   -20.8963  0.99914 
  -23.09695  0.17976  5.07491     14.55333  1.61254  1.54399   8.92031  0.02399     0.12307    4574.0563   9061.56411  2.92051         4151.24943     17.93753  0.00048  56483.18005   1.11329  1.60353  301665.69328  45.58597  20.10265    56510.467    50.71753       44.04759    13.2981  30.00931   45.0    0.36874  -20.54255  0.80657 
  -21.61267  0.11314    1.486     14.77376  1.50698  1.00172  19.84452  0.01813     0.10637   6247.74145   9096.66443  2.76967         4429.48559     20.19458  0.08696  56484.66433   4.62076  2.24513    8758.62059  48.16048  20.12965  56509.93018    50.67955        44.0483   14.14397  26.52673   56.5    0.30874  -20.52008  0.99108 
  -20.10309  0.14173   4.6202      14.6836  1.90678  1.55842  10.78089  0.01564     0.01226   4975.01622   8723.08542  2.03891         4736.43354     18.61576  0.00229  56486.17391   1.59174    1.528  162270.23245  46.00958  20.06975    56510.467    50.70694       44.04716   12.37804  27.16424   36.0    0.48769  -20.80297  0.87408 
  -15.48246  0.23615  4.13496     15.04602   1.5837  0.54361   8.22428  0.02059     0.30465   5972.73042    8910.6474   4.2141         3659.36206     18.56754  0.00205  56490.79454   1.75013  1.94219   20342.15945  46.92718  20.06482    56509.473     50.7996       44.21644   10.60975  22.98779   31.5    0.56185  -20.87695  0.85322 
  -19.48768  0.23055  6.40084     14.73326  1.76157  0.76771   5.79578  0.05096     0.11379   8577.77234   8777.93669   2.4871          4089.3501     18.96332  0.00511  56486.78932   2.54383  1.33622  228908.33697  45.54261  20.05255    56512.374    50.70315       44.08574   11.25271  24.11311   30.0    0.53351  -20.90668  0.78071 
  -18.87406  0.08184   0.7317     14.97835  1.96337  1.38289  31.68689   0.0203      0.1006  14843.12227    7137.5243  1.55372         3593.92193     18.25666    0.001  56487.40294  41.64447   2.5932    1078.43507  49.80038  20.07991    56512.467    50.64415       44.03693    8.84146  24.75608   48.0    0.44949  -20.69001  0.99981 
   -22.7641  0.15557  2.15388     14.82555  1.78529  1.09482  13.60129  0.02772     0.13783   7365.82186   6711.53767  2.40208         3982.96779     18.49846  0.00175   56483.5129     4.402  2.11602   17173.69244  47.61925  20.07306    56509.473    50.85211       44.30243   10.60975  24.75608   61.0     0.3387  -20.42968  0.97689 
  -13.58972  0.22977   0.7045     14.97625  1.62802  1.30979   9.21418  0.03755      0.1411   9076.16099   7153.13589    4.506         3562.92923     18.22783  0.00094  56492.68728   4.52781  2.11718     837.01819    49.862  20.07007    56510.467    50.79313       44.13827    9.87468  25.49114   39.5    0.47872  -20.72358  0.99986 
  -17.19126  0.21982  1.37246     14.91165  1.81044  1.17422   8.62805  0.07078     0.43146  11947.54614    8026.5893  2.53537         3795.78192     18.12017  0.00073  56489.08574   7.34679  1.89662     4756.6311  48.57433  20.11941    56513.466    50.65225       43.99446   13.48162  26.28921   31.5    0.45579  -20.87533  0.99746 
  -12.64688  0.08689  0.74057     14.86507    1.468  1.33166  23.04894  0.01886     0.08076  10291.93364   7793.97204  4.38337         3501.30268     17.65141  0.00025  56493.63012  14.56371  2.00269    1391.63841  49.55291  20.07666  56512.39907    50.84232       44.28955    8.84146  21.96854   36.0    0.46947  -20.72702  0.99974 
  -19.94043  0.38454  4.46103     14.90284  2.00397  1.03528   5.42056  0.06827      0.0932   8928.25228   7724.55004  3.46785         3718.97152     19.68149  0.02668  56486.33657   2.57753  2.08441   57930.07976  46.50896  20.10448    56511.471    50.70705       44.03947   10.58089   27.7933   40.5    0.44413  -20.74818    0.865 
  -12.56675  0.48899  1.10903     14.94378  1.88823  1.25391   4.74209  0.02997     0.29167   4688.65959   9858.43086  2.27042         4562.29534     20.31141   0.1138  56493.71025   0.62186  2.31883    2793.75591  49.00883  20.06858  56509.93018    50.71733       44.10414   10.60975  26.52437   34.0    0.55723  -20.97195  0.99891 
  -19.48375  0.29378  3.71565     14.75336  1.73153  1.32641    6.1871   0.0576       0.168   7716.98535   8638.80967  2.83622         4080.91697     18.23009  0.00094  56486.79325   2.19791  1.81765   69119.40632  46.52761  20.10067    56508.476    50.76016       44.15542   10.60975   24.9058   37.5    0.43335  -20.70333  0.89768 
  -19.26739  0.32188  4.54221     14.87958  1.42501  0.46105   5.28558  0.03565     0.11504   5648.74947   9905.78406  2.41181         4428.44537     17.36154  0.00013  56487.00961   1.00606   1.7013   47534.87607  46.43112  20.08646    56510.375    50.76327       44.13833   10.60975  28.29266   33.0    0.50328  -20.82563  0.80447 
   -20.9049  0.34171  5.20042     15.13937  2.06247  0.41936    5.2635  0.04859     0.14869   7194.10686   8443.07103  1.84105         4419.72818     18.40757  0.00142   56485.3721   1.62501  1.79856   27260.56746  46.71562  20.06421     56511.37    50.69963       44.02789    9.48442   25.8814   38.5    0.47124  -20.75573  0.83921 
  -18.44955  0.09242  1.46153      14.8601  1.74363  1.08597  19.85846   0.0176     0.03574   8290.22004   7702.17101  2.01595         3877.63443     17.66769  0.00026  56487.82745   8.14151  1.83532    6587.04714    48.362  20.07994  56509.93018    50.69294       44.04887   10.52001  26.61411   39.0     0.4422  -20.59116  0.99572 
  -16.37242  0.29491  1.91379     14.98846  2.07174  1.28844   7.31597  0.07183     0.45539  13340.77149   8185.21759  2.24652           3653.222     17.36051  0.00013  56489.90458   7.76714  2.15755    7430.41224  48.15038  20.07851     56511.37    50.84852       44.30504    8.84146  23.74042   26.0     0.5123   -21.3452  0.99309 
  -15.80669  0.17312   2.4706     14.70216  1.36565  1.26869  10.30432  0.02825     0.44212   7130.04215   8455.40474  3.62594          3934.4647     17.37171  0.00013  56490.47031   3.12486  1.78387   30509.31311  47.13415  20.06038    56510.467     50.7077       44.08626    12.2883  24.84582   32.5    0.47534   -20.8322  0.95418 
  -13.64745  0.46555  1.45398     15.02383  1.82513  1.29547   4.63271  0.07334     0.28469   8951.09964   7510.00605   4.1773         3769.36865     19.44037  0.01531  56492.62955   2.21419  2.15678    3210.38143  48.69847  20.07395    56513.369    50.63179       44.02262   13.48162   23.6525   37.0    0.50427  -20.79649  0.99798 
  -19.54755  0.18584  5.17848     14.68874  1.82601  1.30767   7.46931  0.03865     0.11719   6500.30608   9162.36785  2.68094         4193.65435     17.86577  0.00041  56486.72945   1.88267  1.38806  190649.95603  45.82171  20.07915    56509.377    50.73565       44.12348   12.37804  28.29266   33.0    0.44404  -20.75426  0.84931 
  -15.34923   0.1663  1.80463     15.07147  1.67411  0.76477  13.83144  0.02455     0.15883   9329.72205   6387.96939  3.32311         3864.58966     19.05348  0.00628  56490.92777   7.18178  2.30016    3642.79382  48.41842  20.09532    56512.467    50.85983       44.38212   10.60975  21.21949   26.0    0.55618   -21.5187  0.99228 
  -13.20342  0.32947   0.9802     15.09475  1.89026  1.07763     7.151  0.06126     0.20192  12136.15241   6985.77081  4.87349         3363.02112     19.62266   0.0233  56493.07358   6.28284  2.35601    1090.09327  49.52528  20.06792    56512.374    50.75214        44.2538    8.84146  22.98779   39.5    0.53548  -20.79759  0.99961 
  -15.91837  0.29991  1.70108     14.92779   1.7093  1.08267   6.54139  0.06698     0.07433  10030.98572   7669.65804  3.82756         3708.04754     18.26542  0.00102  56490.35863   3.92631  1.96184    6404.93699   48.2337  20.07885    56512.374    50.63692       44.01167   14.46492  24.43748   28.5    0.51919  -21.18561  0.99383 
  -16.99973  0.09171  2.53207     14.57973  1.24087  1.38611  18.10004  0.01554      0.0692   5743.96853   9781.34929  3.75888          4048.6465     19.11416  0.00723  56489.27727    3.5623  1.65999    51172.8853  46.84658  20.06705    56510.467    50.76165       44.11939   12.37804  26.52437   32.5    0.43158  -20.87817  0.93685 
