 texplosion  fnickel    Pspin  log(Bfield)      Mns  thetaPB   mejecta    kappa  kappagamma      vejecta  temperature    alpha  cutoff_wavelength  log(nhhost)      A_V         MJD0   kenergy   mnickel            TSD   log(L0)  Peak_mag     Peak_MJD  log(E_rad)  log(Peak_lum)  Rise_Time    E_fold  tau_1  delta_m15     r_peak     frac 
  -12.70899  0.10757  1.06126     14.34629  1.85176  0.67008  49.63361  0.02666     0.18551   8366.07238   5947.43907  1.36644         2820.49321     17.06038    6e-05  59708.67933   20.7227   5.33933    39307.12277  47.89031  19.71615  59765.28127     51.5375       44.77575   21.84948  44.13127   60.5    0.13822  -21.93272  0.97422 
  -18.78947  0.21102   2.5108     13.65683  1.74716  1.05038  10.91162  0.04672      0.0635   7783.99814   6242.86578  2.66736         2604.15229     18.37143  0.00131  59702.59885   3.94386   2.30254  4967128.42667  45.01545   19.6036  59764.56121    51.71383       45.01057   25.40939  35.10901  112.5    0.11625  -22.01562  0.92639 
  -17.59377  0.14014  1.52252     14.02935  1.61443  0.54672  20.49445  0.02751     0.03739   6989.65379   5861.47741  0.42674         3700.09105     19.60632  0.02244  59703.79456   5.97276   2.87214   303563.59435  46.62949  19.65986  59765.40854    51.61847       44.73815   33.18943  54.42208   88.0    0.15149  -21.97987  0.96222 
  -22.50133  0.09326  1.73838     13.73948  1.64004  1.09939  18.82013  0.02827     0.02611   6647.34131   4942.46901  0.40065         5995.82202      17.5009  0.00018  59698.88699   4.96073   1.75521  1527589.84578   45.8194  19.65884  59761.40878    51.70127       44.98708   25.33949  34.65177   89.5     0.1369   -22.0701  0.97016 
  -17.98103  0.47643  0.74205     13.90349  1.38359  1.10287  28.21508  0.02849     0.42442   6685.70538   3967.12861  0.46148         4419.66829     20.02012  0.05819  59703.40729   7.52321  13.44264   110335.90004  47.62626  19.63232  59765.40854    51.70244       44.98711   21.35944  37.37901  104.0    0.12854  -21.98768  0.95104 
  -16.16836  0.38796  1.37587     13.91759  1.66632  1.28047  30.57368  0.01457     0.02559   5779.57178   5400.07151  0.63505         4591.60264     19.00328   0.0056  59705.21996   6.09209  11.86135   428111.04405   46.5819  19.62624  59765.40854    51.70375        44.9497   21.39882  41.42523  114.0    0.15482  -21.96389  0.88877 
  -14.77133  0.12843  0.81486     14.08226  1.83616  1.22866  50.01811  0.02111     0.03096     9131.394   3664.43027  0.06318         4988.82148      16.7579    3e-05    59706.617  24.87875    6.4239    77512.61531  47.82122  19.60531  59767.30234    51.77108       45.05416   17.50591  38.22681   61.0     0.1776  -22.04009  0.98181 
  -20.23038  0.30687   2.6684     13.67434  2.00844  1.20498  11.95788  0.03205     0.16611   6279.41346   6737.00699  1.63589         2951.15218     16.42431    1e-05  59701.15794   2.81267   3.66957  5949710.60173  44.94471  19.58961  59763.37103    51.76914       45.14608    18.1829  30.70986  142.0    0.08919  -21.92648  0.89551 
  -15.80448  0.14755  0.80373     14.05682  1.81925  0.98279  42.45322  0.01462     0.16857   7972.79208   5532.17547  0.27698         2324.43542     20.18521   0.0851  59705.58384  16.09751   6.26398    83998.98273  47.79425  19.60772  59767.30234    51.65041       44.90243   19.43179  39.95361   79.0    0.19444  -21.97168  0.98167 
   -20.5926  0.14337  1.88157     13.84665  1.80421  1.06962  24.91053  0.01654      0.0924   6462.00301   6234.40113  0.48149         5143.64209     19.18223  0.00845  59700.79572   6.20504   3.57149  1201805.84093  45.89626  19.63757  59764.56121    51.70818       44.98026   22.34474  37.54324   97.0    0.14335  -22.00806  0.94038 
  -20.24027  0.12422  2.04565     13.75582  1.66561   0.8208  10.87685  0.03504     0.10015   8430.10925   5543.25582  0.12277         4037.29266     17.91194  0.00045  59701.14805   4.61102   1.35107  1992564.01198  45.56935  19.67999  59763.37103    51.70183       44.99397   20.96096  35.74679  103.5    0.10342  -21.95953  0.96853 
  -16.05483  0.19585  1.20563     14.44218  2.14891  0.57801  55.15037  0.01546     0.10819   7487.65821   5431.65907  0.50984          3590.6643     17.33574  0.00012  59705.33349  18.44453  10.80129    37854.11982  47.86052  19.69489  59765.28127    51.63764       44.94558   24.91934  35.50034   89.5    0.14877  -21.94672  0.94594 
  -19.33786  0.32693  1.37395     13.72283  1.63507  1.42634  13.69133  0.02787     0.06308   7667.89358   6769.70075  0.00183         5342.30836     19.23261  0.00949  59702.05046   4.80203   4.47608  1027144.50841  46.19481  19.60694  59767.30234    51.65946        44.9604   20.41351  38.52855  104.0    0.13142  -21.90247  0.95342 
  -18.73987  0.12669  1.31307     13.84827  1.53831  0.84754  20.55388  0.02803     0.20736   7723.23344   6677.20218  0.06971         5122.08231     19.39026  0.01365  59702.64845    7.3134   2.60402   495335.39889  46.52442  19.60717  59763.37103     51.6703       44.97336   26.69929  37.37901   83.5    0.15717  -21.95436  0.97239 
  -13.37457  0.10997  0.70066     14.15438  1.87281  1.28046  62.12513  0.02578      0.0205  10560.55203   7263.55064  0.19792         4656.03394     17.57691  0.00021  59708.01375  41.33022   6.83177    41933.41463  48.22776   19.6898  59761.82008    51.61445       44.85217    27.9521  39.15896   51.5    0.17359  -22.20705  0.98839 
  -16.68481  0.16253  1.99256     14.16643  1.57289  0.25864  12.76746  0.01943     0.43581   6676.39189   4600.10228  0.64821          4859.2998     16.69616    3e-05  59704.70351   3.39481   2.07511   269452.45304  46.43624  19.64779  59765.28127    51.72113       45.03228   23.13939  33.81911  116.5    0.11638   -22.0529  0.95083 
  -14.04458   0.1357   1.5887      13.9398  1.28668   0.3412   3.96961  0.04276     0.34309   9343.09321   5762.64995  0.14974         2957.27929     19.86916   0.0411  59707.34374   2.06708   0.53869   397891.44656  46.37647  19.63009  59761.82008    51.86113       45.21048    15.9007  31.13208   98.0    0.07964  -21.98706  0.98867 
  -19.75527  0.30953  1.85032     13.81647  1.68104  1.10846  16.18308  0.02713     0.08417   7399.29383   5805.53619  0.35012         4881.23531     18.26328  0.00102  59701.63305   5.28529    5.0091  1244389.41493  45.86497  19.62034  59768.37114    51.68335       44.95229     19.181   41.3374   98.0    0.14514  -21.98975  0.91277 
  -14.55519  0.23705  2.77959     13.66625  1.85887  1.17585   9.09478  0.04429     0.06955   9647.76494   6754.99831  2.45248         2614.05641     18.72665  0.00296  59706.83313   5.04979   2.15591  6201844.53787  44.85761  19.60731  59759.07896    51.64027        44.8981   23.57628  37.69607   99.0    0.12838  -22.05285  0.92279 
  -21.51947  0.36725  2.59227     13.77855  1.83897   0.8993   13.2742  0.03401     0.20808   6837.73953   7037.56674  1.14046         3394.19167     17.68648  0.00027  59699.86885   3.70221   4.87496  3181680.55136   45.2034     19.66  59767.30234     51.6754       44.97674   23.13939  35.59906  120.5    0.10618  -21.96925  0.85878 
  -17.27041   0.2063  2.84983     13.73731  1.75621  0.86795  10.32648  0.04408     0.07552   8925.95874   5463.78719   2.9934         2818.28107     17.70612  0.00028  59704.11791   4.90783   2.13031    4440249.108  44.95638  19.63233  59765.40854    51.79109       45.01728   23.13939  42.84136  102.5    0.13521  -22.00677  0.91346 
  -22.26469  0.10216  2.18484     14.01049  2.03112  0.71656  19.95809  0.02512     0.02617   6701.31027    4631.0457   0.4326         5882.62405      17.8792  0.00042  59699.12363   5.34645   2.03894   857846.53864  45.96433  19.63319  59763.37103    51.53186       44.75286   28.81475  42.38337   90.0    0.13096  -22.05526  0.96057 
  -18.87999  0.39002  1.93723     14.01701  1.58026  0.51125  10.91897  0.03704     0.02687   7956.91418   4260.86548  0.37171         5645.58581     18.04538  0.00062  59702.50833   4.12381   4.25865   509200.54191  46.18632  19.69661  59768.37114    51.69818        44.9077   22.74091  43.11735   81.0     0.1571   -22.0734  0.91065 
  -16.22457  0.27359  0.83681     14.15908  1.86455  1.18585  51.44883  0.02237     0.15964  10139.53808   4470.18194  0.06848         4640.21743     19.30633  0.01125  59705.16375  31.55288  14.07591    58274.57156  47.92869   19.6097  59764.56121    51.73284       44.99869   17.74225   38.9364   83.5    0.15866  -22.12714  0.96187 
  -22.24291  0.17609  2.17584     13.70104  1.85919  1.20761  16.65717  0.02101      0.1044    6443.6978   5047.01272  0.50989         5839.86743     17.14112    8e-05  59699.14541   4.12571   2.93309  3238265.81837   45.3526  19.70495  59764.56121    51.75141       45.07962   22.76039  33.74893  117.0     0.1028  -22.09881  0.93653 
  -14.83288  0.40709  0.84782     13.88058  1.49465  1.06068   19.3357  0.04218     0.02207   9340.70181   6069.60802  0.10066         5771.89084      20.4025  0.14036  59706.55544  10.06343   7.87133   172898.62521  47.34899  19.68653  59767.30234    51.59657       44.88831   20.01503   41.3374   67.5    0.18519   -22.2189  0.96486 
  -16.53401  0.16855  1.31013     14.13549  1.76296   0.6286  32.64879   0.0162      0.4462   6273.50332   5022.42494  0.44106         4688.80579     18.87801   0.0042  59704.85431   7.66504   5.50308   150557.09126  47.10275  19.62839  59759.32671    51.61039       44.71525   31.14951  58.59679   86.5    0.16082  -21.93718  0.95388 
  -18.07259  0.15872  1.51633      14.0431  1.81013  0.72218   23.2643  0.01993     0.26497   7067.48325   3077.48908  0.28114         4271.72401     18.61321  0.00228  59703.31573   6.93181   3.69261   316892.03726  46.66406   19.6527  59764.56121    51.84122       45.17288   18.30331  34.31205   90.0    0.16423  -21.91434  0.95968 
  -16.98859  0.07927  2.08452     14.05728  1.85552  0.58793  20.76084  0.02027     0.12842   6143.43761   4478.96595  0.76523         3772.69797     17.28666  0.00011  59704.39973   4.67407   1.64567   575074.19279  46.13957  19.64454  59765.40854    51.67791       44.98958   21.35944  35.50034   94.5    0.15211  -21.91457  0.96667 
  -15.18617  0.09874  1.95417     13.82472  1.31573  0.58683  11.66898  0.04199     0.11133    8230.1446    5774.2074  1.29082         3157.82303     19.38965  0.01363  59706.20215   4.71493   1.15221  1045835.35614  45.78663  19.68696  59770.04347    51.83135       45.12234   23.79169  38.22681   84.5    0.16873  -22.03708  0.96541 
   -16.7644  0.28987  1.17154     13.93212  1.58665  0.86767  15.48511  0.03768     0.06121   6638.48303   5408.21867   0.5041          4702.5793     20.10068  0.07005  59704.62392    4.0708   4.48872   276422.27612  46.89024  19.70921  59761.30669    51.62538       44.70529    28.1492  66.80572   77.0    0.16821  -22.08389  0.96436 
  -14.08598  0.26321  1.18761     14.04434  1.75022  0.94781  28.82077  0.03336     0.12303   8299.65891    6235.3003  0.78194         2389.65236     20.05054  0.06241  59707.30234  11.84277   7.58592   186887.18279  47.09101  19.65173  59763.37103    51.69963       45.02983   24.65077  33.59799   76.5    0.14809  -22.04268  0.94794 
   -14.6934  0.25758  0.96186      14.0898  1.66899   0.9563  50.05051  0.01171     0.09326   6518.97217    4600.0423  0.48017          4789.7924      18.1876  0.00086  59706.69492  12.68802  12.89196    94819.73792  47.54818  19.70448  59761.30669    51.80317       45.16881   20.23179  27.82694  107.5    0.15204  -21.95223  0.94042 
  -19.72792  0.12061  1.40075     13.78018  1.52131  0.81752  16.41092  0.02683     0.13376   6445.36653   6089.61051  0.28838         5839.49781     19.96447  0.05119   59701.6604   4.06682   1.97934   762781.55361  46.27594  19.70523  59765.40854    51.83352        45.1497   23.88804  33.85094   99.0    0.13436  -22.01374  0.97552 
  -13.13701  0.15634  1.47182     14.22299  1.43902  0.33292  14.03827  0.03331     0.03732   7692.47727   6532.08316  0.53536         3909.12741     19.76851   0.0326  59708.25131   4.95534   2.19472   103658.82021   47.0756  19.58483  59767.30234    51.74563         45.085    18.1829  36.04972   74.0    0.19762  -22.00992  0.96782 
  -17.93821  0.27069  1.04608     13.78885  1.42353  1.35428  28.10027  0.02609     0.07642   7604.47993   5360.76314  0.16765         5649.57299     19.27363  0.01043  59703.45011   9.69341   7.60659    382486.1607  46.80047  19.65394  59765.40854    51.77051       45.08033   24.39219  33.81911   86.5    0.14885  -22.00062  0.94469 
  -21.57059  0.24266  2.69006     13.74047  1.79966  0.88087  12.17343  0.03856     0.12891   7590.04945   5686.54372  1.78874         2963.94649     17.78721  0.00034  59699.81773    4.1834   2.95397  3995597.47339  45.06293  19.61918  59763.37103    51.55131       44.74532   31.20338  43.55465  118.0    0.10954  -21.95982  0.89918 
  -20.49203  0.15338  2.22005     13.93217  1.71666  0.53732  12.94345  0.03221     0.10574   7856.70489   3207.63982   0.5198         3567.05636     18.53173  0.00189  59700.89629   4.76604   1.98525  1073716.52175  45.77991  19.66274  59765.28127    51.73032       45.07264   21.35944  33.81911  108.0    0.11648  -21.98192  0.94883 
  -19.59065  0.20584  2.34912     13.80971  1.67827  0.79182   14.8232  0.03332     0.20476   7628.76419   6097.21104  1.01967         3359.60214     17.93062  0.00047  59701.79768   5.14609   3.05118  2065733.69046  45.43682  19.66723  59761.40878    51.50184       44.59956    36.7103  70.08688  104.0    0.12728  -22.01065  0.91245 
  -23.27089  0.16604  2.53092     13.74736  1.79349    0.768    11.293    0.047     0.10403   8045.79354   4396.43957  2.14616         2573.85328     18.44159  0.00154  59698.11744   4.36088   1.87507  3414617.56859  45.18265  19.70332  59761.30669    51.66507       44.87194   27.13618  42.28198  116.5    0.10207  -21.99342   0.9403 
  -15.05847  0.37333  1.01594     14.05289  1.51833  0.80153  25.97956  0.03892     0.02759    9748.8195   5637.74316  0.19994         5005.58483      20.0874  0.06794  59706.32985  14.72865   9.69889   114059.45525  47.37935  19.61065  59765.34252    51.66891       44.96193   19.11594  37.84256   71.0    0.17284  -22.18032  0.94083 
  -19.59165  0.33859  2.23331     14.03059  1.50919  0.31576   11.8177  0.03197     0.06308    7428.5952   4530.69667  1.13072         3379.47524     19.59128  0.02168  59701.79667   3.89022   4.00138   607134.68839  45.96641  19.64713  59765.28127     51.7663       45.10366   17.50591   33.1668  116.0    0.11199  -22.00639  0.88082 
  -19.12243   0.1654  1.27241     13.91601  1.91197  1.26876  27.52613  0.02032     0.04426   6625.21022   6732.99212   0.1098         5351.22731     17.43151  0.00015  59702.26589   7.20728   4.55288   423188.18797  46.71454  19.59734  59767.30234    51.67255       44.98632   21.35944  35.59906   92.5    0.14505  -21.86056  0.96763 
  -13.07115  0.32762  1.39855     14.25788  1.96356  0.64709   32.1966  0.01769     0.01093   6977.44215   5478.11317  0.44112         5234.64345     17.99702  0.00055  59708.31717   9.35039  10.54824   108758.31904  47.23407  19.62606  59761.40878     51.7212       45.08487   21.35944  32.03915   90.0    0.16226  -22.04491  0.91798 
  -14.01018  0.36891  1.44739     14.20599  1.97912  0.78172  22.21215  0.02698     0.05856   7857.25901   4771.96742  0.30102         5801.52036     17.25224   0.0001  59707.37814   8.18012   8.19421   149101.44021  47.07067  19.65214  59767.30234    51.85649       45.17075   20.83229  33.81911   83.5    0.18734  -22.03065  0.93155 
  -23.35983  0.08131  2.65728      13.7852  1.90556  0.60097   8.87829  0.06578     0.05165   9494.37926   4292.42918  2.92157         2846.65153     18.66098  0.00255   59698.0285   4.77408   0.72193  3359834.78886  45.17368  19.69934  59765.40854     51.5794       44.66652   36.34771  64.07831   93.5     0.1084  -22.14799   0.9753 
  -21.26093  0.37452  1.12705     14.09098  2.01759   0.6626  32.49982  0.02343     0.02536   7025.76477   7306.54947  0.35917         5459.15421     20.63297  0.23861  59700.12739   9.56964  12.17198   156517.21129  47.27523    19.624  59765.28127    51.58782        44.7715   31.20338  43.55465   98.0    0.11825  -22.32624  0.93927 
  -14.64776  0.04798  0.76551     14.15865  1.75836   0.8919  80.86844  0.01666     0.14729   8326.58421   8938.00938  0.42903         5920.50302     18.36892   0.0013  59706.74056  33.44568   3.87977    46080.31244  48.08254   19.5882  59764.56121     51.6697       44.98984   18.81792  35.93727   45.5    0.15667  -22.18403  0.98991 
  -14.41621  0.30428  1.49295     14.09761  1.79378  0.85051  31.86927  0.01902     0.13602   6475.90043   3905.50559  0.66248         5368.64784     19.70118  0.02792  59706.97211   7.97259   9.69708   236845.05934  46.80006   19.6629  59759.32671    51.60533       45.00206   21.35944  32.03915   87.5    0.16303  -22.12343  0.90272 
  -19.52849     0.18  2.44701     13.94192  1.69233  0.61245  13.15706   0.0463     0.01055   8222.78926   3011.87557   2.1509         2392.98516     19.07174  0.00655  59701.85983    5.3067   2.36827   1229507.1996  45.63033  19.69545  59765.34252    51.69274       45.00927   19.57948  35.59906   65.0    0.14279  -21.93999  0.92628 
  -15.22217  0.36336  0.74342     14.11569  1.53479  0.94446  41.01051  0.02471     0.48845  10476.44043    7591.6699  0.08888         4327.38236     19.98394  0.05354  59706.16615  26.85035  14.90177     46234.1348  48.04746  19.64201  59767.30234    51.73935       44.98335   19.12883  39.60962   83.0    0.17348  -22.11996  0.95818 
  -18.95256  0.31136  2.00573      13.9748  1.80868  0.84446  18.49327  0.02639     0.02059    6934.1373   4440.96327  0.47063         4347.68245     19.12074  0.00734  59702.43576   5.30427   5.75798   758780.40354  46.04155  19.60829  59767.30234    51.67776       44.93011   28.47925  37.37901   90.5    0.15069  -21.93415  0.89645 
  -20.71221  0.32825  1.85504     13.80477  1.91798  1.52137  13.34747  0.03077     0.02007   6603.51035   4880.12008  0.27131         5116.04025      18.4734  0.00165  59700.67612   3.47197   4.38127  1506028.71411  45.83715  19.67081  59765.40854    51.82433       45.12695   24.39219  35.31921   95.0    0.12429  -21.93265  0.93548 
   -16.7069  0.24561  1.60751     13.97118  1.74725  0.92774  26.19734  0.01772     0.14565   6900.37469   6299.68576  0.46397         4850.49919      18.4363  0.00152  59704.68142   7.44097   6.43442   478767.12946  46.41877  19.58374  59765.40854    51.60621       44.84851   23.62944  42.22882   92.5    0.17291  -22.01173  0.92016 
  -15.27613  0.16422  0.70732     14.02241  1.58608  1.06989  55.74743  0.01491     0.10924   7464.03546   6339.99188  0.27862         5088.13764     19.17986  0.00841  59706.11219  18.52676    9.1547    66460.00771  47.94737  19.58552  59761.30669    51.62662       44.80235   28.47925  46.73273   78.5    0.16221   -22.0009   0.9762 
  -18.02791  0.44362  1.27907     14.29595  1.78348  0.49907  19.46083  0.04114     0.02846   7170.40827   6079.99872  0.51656         3454.80429     19.79833  0.03492  59703.36041   5.96865   8.63328    69339.20813  47.46535  19.56617  59764.56121    51.71381       45.04442     18.048  33.80813   86.0     0.1393  -21.93304  0.93405 
  -16.16888  0.31916  1.19095     13.97938   1.7715  1.17543  28.04574  0.03207      0.0849   8276.63447   6798.01292  0.39985         4730.88025     20.33736   0.1208  59705.21945  11.46045   8.95101   256552.40743  46.95622  19.72952  59765.40854    51.75936       45.08161   24.12363  33.59799   75.5     0.1575  -22.21319  0.93976 
   -13.9051  0.15552  0.90668     14.01562  1.77089  1.23724  60.02313   0.0121     0.03158   6270.26379   6771.45553  0.63183         5701.57398     20.00386  0.05605  59707.48322  14.07724     9.335   125799.13117  47.50246  19.61351  59768.37114    51.73714       45.07335   19.12883  35.56003   75.5    0.14827  -22.21573  0.96398 
