 texplosion  fnickel    Pspin  log(Bfield)      Mns  thetaPB   mejecta    kappa  kappagamma      vejecta  temperature    alpha  cutoff_wavelength  log(nhhost)      A_V         MJD0   kenergy  mnickel             TSD   log(L0)  Peak_mag     Peak_MJD  log(E_rad)  log(Peak_lum)  Rise_Time    E_fold  tau_1  delta_m15     r_peak     frac 
   -6.66891  0.01531  1.43385     14.34545  1.66201  0.45051  11.73507    0.097      0.2836   9773.37271   7624.75444  0.68616         4209.36512      18.2161  0.00091  59112.81601   6.68655  0.17961     64647.37792  47.36592  19.15315   59165.0288    51.48644       44.80932   22.22215  36.02175   42.0    0.21343  -22.11854  0.99795 
   -5.93416  0.01787  1.20124      14.1757  1.69336  0.74623  15.27386  0.06529     0.13717    9612.5703   7351.48328  0.48855         4197.43875     19.18016  0.00841  59113.55076   8.41889  0.27294    101024.36182  47.33391  19.15065  59163.42843    51.37393       44.62705    36.7242   41.1727   41.5    0.21845  -22.08832   0.9979 
   -6.70871  0.00349  1.40906     14.32731  1.37148  0.30198   5.08436  0.17067     0.44921   9948.72909   6641.88124  0.47144         4729.15594     16.32218    1e-05  59112.77621   3.00192  0.01776       56007.098  47.35993  19.16076  59165.35061    51.58904       44.95121   19.41745    35.323   45.5    0.23398  -22.14657  0.99974 
  -16.87722  0.06355  1.82731     13.26549  1.95161  1.01415   6.75203  0.15876     0.01611  14070.34156   6810.53673  1.29747         2315.02796      18.5513  0.00198   59102.6077    7.9739  0.42908  17818162.88892  44.78475  19.15566  59165.35061    51.71967       45.11649   16.53008  33.14186   52.0    0.18683  -22.29317  0.99242 
  -15.09887  0.06371  1.90215     13.26992  1.99447  1.31374   5.63399   0.1848     0.01749  13586.43417   7265.74418  4.28266         2448.63904     20.06559  0.06461  59104.38605   6.20375  0.35894  19332322.33312   44.7239  19.14568   59165.0288    51.45956       44.77989   22.89488  36.61828   50.5    0.20575  -22.39023  0.99352 
  -16.97269  0.04677  2.03364     13.27046  1.83552  1.41016    5.1104  0.17184     0.01808  12356.15513   7271.53967  2.49309         2875.85415     17.59736  0.00022  59102.51223   4.65424  0.23904  20286421.99752  44.60885  19.16948  59165.35061    51.62466       45.01179   16.64835  34.56414   51.0    0.21035  -22.23182  0.99444 
   -4.50122   0.2288  0.78908     14.00135  1.60624  1.40932    7.3843   0.1089     0.30966   9485.12861    7251.3299  0.26146         4386.93626     16.18844    1e-05  59114.98369   3.96299  1.68955     92289.94384  47.71527  19.13551  59163.42843    51.44015       44.70113   36.00021   40.4217   43.0    0.25712  -22.05645  0.99443 
  -14.74531  0.00639  2.12759     13.37194  1.89238  0.97925   6.85002   0.1087     0.01336  12132.07829   7357.32607  1.55118         3277.07287     17.72587   0.0003   59104.7396   6.01436  0.04379  14345748.65773  44.73335  19.15941  59163.42843    51.56795       44.94003   20.77446  32.67671   51.0    0.21613  -22.21462  0.99893 
   -6.69943  0.00215  1.62286     14.03163   1.6404    1.008   6.18954  0.17835     0.46099    9997.7462   7643.22762  0.84028         4059.81407      17.4903  0.00017  59112.78549   3.69054  0.01328    346791.51449  46.52316  19.16263  59163.42843    51.34379       44.58023   36.81185  43.51934   43.0     0.2153  -22.14065   0.9998 
  -20.58977  0.15429  1.99418     13.61183  1.92622  0.47512   4.24688  0.25027     0.01586  10645.51516   7263.66574  1.87061         3347.50362     19.94403  0.04884  59098.89515   2.87098  0.65526   4250026.62269  45.32563  19.14427   59165.0288    51.42758        44.7427   24.83923   37.0041   53.0    0.18893  -22.21217  0.98647 
  -10.36812  0.00455  1.43594     14.04995  1.67894  0.91906   7.32526  0.16952     0.26355  10926.16575   7173.52587  0.25751         3997.43682     18.32983  0.00119   59109.1168   5.21658  0.03333    255405.25047  46.77238  19.12929  59163.42843    51.38929        44.6518   35.37297   41.7458   43.0    0.20809  -22.06539  0.99962 
  -16.39864  0.20559  1.74024     13.19084  1.62153  1.13555   4.25749  0.22559     0.02066  12948.91868   7127.56529   1.1262         2975.70906     17.45874  0.00016  59103.08628   4.25842  0.87529  18935881.03913  44.72027  19.20515  59165.35061    51.42711       44.66477   38.80243  42.48804   50.0    0.20908  -22.22599  0.98215 
  -17.79393  0.17213  1.77059     13.45767   1.7952  0.55304   3.03774  0.29361     0.02539  12713.43488   6942.24128  0.79751         3311.78058     19.58676  0.02145  59101.69099    2.9289  0.52289   6350692.68978   45.2239  19.14183  59165.35061      51.516       44.83418   19.32655   38.7978   51.0    0.21189  -22.24441  0.99037 
   -6.46275  0.33277  1.18869     14.30633  1.98984  0.85162   8.34572  0.15425     0.33753  10526.91668   6718.06919  0.51277         4165.44648     16.06415    1e-05  59113.02217   5.51688  2.77718     63695.08785  47.61342  19.14547  59165.30637    51.35923       44.58999   38.22241  44.54306   44.0    0.21185  -22.10384  0.98447 
  -16.67482  0.03205  2.06427     13.34101  2.16633  1.15793   6.78839  0.13343     0.01059  11735.19757   7204.89838  1.49303         3374.58351     17.77609  0.00033   59102.8101   5.57667  0.21758  17826281.41467  44.72397  19.10961   59165.0288    51.55387       44.90883   18.78017  36.06607   52.0    0.20421  -22.27977  0.99586 
   -6.69356  0.05058   1.5588     14.04177  1.82918  1.43704  12.24948  0.09397     0.22118  10655.77087   7045.56302  0.57074         4245.84593     17.42607  0.00015  59112.79136   8.29687  0.61961    340488.44103  46.61342  19.11911  59163.42843    51.46878       44.78948   22.22215   37.1869   42.5    0.21967   -22.1756  0.99278 
  -17.71216  0.02099  1.55247     13.20206  1.61561  0.88451   6.18668  0.16782     0.01345  13372.69457   7192.11689  0.27457         3917.62131     17.28916  0.00011  59101.77276   6.59967  0.12985  14258378.74692  44.94106  19.15713  59163.42843    51.42303       44.67727   36.51417  41.38273   49.5    0.19578  -22.28776  0.99784 
   -7.49516  0.03084  1.06149     14.24248  1.75027  0.66281  10.76382  0.07594     0.19133   7829.99711   8719.10877  0.64612         4683.44182     16.05224    1e-05  59111.98976   3.93656  0.33195     59949.43067  47.68234  19.18147  59165.35061    51.33092       44.57639   38.94845  41.38273   41.5    0.22225  -22.08533  0.99813 
  -10.70805  0.41992  2.18097     13.33763  1.73607  1.26129   1.99988  0.24236     0.03739  10833.14791   7161.48325  1.65884         3171.86629     17.97434  0.00052  59108.77687   1.40004  0.83978  16196538.74023  44.62169  19.14436   59165.0288    51.57213       44.92036    20.4606  34.30771   53.5    0.20699  -22.12937  0.97659 
   -6.35989  0.02938  1.37308     14.35144  1.59799  0.39699  11.10343  0.08872      0.3812   9996.89823    7542.7208  0.54891         4165.39796     17.57998  0.00021  59113.12502   6.61934  0.32617     55451.16323  47.45312  19.15474   59165.0288    51.54294       44.90686   19.32655  35.21394   42.0    0.22414  -22.13682  0.99638 
   -5.82535  0.12146  0.89042     14.25468  2.08876  1.11783    8.8482    0.109     0.28919    8063.0696   7936.68709  0.63136          4673.8876     18.62133  0.00232  59113.65957   3.43149  1.07467     47591.80556  48.01201   19.1352   59165.0288     51.6729       45.05616   19.47423  32.62785   42.0     0.1903   -22.0759  0.99718 
  -20.78757   0.0882  1.59155     13.28101  1.28562  0.94702    4.3078  0.24261     0.03287  13000.87211   7602.45163   0.0033         3314.82623     19.86377   0.0406  59098.69735   4.34338  0.37994   8289767.09632  45.05578  19.16864  59165.35061    51.64256       45.00597   17.38025  35.46511   47.0    0.19138  -22.31698  0.99146 
   -7.22415  0.02556  1.24616     13.99576  1.62601  1.11423  10.16757  0.12808     0.32225  12965.88015   7588.85655  0.04334         2538.37975     16.96193    5e-05  59112.26076  10.19643  0.25986    239094.68638  46.91025  19.14673  59165.35061    51.59567       44.92986   23.56007   35.2834   37.5    0.24481  -22.20885  0.99769 
   -7.18907  0.00123  1.04411      14.4019  1.77693  0.44242   9.80364  0.13533     0.41135  12850.69741   8390.54729  0.03776         3722.44733     19.74745  0.03106  59112.29584   9.65757  0.01203     28260.08955  48.02985  19.15741   59165.0288    51.59518       44.96433   18.02632  33.97695   33.5    0.25132  -22.23979  0.99994 
  -14.85842  0.02736  1.35625     12.98688  1.54134  1.56059   5.52508  0.23598     0.01154  13091.71793    7766.0288  3.25164         2185.26542      17.8972  0.00044  59104.62649   5.64884  0.15119  27966439.53189  44.74542  19.17232  59163.42843     51.5147       44.86727   20.77618  33.99212   49.0    0.17809  -22.24015  0.99789 
   -7.70635  0.00268  1.28393     14.32061  1.70099  0.47176  14.04021  0.07252     0.20754   9721.17034   7608.54829  0.37787         4230.62342     16.16467    1e-05  59111.77857   7.91476  0.03759     59479.55398   47.5081  19.12245   59165.0288    51.55391       44.91715   20.72443  33.35513   42.0    0.21648  -22.08449  0.99967 
   -7.48479  0.00272  1.45362     14.05872  1.74568  0.95513   4.30816  0.21815      0.4985  10154.06363   7813.49166  0.33748         4886.28885     16.88634    4e-05  59112.00013   2.64971  0.01173    261355.99864  46.76868  19.15436  59163.42843    51.45164       44.76492   22.89488  38.01499   42.0    0.23164  -22.14939  0.99987 
   -7.68878  0.02234  1.71275     14.16285  1.80548  0.73925   8.84897  0.14648     0.46946  12084.20764   7403.62691  0.99765         2129.69115      17.0503    6e-05  59111.79614   7.70826  0.19771    232321.68448  46.69196  19.13208   59165.0288    51.56066       44.92182   19.39327  34.68628   42.0    0.19699   -22.1279  0.99714 
   -5.19934  0.01142  1.41502     14.46182  1.93464   0.4384  17.94108  0.05049     0.22635   8611.88019   9527.85743  0.71021         5728.45855     18.84515  0.00389  59114.28558   7.93728  0.20482     42885.53481  47.62161   19.1808  59165.35061    51.57665        44.8992   23.20874  36.82861   38.0    0.21863    -22.265   0.9982 
   -8.80303  0.00296  1.75449     14.18546  1.93433  0.76182  10.59877  0.09454     0.26509  10223.73513   6214.25821  0.39616         4355.68296     18.85154  0.00395  59110.68189   6.60848  0.03139    235360.35779  46.69534  19.16874  59163.42843    51.46438       44.74214   32.60665   40.4217   46.0    0.21478  -22.11071  0.99957 
   -7.44848  0.03668  1.37499     14.45837  1.65131  0.32036   11.6412    0.104     0.31329  11861.44274   6626.84266  0.29061          3690.0988     17.89785  0.00044  59112.03644   9.77012    0.427     35114.77332  47.66459  19.14768   59165.0288    51.51342       44.86379   20.77618  35.37898   42.0     0.2263  -22.17824  0.99548 
  -13.84268  0.03456  1.69406      13.2267  1.63592  1.23606   5.13039  0.13946     0.01582  13303.99697   8395.07591  0.06934         5244.88981     19.39975  0.01395  59105.64224   5.41679  0.17729  15347827.41055   44.8387  19.17381   59165.0288    51.59793       44.98212   17.35896  33.24043   43.0    0.21418  -22.27801   0.9967 
  -15.23074  0.03516  1.84444     13.30265  1.69421  0.96185   3.77304  0.23078      0.0179   11498.8945   6822.94648  1.06583         3551.56663     17.53586  0.00019  59104.25418   2.97599  0.13268  13280399.00484  44.84287  19.18008  59165.30637    51.39229       44.61531   39.24613  45.95361   51.0    0.20972  -22.20822  0.99717 
   -6.61865  0.09046  0.99335     14.07474  1.64531  0.95468   5.36904  0.16898     0.37291   9316.46667   7282.41742  0.37615         4229.32859     16.87388    4e-05  59112.86627   2.77988  0.48569    106850.64174  47.46211  19.14863  59165.35061    51.72794       45.12669   18.03948  31.92674   42.5    0.23748  -22.07696  0.99738 
   -5.04149  0.05972  1.00895     14.54342  1.98868  0.40517   8.05825  0.10422     0.36305   8832.61992   7860.75077  0.47011         4288.79627     17.36703  0.00013  59114.44343   3.75013  0.48122     15391.52785  48.37239  19.18291  59165.35061    51.55087       44.88485   22.17716  35.37503   40.0    0.22273  -22.05367  0.99806 
  -17.14015  0.03792  1.56153     13.15079  1.57486  0.95275   3.61447  0.22085      0.0115   9758.72239   8515.09174  1.43867           3525.609     17.17394    8e-05  59102.34477   2.05333  0.13705  17806226.88948  44.82842  19.16205  59163.42843    51.55708       44.92261   19.32655  33.27172   50.5    0.19321  -22.12857  0.99756 
  -12.68745  0.43662  2.04464     13.34427  1.63254  1.04063   3.38602  0.17917     0.01732   9592.04389   8491.70497  2.19277         3286.71356     19.44853   0.0156  59106.79747    1.8584  1.47842  12982872.66438  44.74711  19.23572  59163.42843    51.34016       44.55654   40.65669  44.54306   50.0    0.20439  -22.17666  0.96116 
   -8.51382  0.06742  1.02268     14.00645  1.51563  1.03378  15.45465  0.08567     0.25896  11514.14914   7669.40217  0.18521         4673.85142     18.80486  0.00354   59110.9711  12.22222   1.0419    142882.06357  47.27498  19.15248   59165.0288    51.49504       44.83584   20.77618  36.19859   39.0    0.21564  -22.14284  0.99323 
  -16.69718  0.18842  1.38814     13.05868  1.60732  1.02925   3.27094  0.24901     0.01518  11451.64847   7778.39435  1.42323         2196.32251     16.93138    5e-05  59102.78774    2.5588  0.61631  21949032.35707  44.84867  19.16541  59165.35061    51.59388       44.96589   18.01043  35.33889   53.0     0.1798  -22.13014  0.99146 
  -13.15988   0.0023  2.06353     13.36426  1.96869  0.99899   3.21176  0.28147     0.02156  11729.18455   7217.12132  3.10386         2892.26265     17.33231  0.00012  59106.32504   2.63576  0.00739  14544716.37212  44.77109   19.1124  59163.42843    51.34863       44.61224   34.41378  41.38273   50.5    0.21058  -22.21758  0.99984 
  -19.78398  0.01944  2.33911     13.42466  2.13329  1.24722   6.25846  0.12051     0.01336  10829.92766   7022.51261  1.27902         3502.39259     16.44944    2e-05  59099.70094   4.37871  0.12166   15333777.4351  44.67414  19.16334  59163.42843    51.33271       44.58891   36.81185  41.08506   54.0    0.19181  -22.20936  0.99705 
  -16.46945  0.12144  1.99656     13.36577  1.65495  1.02703   6.10202  0.19168     0.01858  12567.08336   7363.41495  1.75799          3055.4709     18.19283  0.00087  59103.01547    5.7487  0.74101  11366592.82883  44.83144  19.17148  59165.35061    51.47347       44.79384   20.77618  38.73434   48.5    0.20557  -22.29139  0.98166 
  -15.34221  0.00427  1.43065     13.03062  1.49282  1.34304   6.10152  0.17164     0.01412  14551.36637   6617.14915   0.7253          2176.4897     18.26879  0.00103  59104.14271   7.70678  0.02607  24639840.97152  44.74015  19.16212  59161.52344    51.43644       44.73595   31.87995  38.71412   49.0    0.21312  -22.28587  0.99958 
   -5.80356  0.01022  1.34723     14.28625  1.89893  0.63992    8.7989  0.08829     0.35975   8193.78734   7561.76001  0.61179         4605.66923      18.3872  0.00135  59113.68136   3.52391  0.08988     85646.56693  47.35576  19.16567  59163.42843     51.5223       44.86853   22.22409  33.99212   44.0     0.2223  -22.07851  0.99926 
   -7.27748  0.00341  1.80343     14.59561  1.78972   0.2474  10.60672  0.08865     0.18433   9785.72772   7127.58659  0.59448         4323.36265     17.95919  0.00051  59112.20744   6.05891  0.03613     34799.52538  47.46786  19.15624  59165.30637    51.51991        44.8679   20.77618   35.2834   45.0    0.21475  -22.10531  0.99941 
  -13.74226  0.00149  2.02729     13.33782  1.84767  1.18886   7.09688  0.12344     0.01005  11275.94419   7189.52932   3.0254         2749.41191     18.28912  0.00108  59105.74266    5.3827   0.0106  14881103.94987    44.749  19.18326   59165.0288    51.54193       44.87236   22.65179  34.99875   51.0    0.20579  -22.22919  0.99976 
   -6.30523   0.0027  1.31854     14.29263  1.90692  0.63598  14.71023  0.06886     0.19401   9749.46591   7466.68024  0.41229          4791.5667     16.12485    1e-05  59113.17969   8.34081  0.03972     79997.17691  47.40592  19.20351   59165.0288    51.49407       44.80969   22.11556  37.44473   41.5    0.22469  -22.14424  0.99969 
   -6.45599  0.00181  1.64248     14.60327  1.90162  0.27914   9.60783  0.09907     0.23719  10563.56326   8310.55441  0.35984         4744.69577     17.42524  0.00015  59113.02893   6.39548  0.01737     29606.99639  47.64558  19.14871  59165.35061    51.60693        44.9913   16.64835  34.56414   39.5    0.23933  -22.13555  0.99979 
  -16.71973  0.00118  1.62995     13.20166  1.39488   0.9735   3.67323  0.29149     0.02749  13116.91583   7162.06108  0.93494         3191.55166     16.06835    1e-05  59102.76519   3.76998  0.00432  13594979.69507  44.85566  19.15149  59163.42843    51.44398       44.76149   23.55447  36.06469   48.5    0.20466  -22.26895   0.9999 
   -6.08976  0.04987  1.24892     14.19899  1.81073   0.8368    7.9182  0.10971       0.275   8126.30181   7743.06485  0.72671         4603.93919     17.89414  0.00044  59113.39516   3.11917  0.39492    104897.51023  47.31287  19.14409   59165.0288    51.58977       44.96751   16.64835  34.00581   43.0    0.21463  -22.07518  0.99705 
   -6.83099  0.00282   1.1881     14.17874  1.58198  0.63484  16.74853  0.06659     0.25571   10288.3821   6529.30022  0.47933         3853.75083     17.20812    9e-05  59112.65393  10.57543  0.04724     91039.85748  47.35911  19.19821  59163.42843    51.41534       44.67265    34.0799  41.38273   42.0    0.21162  -22.11857   0.9996 
   -17.8193  0.00386  1.75401     13.20283  1.59553   1.1365   7.29122  0.13918     0.01081   11566.7641   7619.19298  2.03815         3020.76565     16.76001    3e-05  59101.66562   5.81904  0.02814  17911571.65336  44.73055  19.17122   59165.0288    51.52105       44.84454   22.22409  36.19859   50.5    0.19795   -22.2218   0.9994 
  -19.81041  0.00569  1.84302     13.41884  1.94537  0.67471   7.36387  0.13048     0.01172  12726.04739   7961.02836  0.33903         3926.48809     17.95541   0.0005   59099.6745   7.11411  0.04188   8916372.04552   45.0766  19.14633  59161.52344    51.36673       44.59733   38.94845  43.81701   49.0    0.19799  -22.24605  0.99925 
   -8.98542  0.16323  0.98077     14.09356  1.52036  0.79636   7.29112  0.15541     0.45403   9935.25475   6496.94343  0.30546         3949.51171     17.65273  0.00025   59110.4995   4.29319   1.1901     88260.64273  47.52189   19.1502  59165.35061    51.56666       44.92009   19.47423  36.51417   45.0    0.20511  -22.00607  0.99297 
   -18.4362  0.01043  1.55407     13.11245  1.76544  1.24656   5.34232  0.19179     0.01204  12936.18465   6543.59839  0.69089         2765.48427     17.80697  0.00036  59101.04872   5.33297  0.05571  23589038.57998  44.76005  19.15161  59167.30199     51.5698       44.92335   20.84118  34.68628   51.5    0.19794  -22.20522  0.99917 
    -6.5224  0.00637  1.53837     14.42656  2.00127  0.45246  11.48589   0.0861     0.27564  10120.83228   7710.42872  0.28407         5891.92501     18.49784  0.00175  59112.96252   7.01818  0.07315     61676.26509  47.40591  19.17357  59167.30199    51.37633       44.61163   38.22241  44.54306   41.5    0.22463  -22.16628  0.99927 
   -6.46151  0.02023  1.17598     14.13665  1.83321  1.02449  14.88975  0.06991     0.24021   9159.52895   8376.37154  0.57258         4614.67747     19.18181  0.00844  59113.02341    7.4518  0.30121    125466.44056  47.29273  19.16026  59165.30637    51.45263       44.68682   38.58539  44.18008   39.5    0.20373  -22.13323  0.99805 
   -6.52505  0.00426  1.03413     13.98703  1.60633  1.13299   6.79352  0.12988     0.40919   9164.93528    6708.7212  0.32467         4985.42965      19.4566   0.0159  59112.95987   3.40393  0.02895    169329.38323   47.2168  19.18253  59165.35061     51.4287       44.66573   38.58539   41.7458   43.5    0.22476  -22.10217  0.99982 
