 log(Bfield)      Mns    Pspin  cutoff_power  cutoff_wavelength  fnickel    kappa  kappagamma   mejecta  log(nhhost)  temperature  texplosion  thetaPB      vejecta      A_V        MJD_0   log(KE)      M_Ni  Peak_mag     Peak_MJD 
     14.1649  2.10617  5.81541       0.43372         2561.32029  0.04155  0.25639     0.19693   2.58398     16.79543   3003.09961   -12.36747  0.81654  13732.10893    3e-05  54128.13253  52.72439   1.95806  21.75118      54179.5 
    14.05453  1.92916  5.59489       0.13953         4800.10467  0.05287  0.09254     0.20978   6.31001     17.44505   6375.15835    -10.9264  1.37414  12139.16585  0.00015   54129.5736  52.72245   3.17423  21.73136      54179.5 
    14.18818  1.90161    5.396        0.0098         2277.40912  0.03184  0.13748     0.23888   4.67851     19.71511   6839.61214   -11.06792  0.74227   13259.4382  0.02883  54129.43208  52.76665    1.7738  21.72634      54179.5 
     13.9407  1.66897  4.87208        0.0349          3921.2064  0.01718  0.23324     0.36028   3.01737     16.36289   4733.03493   -12.33616  1.28372  12886.43994    1e-05  54128.16384  52.68937   0.84796  21.71544      54179.5 
    14.06901   1.8805  5.48967       0.00868          2111.5154  0.10722  0.13595     0.31552   5.27068     18.18756   5004.59186   -12.06648  1.19976  13041.40549  0.00086  54128.43352  52.76548   6.15837  21.75282      54179.5 
     13.7906  1.35352  4.18845       3.02744         2021.81188   0.0438  0.17653     0.08162   3.29984      19.1149    4542.4283   -13.01457  1.02627  12226.41809  0.00724  54127.48543  52.65494   2.21892  21.73812      54179.5 
    14.09323  1.75085  5.23535       0.19276         4785.02476  0.06699  0.22037     0.17917    2.2376     16.38495   8966.90417   -10.31493  0.84835  11990.96799    1e-05  54130.18507  52.58701   3.01792  21.71026      54179.5 
    14.01196  1.81165  5.41304       0.11601         2133.90982  0.19846  0.14984     0.09149   4.18947     19.40209   5106.18541   -11.15336  1.15458  13518.75713  0.01402  54129.34664  52.77084   10.7401  21.71468  54182.23835 
    13.98453  1.66875  5.11385       1.31939         2124.56252  0.10253  0.13198     0.13938   4.96698     16.09993   6110.40543   -11.79612   1.1641   12602.7364    1e-05  54128.70388  52.72922   5.80128  21.75039      54179.5 
    14.11778  1.79966  5.24572       0.31246         2010.51474  0.03771  0.12602     0.36056   5.35283     18.61175   4452.85339    -11.3899  0.80024  13403.21968  0.00227   54129.1101  52.79093   2.17419  21.76146      54179.5 
    14.21485  1.86436  5.43377       0.02202         5855.25061   0.0584   0.1148     0.49302   5.97632     17.57152   8656.23665   -12.06122   0.6955  12868.84049  0.00021  54128.43878  52.76743   3.46076  21.74051      54179.5 
    14.30662  1.83425  5.31547        0.1354         5939.97294   0.0406  0.21553     0.13993    2.3258     18.78568   4987.83094    -11.8824  0.45694  11882.24253  0.00339   54128.6176  52.58445   1.85173  21.71381  54182.23835 
    14.17638  1.78535  5.20179       0.14195         4573.17257  0.01803  0.16812     0.12178   3.15125     16.66732   4310.01525   -11.28154  0.61997  12557.59219    3e-05  54129.21846  52.67241   0.90155   21.7531  54182.23835 
    14.44234  1.98382  5.81476       0.16214         2618.05616  0.16243  0.14101     0.43087    5.2898     17.84504   4533.87801   -12.32307  0.44304  12961.62458  0.00039  54128.17693  52.76054   9.33843  21.74171  54182.23835 
    13.98067  2.02832  5.48899       0.01359         5381.66966   0.0531   0.0896     0.04951   6.39873      19.5159   9395.55672   -11.71778  1.19735  14373.21544  0.01822  54128.78222  52.87064    3.1987  21.72635  54182.23835 
    14.03107  1.88944  5.67978       0.02977         2123.31748  0.44589  0.21174     0.17537   3.13638     19.96664   3695.43984   -11.79168  1.56187  13549.40711  0.05145  54128.70832  52.73784   22.2637  21.73664      54179.5 
    13.99008  1.75627  5.20629       0.01138         3735.31097  0.09766  0.20724      0.1655   2.78615     18.65267   5692.68112   -11.25651  1.27229  12569.53283   0.0025  54129.24349  52.65748    4.7089  21.75264      54179.5 
    14.01058  1.60348  4.78381       0.24411         5354.64187  0.14123  0.13469      0.0678   3.68169     17.42656   6854.43834   -11.45038  0.69671  12710.14515  0.00015  54129.04962  52.70201   7.37921  21.75052  54182.23835 
    14.17405  1.92998  5.46586       0.07404         4441.17154  0.02913  0.16441     0.38907   4.33333     18.95525    5447.7072   -11.70332  0.87774  12556.90481  0.00501  54128.79668  52.71063   1.59082  21.72639      54179.5 
    13.94392  1.63013   4.9138       0.11187         5188.44922  0.04365  0.09036     0.25641   6.88342     16.83556   7764.84808   -11.42944  1.25558  12850.22915    4e-05  54129.07056   52.7809   2.67584  21.75053      54179.5 
    14.22182  1.71809  5.09681       0.14158         5847.26062   0.0233  0.12112     0.27727   4.81311     17.10911   5072.40037   -11.27873  0.58895  12241.43607    7e-05  54129.22127  52.70045   1.30777  21.73027      54179.5 
    14.09791  1.84958  5.38344        0.0034         5481.56888  0.03906  0.14482     0.46417   4.18332     18.99091   4155.51134   -11.02356   1.0099  12364.28514  0.00544  54129.47644  52.69314   2.11314  21.72628      54179.5 
    14.18159   1.8081  5.68971       0.10694         4686.60046    0.363  0.16829     0.28623   4.25037     18.47558    6555.4903   -10.80997  0.98695  12147.08945  0.00166  54129.69003  52.67958  19.72029  21.71473      54179.5 
    14.20972  2.11717  5.99796       2.02355         2205.02405  0.01532  0.20116     0.44162   3.20529     18.69312    6764.8536   -11.53792  0.87936  12255.20251  0.00274  54128.96208  52.65336   0.76989  21.73026      54179.5 
    14.18177   1.7398  5.24326       0.10639         4910.00728  0.09939     0.12     0.45355   5.63652     16.08535   4837.04607   -11.91566   0.7784  11623.89408    1e-05  54128.58434  52.67281   5.80527  21.73739      54179.5 
    14.09973  1.96737  5.62797       0.04193         2426.71588  0.06626  0.20269     0.42984   3.19106     17.25749   3226.21573   -11.97573  1.03206  12994.84053   0.0001  54128.52427  52.70371   3.32513  21.73007      54179.5 
    13.98914  1.73148  5.19724       0.21803         4932.72614  0.07145  0.12439     0.24289   4.69889     18.41835   4596.44319   -11.31946  1.32573  11907.63687  0.00146  54129.18054  52.67374   3.98504  21.73409      54179.5 
    14.09899  1.66152  5.02947        0.3108         2611.63622  0.14455  0.16305      0.1862    4.0912     19.12109   3510.52263   -11.87527  0.74565  13371.47413  0.00734  54128.62473  52.75856   7.77329  21.76716  54182.23835 
    14.20897  2.03137  5.79555       0.66774         2291.64229   0.0251  0.16722     0.20252   3.85722     16.76745   5081.07596   -12.24926  0.77953  12516.68899    3e-05  54128.25074  52.69425   1.32862  21.71351  54179.41679 
    14.18372  2.00259  5.76579       0.69224         2321.43035  0.12819   0.1711     0.48988    4.6279     18.85585   3535.08118   -12.38959  0.88613  13484.41881  0.00399  54128.11041  52.78003   7.12198  21.75968      54179.5 
    14.14676  2.04833  5.75913        0.6482         2473.24745  0.03365  0.24008      0.3459   2.95379      19.0031   7243.07434   -12.57491  1.03721  12312.62366   0.0056  54127.92509  52.64709   1.65102  21.72638      54179.5 
    13.98213  1.18772   3.8375       3.09397         2065.29078  0.04215  0.10343     0.24821   7.45174     16.05973   3814.08915   -11.75698  0.57459   13366.1596    1e-05  54128.74302  52.82315   2.63182  21.71364      54179.5 
    13.96666  1.58344  4.86697       0.03371         4678.42202  0.03647  0.10522     0.44991   5.33239     18.96689   5322.71714   -11.53038  1.04046   12387.6628  0.00515  54128.96962  52.72208   2.10108  21.73868  54182.23835 
     13.9715  1.70291  5.45107       0.24984         5437.68027  0.14033  0.04862     0.02797  10.15522     19.48111    3399.1015    -9.85918  1.30467  12274.10758  0.01682  54130.64082  52.77918   9.39137  21.71649      54179.5 
    14.03314  1.83062  5.33496       0.10854         4936.26734  0.02366    0.128      0.3566   4.52701     17.06304   6921.68416   -11.17312  1.16306  12692.49163    6e-05  54129.32688  52.72496   1.30682  21.74076  54182.23835 
    14.03889  1.77031  5.17267         0.893         2287.02028   0.0356  0.16755     0.49591   3.96964     17.91231   5536.77235   -11.62188  0.99313  13166.75209  0.00045  54128.87812  52.74162   1.89878  21.75846  54182.23835 
    14.03415  1.82757  5.35306       0.06131         5630.27791  0.04966  0.10671     0.08672   5.66833     18.36086   3797.50313   -11.30065  1.05997  12886.01525  0.00128  54129.19935  52.76295   2.90485  21.71267      54179.5 
    13.95638   1.9575  5.32832       0.10301         2461.20706  0.04473  0.25595      0.1478   2.02835     18.32953   3325.20351    -11.6588  1.05446  14074.71655  0.00119   54128.8412  52.71227   1.95141  21.75257      54179.5 
     13.8855  1.62287  4.80751       1.82093         2172.93523  0.09387   0.2145     0.13593   2.97261     17.37171   3594.06163   -12.19264  1.19949  13630.63439  0.00013  54128.30736  52.73623   4.61441  21.75458      54179.5 
    13.91541  1.59327  4.87543       0.19851         4868.50313  0.11161  0.21876     0.24472   2.29425     17.72677   5299.15513   -10.53909  1.31237   12111.6432   0.0003  54129.96091  52.59918   5.06806  21.69666      54179.5 
    13.95778  1.57649  4.92246       0.13573         4743.59797  0.34372  0.17628      0.0779   3.53872     17.07029   3857.30378   -11.79011  0.95148  12765.56656    7e-05  54128.70989    52.701  17.76242  21.75167      54179.5 
    13.79762  1.34278  4.25708         0.051         2651.71991  0.14739  0.11043     0.05988   6.14102     17.58552   6896.91533   -11.99175  1.11899  13756.59548  0.00021  54128.50825  52.82825    8.7918  21.75374      54179.5 
    14.02939  1.48055  4.66374       0.01592         5272.18465  0.13733  0.12179     0.41981   5.86903     18.11397   3123.08627   -11.60885  0.83359  13296.11444  0.00072  54128.89115  52.79388    8.1015  21.74243      54179.5 
    13.76931  1.40108  4.20824       0.11685         5291.25344  0.04149  0.07177     0.04523   7.97009     19.93797   3362.10427   -12.00486  1.40304  12810.38488  0.04816  54128.49514  52.79297   2.63153  21.73128      54179.5 
    14.02245  1.85669  5.30027       0.03082         2503.25227  0.06909  0.18757     0.13994   3.59341     19.38411   5621.89774   -12.53605  1.15709  13273.30524  0.01345  54127.96395  52.73674   3.58546  21.74267  54182.23835 
    14.07061  1.93619  5.50193        0.0366         4678.89584  0.03085  0.18837     0.40161   3.67717     17.39164    4709.9239   -11.56753  1.18397  13157.00519  0.00014  54128.93247  52.73187   1.61139  21.73811      54179.5 
    14.42204   1.9925   5.5695       0.02133         5896.48576  0.03442  0.16379      0.2985   4.55089      16.8379   4215.11751   -12.20354  0.45717  12841.92856    4e-05  54128.29646  52.73573   1.90377  21.76178  54182.23835 
    14.04112  1.96799  5.64394       0.04762         5785.63971  0.11885  0.13426     0.08125   4.23229     18.65322   3654.42156    -11.8918  1.09534  13148.65249   0.0025   54128.6082  52.74791   6.44938  21.73993      54179.5 
    14.24928  1.55026  4.66662       0.02126         5684.97362   0.0357  0.12316     0.23074   5.92228     18.89742   6739.95925   -12.60872  0.46884  12543.09887  0.00439  54127.89128   52.7442   2.11059   21.7173      54179.5 
    14.24806  1.61752  4.97688       0.17972         4772.68626  0.04327  0.11766     0.15834   4.47377     16.41063   4469.80374     -11.103  0.51673  11731.84484    1e-05    54129.397  52.65525   2.38285  21.71137      54179.5 
    14.01843  1.80614  5.46304       2.85104         2025.37975  0.11447   0.0823     0.16387   8.48908     19.26902    3940.9348   -11.66743  1.18757  13803.83531  0.01032  54128.83257  52.86405   7.36396  21.74748  54182.23835 
    14.06253  1.85538  5.40461       1.06757         2329.12354  0.04456  0.10992      0.0991   5.86154     17.86171   5501.96839   -12.50277  0.95711  12992.34633   0.0004  54127.99723  52.77367   2.62778  21.73247  54182.23835 
    14.45056  1.90537  5.48251       0.80482         2285.90237  0.04898  0.16572     0.34899   4.20643     19.20018   3524.31345   -12.37789  0.37809  12687.28027  0.00881  54128.12211  52.71617   2.65339  21.73083      54179.5 
     13.9958  1.69402   5.1541       0.14722         5602.32079  0.12514  0.14806     0.14902   4.04174      18.4656   6580.65555   -11.56911  1.17578  12024.53256  0.00162  54128.93089  52.66492   6.70726   21.7331      54179.5 
    13.94193  1.66458  5.26383        0.0833         3329.91329  0.25349  0.12168     0.07383   4.68106     18.05441   3151.12616   -11.10655  1.25057  13156.02971  0.00063  54129.39345  52.75991  14.12482  21.72579  54182.23835 
    13.93687  1.70063   5.0295       0.05528         5941.55161  0.23721  0.20748     0.14767   2.49922     19.83247   5138.74426   -11.05382  1.23836  12923.83439  0.03777  54129.44618  52.66723  11.06526  21.73913      54179.5 
    13.93998  1.72385  5.02113       0.64984         2835.90229  0.10103  0.27654     0.16047   1.93355     17.48128   9844.92097   -12.00181   0.9701   12797.3916  0.00017  54128.49819  52.62269   4.33759  21.75296  54182.23835 
     13.9356  1.60555  4.81768       0.03396         5492.08606  0.07853  0.18964     0.36679   3.63175     16.31142   9103.73997   -11.96764  1.38645  12630.20717    1e-05  54128.53236  52.69488   4.08744  21.71432  54182.23835 
    14.09715  2.03639  5.64453       0.15791         4241.73501  0.04221  0.15306     0.07988   3.23327     16.58674    4286.0568   -11.44722  0.82684  12600.04657    2e-05  54129.05278  52.67855   2.12599  21.73984  54182.23835 
    13.99585  1.77911  5.14315       0.07281         4384.27571   0.0361  0.18352     0.14949     3.404     19.26615   5884.34333   -12.19336  1.18132  12468.00357  0.01025  54128.30664  52.67577   1.84511  21.71476  54179.41679 
    13.97921  1.73013  5.05118        1.8029         2049.93428  0.08741  0.16579     0.10321   3.84707     18.18222   5238.88351   -12.12793  0.95313  13798.43988  0.00085  54128.37207  52.77862   4.62285   21.7395      54179.5 
    13.96708  1.65896    5.137        0.0692         3629.68754  0.35881  0.23534     0.12187   2.78733     16.20062   4847.55028   -11.58626  1.19775   12994.9496    1e-05  54128.91374  52.68645  17.30339  21.73336  54182.23835 
    13.73182   1.4431  4.28359       3.42135         2217.00149  0.00941  0.29078     0.16522   1.84118     18.83125   5951.11658   -11.90146  1.26748  13607.39704  0.00377  54128.59854  52.66877   0.39736  21.75759      54179.5 
    14.05092   2.0639  5.72837       0.35317         2580.17478  0.01972   0.2031      0.1328   2.61518      17.6474   6236.90927   -11.77784  1.08523  13137.26387  0.00025  54128.72216  52.68752    0.9327  21.74487      54179.5 
    13.85623  1.49698  4.51457        0.0722          4894.1214  0.02388  0.28743     0.32533   2.25969     18.48914   3286.01459   -12.56678  1.41873  12499.10569  0.00171  54127.93322  52.62443     1.079  21.70648      54179.5 
     14.0696  1.70232  5.00452       0.23643         5039.44607  0.00437  0.18049     0.24584   3.19208     16.56553   6717.60261   -10.96856  0.87066  12178.70421    2e-05  54129.53144  52.64741    0.2192   21.7383      54179.5 
    14.00623  1.75696  5.48774       0.02376         4102.62085  0.26613   0.0764     0.03652   6.47974     16.35802   4699.22947    -11.2611  0.85579  13171.73032    1e-05   54129.2389  52.79613  16.08096  21.72204  54182.23835 
    13.90348  1.44791  4.58511       0.24952         4303.54544  0.06984  0.18992     0.24089   2.83098     18.36989   6089.44243   -10.73764  1.23429  11346.79427   0.0013  54129.76236  52.57066   3.38387   21.7182      54179.5 
    14.30954  1.95367  5.61496       0.02605         4483.53894  0.07629  0.15357     0.18418   4.11212     17.58351   6547.47691   -12.14489  0.53303  13077.90588  0.00021  54128.35511  52.73988   4.10833  21.73864  54182.23835 
    14.25363  1.75935  5.24449       0.07618         5138.19753  0.06496  0.10822     0.19392   5.31189     16.37375   3910.64645   -11.08178  0.53385   12928.5203    1e-05  54129.41822  52.75878   3.73831  21.72395      54179.5 
    13.93896  1.51313  4.63016       0.09516         5514.42869   0.0493  0.08931     0.28922    7.2063     19.15998   3644.63633   -11.48966  1.05808  12677.61812  0.00803  54129.01034  52.77383   3.05461  21.74506  54182.23835 
    14.01808  1.64811  5.00759       0.16165         5157.52602  0.07934  0.09909     0.15713   6.43476     17.56457   7718.83672   -11.51824  1.04419  12377.94874   0.0002  54128.98176  52.74142   4.78629   21.7318      54179.5 
    14.07746  1.79759  5.51356       0.09367         5746.92042  0.10533  0.06984      0.2003   9.73263     19.32104   3514.52502   -11.60325  1.22504  12112.99121  0.01164  54128.89675   52.7637   6.98399  21.72013      54179.5 
    13.91982  1.46038  4.88754       0.03551         5771.53833  0.33411  0.14057     0.10146   4.82702     18.38831   5064.89963   -11.66555  1.23245  13105.86191  0.00136  54128.83445  52.76004  18.76607  21.71907      54179.5 
    13.94902  1.55221  4.89422       0.01787         4860.72903  0.20406  0.15069     0.28597   4.68267     16.30434   4247.13898   -11.04776  1.27039  13394.97862    1e-05  54129.45224  52.77558  11.37151  21.72584  54182.23835 
    13.91713  1.53579  4.66737       0.26697         2788.89259  0.07458  0.23586     0.47286   2.56357     19.30399   6477.40698   -11.46591  1.09421  13113.35552  0.01119  54129.03409  52.68329   3.50624   21.7476      54179.5 
    14.18053  2.06405  5.92637       0.04315         5951.54194   0.1372  0.11923     0.06504   5.23756     18.55054   5089.24924   -11.97445    0.888  12633.28291  0.00197  54128.52555  52.73717   7.86817  21.72737      54179.5 
    13.91639  1.58153  4.74165       0.10773         5146.96637  0.02496  0.17022     0.35538   3.65021     19.19293   6531.04575   -11.95723  1.28477   12330.6632  0.00866  54128.54277  52.67465   1.30108  21.72132  54182.23835 
    14.32028  1.77019  5.20929       1.70347         2108.03475  0.07208  0.12181      0.3044    5.8421     17.85787   4326.35782   -11.99933  0.44201  14018.46457   0.0004  54128.50067  52.83934   4.24736  21.74062  54182.23835 
    14.10724  1.68583   5.0002       0.08385         5620.37324  0.10547  0.24547     0.17448   2.13084     16.42625   6200.71048   -11.37636  0.64808    13096.952    1e-05  54129.12364  52.65677   4.67657  21.75107  54182.23835 
    13.97168  1.71005  5.10807       0.15385         5094.26798  0.00996  0.20392     0.24205   2.39905     18.51958   3529.48104    -10.5632  1.25813  11881.61413  0.00184   54129.9368  52.58866   0.45879  21.75263  54182.23835 
    13.82645  1.54219  4.64097       0.00161          4339.0446  0.10174  0.12453      0.0779    4.1404     16.48269   4122.51597   -11.54776  1.17312  13581.12433    2e-05  54128.95224  52.77347   5.48862  21.74323      54179.5 
    14.18831  1.79684  5.23534       1.11618         2012.28165  0.05596  0.15715     0.14834    4.2931     16.89999   5360.17085   -12.15277  0.62208  13815.27925    4e-05  54128.34723  52.79251   3.04845  21.74104      54179.5 
    14.19694  2.03056   5.9567        0.0696         4487.63628  0.15061  0.15816     0.28623   3.69499     17.11683   6810.66676   -10.95407  0.89947  12252.45144    7e-05  54129.54593  52.67059   7.87694  21.72623      54179.5 
     14.5281  1.91688  5.51176       0.13289         5780.57374  0.10256  0.11979     0.22244   5.02135     19.83541    3206.5326   -11.35513  0.33379   12422.3964  0.03803  54129.14487  52.71791    5.8188  21.76432      54179.5 
