 texplosion  fnickel    Pspin  log(Bfield)      Mns  thetaPB   mejecta    kappa  kappagamma      vejecta  temperature    alpha  cutoff_wavelength  log(nhhost)      A_V         MJD0  kenergy  mnickel            TSD   log(L0)  Peak_mag     Peak_MJD  log(E_rad)  log(Peak_lum)  Rise_Time    E_fold  tau_1  delta_m15     r_peak     frac 
  -12.48836  0.05513  5.29099     14.15728  1.88725  0.60724    3.0909  0.19337     0.22201  14252.51374   4263.81024   0.9433         2273.28728      16.8782    4e-05  54128.01164  3.74537  0.17041  2377751.78617  44.72143  21.72431  54180.82821    50.92116       44.12775   29.80456  52.83536   50.0    0.24941  -21.26193   0.9771 
  -12.61576  0.05056  5.12614     13.91678  1.81995  1.50884   3.55745  0.18563     0.47014  14598.26735   4148.61104  0.04806         2405.95403     17.73035   0.0003  54127.88424   4.5224  0.17987  6514690.20494  44.29543  21.71362  54180.82821    50.94083       44.13039   28.44981  54.19011   51.0    0.26568  -21.29127  0.97623 
  -12.26042  0.13418  5.10569     14.11616  1.71994  0.66957   3.36807  0.17216     0.22503  13557.93603   4214.63422  0.12158         5051.51848     16.71045    3e-05  54128.23958  3.69314  0.45192  2438458.65476  44.70114  21.76377  54180.82821    50.90645       44.12878    29.0486   47.1827   50.5    0.26226  -21.24776   0.9382 
  -11.67597  0.00514  4.69644     13.93226  1.56907  1.00929   1.76119  0.27686     0.37516  11816.32748   3753.62364  0.39916         4815.20583     19.02603   0.0059  54128.82403  1.46689  0.00905  4390152.58024  44.47847  21.69132  54180.82821    50.92886        44.1489    29.0486  52.23656   52.0    0.26072  -21.22236  0.99873 
   -11.7816  0.09642  4.61922     13.84913  1.47762  1.37543   4.15478  0.12329     0.30576  12123.20509   4867.65385  0.41527         4751.00584     17.03744    6e-05   54128.7184  3.64259   0.4006  5864803.73147  44.34102  21.72334  54180.82821     50.9376       44.14031    29.0486  52.23656   53.0    0.26186  -21.23142  0.94366 
  -12.67154  0.05414   4.6015      13.8691  1.63293   0.9227   3.07507  0.17289      0.1545  14416.35476   5321.00978   0.0296         3789.81873     18.67864  0.00265  54127.82846  3.81236  0.16649   5866423.5893  44.38764  21.71835  54180.82821    50.92002       44.14721    29.0486  49.40239   52.5     0.2377  -21.27779  0.97872 
  -12.07638  0.05239   5.1005     14.04419  1.72294  1.03157   5.79038  0.10959     0.20148  12195.19568    5436.7246  0.37414         4902.81815     17.73465   0.0003  54128.42362  5.13702  0.30335  3395696.05479  44.55896   21.7333  54180.82821    50.92388       44.14142   29.80456  46.06159   51.5     0.2764  -21.25196  0.95838 
  -11.85506  0.07654  5.14125     14.01907  1.72051  0.96876   5.03314   0.1101     0.16282  12669.85105   5003.26996  0.29277          4429.9702       18.365  0.00129  54128.64494  4.81958  0.38523  3867805.24842   44.4949  21.73128  54180.82821    50.92259       44.14034    29.0486  49.40239   53.0    0.26156  -21.22458  0.94641 
  -11.88469  0.29807   5.2975     14.01507  1.73683  0.94225   3.74001  0.15949     0.18967  13613.45518   4613.92851  0.14295         5302.05377     18.35931  0.00127  54128.61531  4.13463  1.11479  4222508.58349  44.43489   21.7258  54180.82821    50.93544       44.11894   31.15931  52.83536   51.5    0.25419  -21.26887  0.85283 
  -12.47018  0.05584  5.12853     14.21052  1.79687  0.51258   3.72102  0.17334     0.34269  14111.24256   4422.26004  0.64101         2759.11024     17.60858  0.00023  54128.02982  4.41997  0.20776  1664490.23764  44.88209  21.74027  54180.82821    50.90124       44.12592   28.44981  47.41634   52.5    0.25906  -21.27145  0.97203 
  -12.40546  0.07259  4.97033     14.18297  1.70855  0.51098   2.62957  0.20303     0.34485  13757.19035   5199.32155    0.096         4382.25557     18.12775  0.00075  54128.09454  2.96873  0.19088   1687611.8872  44.88143  21.71785  54180.82821    50.95718       44.14198   29.80456   48.7711   58.0    0.25446  -21.24102  0.97393 
  -12.87023  0.03811    5.094     14.37542  1.73092   0.3774   6.76143  0.09237      0.1913  12366.96041    3396.8913  0.31213         4729.10252     16.95459    5e-05  54127.62977  6.16868  0.25768   740240.35277  45.22363  21.74136  54180.82821    50.90044       44.13657    29.0486   48.1723   51.0    0.26478  -21.23445  0.96452 
  -11.92541  0.12971  4.95103     14.06678  1.58158   0.8485   7.29414  0.08075     0.10023  11199.24113   4906.84236  0.56612         5358.65759     18.09801   0.0007  54128.57459  5.45731  0.94615  2646938.39774   44.6558  21.73631  54180.82821    50.95675       44.14247   29.80456  52.83536   51.5    0.26808  -21.28549  0.87336 
  -12.83091  0.05786  5.70647     14.27289  2.06388  0.55439   3.19976  0.21479     0.27958  14247.74217   4180.59707  1.31503         2311.39973     17.85569   0.0004  54127.66909  3.87469  0.18513  1776043.83398  44.82134  21.74111      54179.5    50.88271       44.13673   28.44981  46.06159   50.5    0.25876  -21.26559  0.97487 
   -11.6035  0.12913  5.12292     14.04601  1.68226  1.03629   4.49384  0.13211     0.19614  11770.33118   4878.14145  0.44182         4609.34063     16.28466    1e-05   54128.8965  3.71383  0.58031  3316823.83808  44.55498  21.73249  54180.82821    50.93036       44.11813   31.15931  52.83536   50.0    0.27304  -21.22278  0.92018 
  -12.63579  0.23519  5.41565     13.99328  1.89191  1.27232   3.18008  0.22318     0.45442  14661.06934   3069.89745  0.39817         2078.14542     19.65665   0.0252  54127.86421  4.07753  0.74792  5314378.48201  44.35299  21.70139      54179.5    50.90483       44.15648   25.92948  44.90609   50.5    0.26759  -21.31033  0.90406 
  -11.83862   0.1996  4.25864     13.77161  1.38356  1.01741   2.42379  0.25053     0.31363  15016.98666   4771.42159  1.67829         2288.76285     17.91282  0.00045  54128.66138  3.26052  0.48378  6670114.97605  44.32717  21.74652  54180.82821    50.95267       44.14025   27.69385  45.46279   53.0    0.25817  -21.28837  0.93546 
  -12.72609  0.02958  4.88852      13.8604  1.74567  1.22745   2.44197  0.22186     0.19271   14011.1089   3559.47619  0.08815         5703.69828     16.30737    1e-05  54127.77391  2.85965  0.07224  7367877.30216  44.26511  21.73883  54180.82821    50.93498       44.12806   29.80456  54.19011   48.0    0.24576  -21.27788  0.99051 
  -12.22062  0.03305  4.96602     14.08519  1.85478  0.92393     9.314  0.07102     0.07935  12689.80889   4535.52251   0.3952         4560.25956     20.26945  0.10332  54128.27938  8.94692  0.30785  2869061.31005  44.68738  21.71318  54180.82821    50.95062       44.14997    29.0486  50.88181   49.0    0.25977  -21.38772  0.96393 
  -12.16413  0.02639  4.71461     13.87682  1.68389   1.1503    2.9993  0.17288     0.28704  14105.79565   5084.04958  0.10757         5442.16315     19.83869  0.03832  54128.33587  3.55994  0.07914  6128772.93301  44.36089  21.72739  54180.82821    50.95448       44.14307   29.80456   51.4806   56.5    0.25551  -21.32266  0.98988 
    -12.122  0.17465  5.20926     14.03917  1.68426  0.99451   7.14095  0.08489      0.1967  12365.84181   4899.86295  0.35944         5580.25256     18.74281  0.00307    54128.378  6.51374  1.24716  3543454.52581  44.51228  21.73626  54180.82821    50.92379        44.1164   31.15931   51.4806   52.5    0.26109  -21.30692  0.83804 
  -13.18021  0.03695  4.83572     13.84996  1.69588  1.47999   3.13474  0.19782     0.45875    14652.095   5009.30214  0.00162         4236.95726     16.80446    4e-05  54127.31979  4.01446  0.11581  7348650.62428  44.26311  21.74626  54180.82821     50.9063       44.14144    29.0486   48.1723   57.5    0.25284  -21.28442  0.98465 
  -12.49271  0.04605  4.79124     13.88124  1.69779  1.08619   2.81827  0.20227     0.22752  14258.32836   3819.68268  0.14351         5334.67533     17.28559  0.00011  54128.00729   3.4178  0.12978  6253336.50758  44.34172  21.70808      54179.5    50.95604       44.21168   25.92948  45.87241   50.5    0.25349  -21.31463   0.9831 
  -11.82974  0.08313  5.60626     14.11614  2.02902  0.74431   2.78109  0.22212     0.23577  14870.80176   4699.19461  2.27888         2248.39074     16.84423    4e-05  54128.67026  3.66869   0.2312  3468686.72224  44.53862  21.73572  54180.82821     50.8974       44.13292   29.80456  48.64644   50.0     0.2516  -21.28427  0.96884 
  -12.88734  0.08434  5.15645     13.98889  1.80606  0.98116   3.30562  0.18951      0.3867  14083.37866   3657.05232  0.45055         2002.47096     16.29784    1e-05  54127.61266  3.91106   0.2788  4693280.59788   44.4294  21.73094  54180.82821    50.95002       44.13281   29.80456  52.83536   52.5    0.26086  -21.25645  0.96274 
    -11.515  0.02709  4.63424     13.86724   1.5667  0.98012     2.659  0.22078     0.34915  14194.45481   3456.62981  4.83075         2102.17093      16.2416    1e-05    54128.985  3.19582  0.07202  5758008.51616   44.3716   21.7128  54180.82821    50.91247       44.14273   27.69385  45.46279   53.0    0.24178  -21.24714  0.99003 
  -12.06313  0.07331  4.67742     13.91065   1.5909  1.08861   3.48028  0.17264     0.28259  13583.16773   5013.76049  0.20029         4901.82873     19.31828  0.01156  54128.43687  3.83039  0.25513  4877101.22976  44.44231  21.71631  54180.82821    50.96611       44.16742    29.0486  49.40239   52.5    0.26349  -21.30037   0.9662 
  -12.75374  0.05065  5.03113     14.05891  1.75746  0.75758    3.4744  0.21839     0.36649  14430.85981   4590.72076  1.11176          2429.8464     17.39336  0.00014  54127.74626   4.3161  0.17599  3149291.35495  44.61219  21.73836      54179.5    50.89499       44.13243   28.44981   48.7711   50.5    0.25656  -21.28497  0.97638 
  -12.81096   0.1036  5.70692     14.17594  2.13173  0.64159   2.93866  0.20275     0.20194  14725.18455    3089.6415  1.04263         2107.28647     17.48287  0.00017  54127.68904    3.801  0.30444  2867259.51221  44.62731  21.71409  54180.82821    50.93856       44.14626    29.0486   48.1723   50.0    0.24075  -21.28495  0.96064 
  -12.47824   0.0583  4.79741     14.00316  1.64579  0.74039    2.9715   0.2161     0.30536   14354.9534   4569.07075  1.81659         2289.40329     18.63448  0.00239  54128.02176  3.65264  0.17324  3466519.78703  44.58331  21.72303  54180.82821    50.96004       44.15916   29.80456   51.4806   51.5    0.25215  -21.27171  0.97654 
  -12.85835  0.06255  5.14392     13.95874  1.81193  1.16517   2.73352   0.2393     0.33466   14308.8241    5058.8435  0.28954         2046.24297     17.02945    6e-05  54127.64165  3.33855  0.17099  5383400.23375  44.37334  21.71676  54180.82821    50.93607       44.14764   28.44981  50.00119   53.0    0.25664  -21.27179  0.97711 
  -12.53753  0.13294  5.82652     14.04553  2.10565  1.13711   3.00169  0.21132     0.46414  14591.67944   3883.18939  0.89463         2042.14776     17.86102   0.0004  54127.96247  3.81245  0.39903  5382276.74616  44.33045  21.73289  54180.82821    50.92529       44.12815   29.80456   51.4806   52.5    0.25554  -21.27558   0.9467 
   -12.7047  0.08736  4.95872     13.99045  1.77598  1.01189   3.53966  0.17058     0.28922   13649.9952   4864.13761  0.07901         5291.73147     20.08958  0.06828   54127.7953  3.93418  0.30923  4237396.45933  44.50045  21.72406  54180.82821    50.92439       44.14197    29.0486  45.46279   53.0      0.256  -21.31435  0.96116 
  -12.39077  0.04437  4.91414     14.03002  1.72791  0.86972   3.03357   0.2358       0.255  14205.24306   4440.60365  0.16363         4355.52403     19.08172  0.00671  54128.10923  3.65157   0.1346  3374300.51578  44.59529  21.73666  54180.82821    50.97865       44.18993   29.80456   51.4806   47.0    0.26369  -21.31773  0.98234 
  -12.67868  0.02946  5.11427     14.06713  1.83629  0.69263    2.3513  0.20221     0.19384  13086.42246   3901.69554  0.23957         5203.78642     16.40944    1e-05  54127.82132  2.40202  0.06927  3273968.29295  44.60015  21.71619  54180.82821    50.94177       44.14986    29.0486  49.52705   51.0    0.24199  -21.26357  0.99077 
  -13.46246  0.05661  5.62766     14.23165  2.03901  0.63883   2.84954  0.26804     0.40061  14373.54484   4432.37544  0.25355         2460.93581     17.01917    6e-05  54127.03754   3.5118   0.1613  2063417.41063  44.76302  21.69762  54180.82821    50.91858        44.1515   27.69385   47.1827   49.0    0.25592  -21.27453  0.97835 
  -12.87642  0.06619  4.90494     14.00228  1.70449  0.83252   3.43681  0.18521     0.22829  14052.31636   3819.07775  0.14577         4943.64527     18.77749  0.00333  54127.62358  4.04835  0.22748  3768096.53957  44.54305  21.75483  54180.82821     50.9451       44.14112   31.15931   51.4806   50.0    0.25694  -21.29709   0.9698 
  -12.62031  0.14941  5.26847     14.03758  1.90492  0.79185   2.37835  0.23724     0.24069  14835.56711   3671.82246  0.27844         2000.29321     18.18168  0.00084  54127.87969  3.12256  0.35535  4129458.69938  44.48946  21.74501  54180.82821    50.94117       44.13635    29.0486  49.52705   49.0    0.25369  -21.28798  0.95409 
  -11.95416  0.05671  4.96109     13.94111  1.70569  0.96188   3.89826  0.17014     0.26503  14293.47508   4162.22135  2.84213         2280.71357      16.0796    1e-05  54128.54584  4.75088  0.22108  5112637.36908  44.40095  21.72272  54180.82821     50.8997       44.12964   28.44981  46.06159   52.0     0.2463  -21.26663  0.96984 
  -12.35875  0.02562  4.61459     14.02918  1.58677  0.64965   3.25372  0.18553     0.44963  14068.60494   4519.19008  0.96155         2432.30191     19.70572  0.02821  54128.14125  3.84158  0.08337  2743083.11119  44.70285  21.73139  54180.82821    50.91505       44.13979    29.0486  49.52705   53.5    0.25097   -21.2722  0.98885 
  -12.07611  0.07105  4.89343     13.96571  1.76428  0.79314    5.0525  0.08418     0.06934  13409.84659   4535.53738  0.13181         5277.10515      19.7068  0.02828  54128.42389  5.41978  0.35899  4593986.39371    44.474  21.73592  54180.82821    50.90865       44.13407    29.0486  49.40239   49.0    0.22436  -21.26864  0.95487 
  -13.01194  0.01497  5.55956     14.24677  2.03483  0.54569   2.55703  0.25803     0.18663  14069.02365    5590.7587  1.81775         2232.45843      18.5949  0.00219  54127.48806  3.01919  0.03827  1874482.25089  44.81441  21.73423  54180.82821    50.92767       44.15003   28.44981   48.7711   50.5    0.25365  -21.26084  0.99484 
  -12.62475  0.26139  5.39198     14.35725  1.84968  0.36877   3.67068  0.16031     0.14883  14315.07136   4925.69699  0.03689         4857.76485      17.8783  0.00042  54127.87525  4.48705  0.95948   963612.43837  45.08854  21.73558  54180.82821    50.89369       44.13215    29.0486   48.1723   51.5    0.24509  -21.27399   0.8762 
  -12.16192  0.01925  4.89095     14.02049  1.67253  0.95226   3.28398  0.19234     0.34011  12948.92445   4368.09705  0.28248         4597.30611     17.81601  0.00036  54128.33808   3.2847   0.0632  3380630.48285  44.58443  21.71872  54180.82821    50.91074       44.13595   29.80456  50.12585   48.0    0.27279  -21.26524  0.99135 
  -11.74194  0.02568  5.33887     13.94384  1.86335  1.32871   2.66449  0.17311     0.22502   12420.6621   5402.60243  0.39638         4607.56423     18.28155  0.00106  54128.75806  2.45206  0.06842  6387383.19295  44.27892  21.73106  54180.82821    50.93437       44.14242   29.80456  46.06159   57.0    0.25053  -21.22673  0.99037 
  -12.20618  0.06541  4.33403     13.83163  1.46688  1.15969   2.71167  0.19584     0.31045  13264.96635   5322.63161  0.15037         4445.03867     19.94275  0.04869  54128.29382  2.84627  0.17738  5555691.75765  44.41672  21.73726  54180.82821    50.90981       44.13604   27.69385  45.46279   56.5    0.26749   -21.2777  0.97694 
  -12.27376  0.18209  4.98818     14.55268  1.54574   0.2312   7.40405   0.0793     0.24928  12110.84779   4275.66094  0.35131         5495.08326     16.88251    4e-05  54128.22624  6.47807  1.34821   280202.05461  45.61463  21.71829  54180.82821    50.94518       44.13894   29.80456  52.83536   54.0    0.25965  -21.26665  0.82102 
  -12.58744   0.0618  4.75754     13.82367  1.69183  1.25415   2.41854  0.21568     0.19724  14108.01736   3878.22315  0.13454         5187.89482     17.41146  0.00014  54127.91256  2.87152  0.14947  8009497.78756  44.23883  21.75428  54180.82821    50.91029       44.11645   29.80456  52.83536   49.0     0.2491  -21.29129  0.98063 
  -12.86534  0.02813  4.64441     14.28788  1.58481  0.37229    2.9267  0.19962     0.22559  12695.04596   5242.33477  0.30635         5843.83606     16.93125    5e-05  54127.63466  2.81368  0.08234    843131.8983  45.20907  21.72818  54180.82821     50.9521        44.1405    29.0486  50.88181   52.5    0.26858  -21.30997  0.98892 
  -12.33957  0.02735  4.67316     13.83863  1.60562  1.26128   3.72028  0.15371     0.21919  14245.11014   4616.09482  0.06357         2433.16764     16.21585    1e-05  54128.16043  4.50334  0.10174  6845767.88036  44.29984  21.72061  54180.82821    50.92306       44.13963   29.80456   51.4806   51.0    0.25159  -21.25729  0.98632 
  -12.44548  0.07305  4.77602     13.93019  1.61329  1.03651    3.5999  0.19911     0.27949  14410.74089   4913.53979  0.66999         2387.80523     17.37148  0.00013  54128.05452  4.45954  0.26298  4712888.88312  44.44514    21.694      54179.5    50.94003       44.14384   27.69385  53.59131   51.0    0.26344  -21.27746  0.96444 
  -12.19957  0.21338   4.8154     13.87588   1.5981  1.18844   3.82422  0.18865      0.2302  14739.64449   4196.03446  0.75838         2282.99067     17.86059   0.0004  54128.30043  4.95615  0.81601  6094335.31609  44.32226  21.72085  54180.82821    50.96671       44.15932    29.0486  50.88181   50.0    0.25539  -21.30003    0.894 
  -13.30398  0.18629  4.94933     14.37859  1.73471  0.32971   2.67332  0.24071     0.22255  14244.83874   4102.14105  0.01366         2162.52926     19.78285   0.0337  54127.19602  3.23589  0.49802   690171.28897  45.28002  21.72938  54180.82821    50.93557       44.12606   29.80456  55.54486   48.0    0.25516  -21.29922  0.93678 
  -12.18553  0.02806  5.13467     13.93372  1.81607  1.20665   2.68465  0.20034     0.25526  13479.99923   4373.74524  0.13855         5446.53254     17.14134    8e-05  54128.31447  2.91002  0.07533  6032950.44932  44.32642  21.70764  54180.82821    50.96881       44.15977    29.0486  50.88181   51.5    0.25197  -21.26451  0.98981 
  -12.35333  0.29672  5.40218     14.01383  1.85077  1.07331   3.26195  0.22249     0.26288  15175.00721   3485.72443  0.33645          2113.3079     19.36016  0.01273  54128.14667  4.48087  0.96788  4705860.62328  44.39842  21.70087  54180.82821    50.94269       44.15422   27.09505  44.70684   48.0    0.27064  -21.32533  0.87606 
  -11.91704  0.05603  4.33698     13.87601  1.54469  0.91647   1.63402   0.2823     0.30501  13582.14477   4786.61804  0.16036         5737.87385     20.14774  0.07807  54128.58296  1.79813  0.09156  4775396.22844   44.5043  21.71824  54180.82821    50.90615       44.14511   27.69385  46.81755   50.0    0.25604  -21.35028  0.98874 
  -12.72331  0.40425  5.73932     14.24102  1.95032  0.59664   2.55986  0.27217     0.44501  14477.72833    3282.1904  0.65605         2149.22679     16.01252    1e-05  54127.77669   3.2007  1.03483  1966072.62712  44.74763  21.73501  54180.82821    50.93551        44.1247   29.80456  52.83536   52.0    0.25972  -21.26984  0.86342 
  -12.83362  0.14091  4.86013     13.91917  1.62766   1.2312   2.20151  0.28548     0.43894  13076.09963    4639.3921  0.27235         4988.15991     16.32151    1e-05  54127.66638  2.24545  0.31021  5179978.26989  44.39279  21.72897  54180.82821    50.91643       44.13691    29.0486  50.88181   50.5    0.27481  -21.27319   0.9576 
