 log(Bfield)      Mns    Pspin  cutoff_power  cutoff_wavelength  fnickel    kappa  kappagamma   mejecta  log(nhhost)  temperature  texplosion  thetaPB     vejecta      A_V        MJD_0   log(KE)      M_Ni  Peak_mag     Peak_MJD 
    13.31954  1.71403  1.70025       0.04893           3675.679  0.03283  0.02034      0.0102  11.16076     21.09539   8831.11306    -3.00369  1.09743  7358.54138  0.69201  56022.32431  52.34356   2.24203  16.94966  56094.72743 
    13.37719  1.96862     1.92       0.03839         3057.92945  0.01289   0.0221     0.01005  10.80657     21.07082   9019.28281    -2.42326  1.05722  7643.09743  0.65395  56022.90474  52.37354   0.87428  16.94491     56098.03 
    13.63983  1.86887  1.79078       0.02376         4552.93753  0.04099  0.02356     0.01158   9.98557     21.10967   9902.75928    -2.45271  0.43899  7572.01545  0.71515  56022.87529  52.35804   2.73344  16.94026  56094.72743 
    13.36623  1.76877  1.76906       0.02123         2816.19564  0.12508  0.02498     0.01232   9.84887     21.11025   5532.75912    -3.14762  0.88249  7807.31514   0.7161  56022.18038  52.38332   8.31554  16.92481  56094.72743 
    13.50727  1.79489  1.79071       0.00114         5697.69146  0.01632  0.02145     0.01027  11.49694     21.08818   5388.24317    -2.38645  0.64229  7546.90067  0.68063  56022.94155  52.36823   1.12128  16.95077     56098.52 
    13.20995  1.58127  1.62221        0.0013          5587.2309  0.38783  0.02119     0.01092  11.07231     21.10699   9948.41771    -2.87722  1.47946  7505.51019  0.71075  56022.45078     52.36   26.4393   16.9763     56098.03 
    13.44554  1.85239  1.76208       0.03373         2034.43249   0.1336   0.0205     0.01116  12.04002     21.14229   6413.94938    -2.88171  0.90998  7556.17054  0.77093  56022.44629   52.3735   9.26966  16.92484  56094.72743 
    13.42981  1.98307  1.97544       0.02766         5712.35435  0.00213  0.02957     0.01126   8.44083     21.02387    6070.8836     -2.5262  0.81324  7387.98276  0.58694   56022.8018  52.32054   0.13655  16.94077     56098.03 
    13.47218  1.61856  1.63321       0.00147         2834.77381  0.08431   0.0218     0.01032  11.10592     21.10089   3638.41984    -2.49412  0.60946   7399.8639  0.70084  56022.83388  52.34797   5.75121  16.92576  56094.72743 
    13.30923  1.45038  1.38208       0.02199          2161.9815  0.04732  0.01799     0.01018  12.91596     21.16576   6693.25327    -2.58464  0.76348  7772.03953  0.81374  56022.74336  52.40427    3.3317  16.98416     56098.03 
    13.31277  1.73758  1.85678       0.00686         4386.53343  0.32046  0.02323     0.01057   10.8666     21.06697   3107.17261    -2.46947  1.14998  7631.13938  0.64818  56022.85853  52.37269   21.7596  16.93788  56094.72743 
    13.13608  1.55836   1.5375       0.00504         3165.44596   0.0746  0.02809     0.01029    9.0805     21.08169   3572.90525    -2.84873  1.33353  7719.55605  0.67054  56022.47927  52.36576   4.87171  16.95228     56098.03 
    13.68354  1.83646  1.80613       0.00604         2239.15877   0.0154  0.01836     0.01001  12.63594     21.09506   9899.10061    -3.01075  0.40346  7793.63748   0.6915  56022.31725  52.40472   1.07918  16.95635  56094.72743 
    13.29952  1.84518  1.75754       0.03003         3936.96401  0.04799  0.02326     0.01057   9.61736     21.09556   9265.54854    -2.90794  1.01526  7702.85779  0.69229  56022.42006  52.36937   3.17373  17.00971     56098.03 
    13.43677  1.97214  1.93144       0.00615         2090.42184  0.00162  0.02854     0.01113   9.03813      21.0456   6789.14092    -2.02262  0.84416  7594.56143  0.61707  56023.30538  52.35113   0.10536  16.98683     56098.03 
    13.33608  1.69407  1.66501       0.00976         3307.49952  0.02853  0.02544     0.01046  10.20263     21.08632   7815.19171    -1.82622  0.86645  7656.24858  0.67771  56023.50178  52.36967   1.91145  16.94665     56098.03 
    13.38021  1.68727  1.66508        0.0014         4647.19055  0.00333  0.02105     0.01047  11.88373      21.1053   5641.10446     -3.2725  0.78772  7836.88296  0.70799   56022.0555  52.40399   0.23027  16.97942  56094.72743 
    13.51351  1.71415  1.64757       0.04989         2543.88932  0.02754  0.01784     0.01065  14.36823     21.16082   8779.78679    -2.60121  0.64405  7985.64666  0.80454  56022.72679  52.43723   1.98163  16.94562     56098.03 
    13.22631  1.53908  1.43259       0.01121         2514.46111  0.16383  0.01813     0.01018   11.9624     21.17417   3315.90515    -1.99859  0.95578  7858.83483  0.82965  56023.32941  52.40702  11.35179  16.99279     56098.03 
    13.31295  1.86712  1.93695       0.02714         4495.10769  0.32626  0.02992     0.01391   8.52638     21.05254   9462.09231    -2.65996  1.37327  7997.59843  0.62699  56022.66804  52.39039  21.00908  16.93095  56094.72743 
    13.29185  1.84774  1.54342       0.00225         2230.18225  0.27602   0.0174     0.01153  14.13842      21.2327   3980.21105     -1.8207  1.53452   8514.6197  0.94936   56023.5073  52.49153  19.79276  16.95278  56094.72743 
    13.62684  1.89368  1.76882       0.00808         3099.84474  0.00968  0.02174     0.01017   11.2769     21.12423    5573.7021    -2.32012  0.45891  7674.71687  0.73953  56023.00788  52.38105   0.66275  16.94158  56094.72743 
     13.2423  1.69185  1.67063        0.0106          3389.5944  0.16495  0.02321     0.01009  10.57934     21.09065   7218.49152    -2.18584  1.20516  7523.77934   0.6845  56023.14216   52.3579  11.13668  16.94417     56098.03 
    13.20408  1.51998  1.49561        0.0024         3649.77948  0.00227  0.02571     0.01168  10.17588     21.13407   5263.21667    -2.48464  1.10251   7800.1847  0.75648  56022.84336   52.3856   0.15185  16.94271     56098.03 
    13.34842  1.66257  1.72366       0.00668         4032.50117  0.00232  0.01805     0.01188  13.16379     21.12544   4036.81595    -2.79087  1.05962   7672.3416  0.74159  56022.53713  52.39475   0.16412  16.95097     56098.03 
    13.37126  1.98598  1.80327       0.00326          4259.6924  0.00137  0.02176     0.01076  11.04344     21.14901   9104.80994    -3.09876  1.13726  7668.92433  0.78295  56022.22924  52.37847   0.09356  16.95863     56098.03 
    13.41174  1.82304   1.6858       0.00219         4519.84204  0.00107   0.0234     0.01109  10.92532     21.13913   8013.90826    -3.06055  0.77237  7843.60918  0.76534  56022.26745  52.39704   0.07256  16.91749  56094.72743 
    13.43336  1.87951  1.80793       0.05385         4191.37431  0.00782  0.02149       0.011  10.07878     21.10302   3173.05769    -2.38341  0.74665   7437.1902  0.70429  56022.94459  52.34331   0.52229  16.96123  56094.72743 
    13.37179   1.8941  2.01911       0.06844         2540.36243  0.37752  0.02349     0.01017   10.1759      21.0319   8651.80732     -2.0931  1.11544  7266.72865   0.5979   56023.2349  52.32407   25.2758  16.97174     56098.03 
    13.29105  1.70499  1.79382       0.07423          2112.7785  0.25304  0.02583     0.01252    9.9181     21.08269   7669.23457    -2.83301  1.22583  7540.09941  0.67208  56022.49499  52.35373  16.84791  16.92484  56094.72743 
    13.52408  1.43898  1.44015        0.0358         3440.37008  0.00187  0.02433     0.01013   9.25053     21.07704   5036.36572    -2.08229  0.33401   7858.4788  0.66339  56023.24571  52.38303   0.12259  16.93923  56094.72743 
    13.25931  1.63693  1.71911       0.18407         2226.40688  0.03073   0.0183     0.01077  11.83675      21.0634   5981.43884    -2.40463  1.17091  7649.59191  0.64288  56022.92337  52.38262    2.1249  16.94791  56094.72743 
    13.55326   1.7834  1.63092       0.02129         4249.38789  0.09388  0.02025     0.01085  11.51165     21.15957   9833.15289    -2.50606  0.50966  7865.35566  0.80223  56022.82194  52.40425   6.45279  16.97972  56094.72743 
    13.24665  1.55428  1.74349       0.00537         2335.48571  0.00125   0.0226     0.01233  11.00421     21.03928   5929.42844    -2.72626  1.41154  7460.73211  0.60814  56022.60174  52.35423    0.0852  16.98465    56098.299 
    13.77511  1.44376  1.37928       0.00096          2595.6045  0.48654  0.01994      0.0101   13.0145     21.20053   8606.18265    -2.08425  0.23531  7851.27701  0.88156  56023.24375  52.41376  34.30585  16.98535  56094.72743 
    13.62033  1.90008  1.59905       0.00069         2865.45954  0.00298  0.02459     0.01036  10.21099     21.16106   3052.71541    -2.25172  0.38612  8178.22783  0.80499  56023.07628  52.42703   0.19993  16.93408     56098.03 
    13.34801  1.52435  1.55067       0.01832         2504.47944  0.02826  0.02019     0.01035  11.73946     21.11843   8418.53922     -2.1632  0.78705  7468.16504  0.72973   56023.1648  52.36103   1.95072  16.95194     56098.03 
    13.37728  1.78216  1.70546       0.00997         3236.01229  0.00781  0.02158     0.01031   11.4054     21.13066    3697.3474    -2.39967  0.92373  7462.28148  0.75057  56022.92833  52.35771   0.53573  16.98432  56094.72743 
    13.18501  1.55819   1.5076       0.01224         2137.37082   0.0146  0.02438     0.01243   9.51163     21.10703   7916.38658    -2.14512  1.18626  8052.41011  0.71082  56023.18288  52.40686   0.96303  16.99785     56098.03 
    13.63442  1.92639  1.99885       0.06438          3050.4805  0.01519  0.02502     0.01098   9.88117     21.03475   6242.32232    -2.81841  0.49886  7567.87157  0.60183  56022.50959  52.35657   1.01032  16.94716  56094.72743 
    13.34979  1.80472  1.81262       0.00219         4164.48988  0.44979  0.02109     0.01033   11.5777     21.12823   8682.38246    -1.95891  1.08506  7423.98462  0.74637  56023.36909  52.35461   30.9538  16.95429     56098.03 
    13.37122  1.58244  1.66807       0.00416         5288.73624  0.00393   0.0327       0.016    8.0676     21.08547   9393.99896    -2.33762  0.73539  8024.25832  0.67639  56022.99038  52.38786   0.24962  16.95517     56098.03 
     13.3944  1.93209  1.98567       0.01981         5560.72032  0.03383   0.0251     0.01391   9.94465     21.07755   8556.41413    -2.89066  1.36677  7631.24905  0.66417  56022.43734  52.36442   2.25367  16.94891     56098.03 
    13.15174  1.59035  1.45921       0.00373         2419.58787  0.00444  0.02008     0.01043  11.53896     21.16842   6399.99692    -2.75178  1.37435  7887.29441  0.81875  56022.57622  52.40688    0.3054  16.90963  56094.72743 
    13.31333  1.73244  1.67506       0.00642         3999.61053   0.0173  0.02233     0.01043  11.67477     21.13162   7636.18504    -2.22362  0.98952  7996.18767  0.75222  56023.10438  52.41986   1.19256  16.98407  56094.72743 
    13.27922  1.91359  1.57185       0.05677         2092.97523  0.00205  0.01875     0.01019  12.26626     21.21022    7390.8261    -2.74072  1.13094  8061.37626  0.90147  56022.58728  52.43139   0.14308    16.981     56098.03 
    13.15354  1.57917  1.52121       0.00042         2833.14682  0.00138  0.02046     0.01006  11.12556     21.10991   6289.52736    -2.27079  1.47436  7772.00655  0.71554  56023.05721  52.39075   0.09425   16.9361  56094.72743 
    13.68126  1.67305  1.74375       0.08828         2888.03728  0.00481  0.02208     0.01021   11.0674      21.0708   8913.77898    -2.75262  0.41127  7196.59718  0.65393  56022.57538  52.32345   0.32767  16.92104     56098.03 
    13.24258  1.79486  1.80714       0.01858          4842.9078  0.00905  0.02652     0.01043  10.12731     21.05497   8454.19121    -2.64116  1.47908  7865.02044  0.63051  56022.68684  52.39234   0.60512  16.93393    56093.434 
    13.39465  1.63609  1.56842       0.02883         2424.21304  0.00206  0.02346     0.01038   10.3255     21.12416   6583.13939    -2.39203  0.65792  7692.73179  0.73942  56022.93597  52.37492   0.13805  16.96006     56098.03 
    13.37909  1.68638  1.48481       0.00137         5699.97173  0.29441  0.01542     0.01059   14.5385     21.21751   6634.47957     -2.2117  0.72013  8199.10677  0.91672   56023.1163  52.46117  21.23042    16.946  56094.72743 
    13.31827  1.55939  1.65645       0.01418         4961.08611  0.01753  0.01787     0.01058  12.20994     21.07611   3856.54698    -2.43341   1.0721   7076.8931  0.66197  56022.89459  52.31784   1.21981  16.92541  56094.72743 
    13.47716  1.79805  1.90219       0.00655         5093.84456  0.12695  0.02844      0.0127   9.17508     21.04724   6895.74211    -2.61319  0.74947  7427.37317   0.6194  56022.71481  52.33324   8.30941  16.93816  56094.72743 
    13.89923  2.09619  2.03341       0.00436           2463.928   0.0737  0.01791     0.01004  13.18743     21.09509   3407.49202    -2.76513  0.29866  7976.28268  0.69154  56022.56287  52.42866   5.21099  16.95693  56094.72743 
    13.48778  1.49235  1.52936       0.08362         2345.26498  0.01603  0.02109     0.01065   10.3048     21.07568   3662.41785    -2.13634  0.46108  7520.93308  0.66131  56023.19166  52.35511   1.07595  16.99289     56098.03 
     13.4348  1.82036  1.80836       0.01528         3954.96397  0.28542  0.02331     0.01157  11.81918     21.13556   5887.18176    -2.77648  0.88439  7828.59613  0.75909  56022.55152  52.40258  19.72753  16.96026     56098.03 
    13.44452  2.02839  2.09584       0.01494            3058.33  0.35088  0.02402     0.01011  11.17852     21.05586   8281.69376    -2.27017  0.99117  7672.49226   0.6318  56023.05783  52.37999  23.96915  16.91046  56094.72743 
    13.45219  1.82985  1.64628        0.0011         5906.19661  0.01101   0.0222     0.01052   11.4556     21.17551    4662.4639    -2.66262  0.67538  7861.24657  0.83222  56022.66538  52.40335   0.75611  16.93507  56094.72743 
    13.21267  1.51877  1.52238       0.00802         2949.77805  0.32397  0.02649     0.01079  10.38617     21.14604    8275.3321    -2.59141  1.05223  7693.29903  0.77762  56022.73659  52.37553  21.78602  16.92323     56098.03 
    13.42615  1.81005  1.73258       0.00699         2684.29934  0.00494  0.02509     0.01037  10.28758     21.08663   4279.11791    -2.97776  0.64592  7970.96145  0.67821  56022.35024  52.40544   0.33145  17.01088     56098.52 
     13.2832  1.75012  1.59657       0.02185           3481.286  0.00545  0.02353     0.01075  10.32301     21.14042   8144.25726     -2.6549  0.91113  7933.38939  0.76762   56022.6731  52.40165   0.36574  16.92705  56094.72743 
    13.54048  1.43427  1.45431       0.00142         2710.44607  0.00496  0.02023     0.01017   11.8196     21.12023   3645.19393    -2.63397   0.4375  7497.94913  0.73274  56022.69403   52.3651   0.34313  16.94311     56098.03 
    13.56386  1.73184   1.5093       0.08284         3042.83757  0.04981  0.02016      0.0106  10.88028     21.17288   8644.43183    -3.01101  0.39558   8133.0459   0.8272  56022.31699  52.42813   3.38299  16.91532  56094.72743 
    13.56251  1.82593  1.70204       0.00924         4315.50385  0.18563   0.0176     0.01033    12.781     21.15838   7986.53193    -2.50835  0.56219  7684.03492  0.80003  56022.81965  52.39344  13.04032  16.95211  56094.72743 
    13.65412  1.86682  1.91338       0.04472         2435.78597   0.0108  0.01935      0.0108  12.17848     21.06464   7806.14261    -2.75926  0.49509  7668.06309  0.64472  56022.56874   52.3873   0.75138  16.92492  56094.72743 
    13.49859  1.67152  1.48104       0.03438            3193.16  0.00829  0.01974     0.01005  12.03771     21.17271   8731.80792    -2.42124  0.48546  7869.35686  0.82687  56022.90676  52.40875    0.5751  16.93842  56094.72743 
     13.3625  1.45295  1.52572       0.01008         3243.15972  0.00221  0.02492     0.01062   9.90519     21.10121   4419.13675    -2.83782  0.65128  7434.20125  0.70135  56022.49018  52.34132   0.14708  16.98129    56098.293 
    13.25861  1.59602  1.70057       0.00107         2390.85219  0.03462  0.02583     0.01109   9.39993      21.0532   4974.87224    -2.87628   1.0627  7292.75821  0.62795  56022.45172  52.31967   2.27791  16.94364  56094.72743 
    13.18173  1.56567  1.57101       0.00244         5163.69538  0.03309  0.01957     0.01005  11.92032     21.10366   8767.53813    -2.06142  1.31174  7974.02915  0.70532  56023.26658  52.41934   2.29122  16.94372  56094.72743 
    13.15819  1.49024  1.61281       0.05908          4333.2903  0.00142  0.02914     0.01276   8.62451     21.04672   6441.71195    -2.12414  1.44124   7764.9992  0.61865  56023.20386  52.36587   0.09193  16.97092    56098.299 
    13.30426  1.81889  1.56307       0.01559         2859.51269  0.03016  0.01967     0.01005  11.97978     21.17969   9482.48935    -2.12669   0.9891  7900.25833  0.84027  56023.20131  52.41172   2.09051   16.9651     56098.03 
    13.41959  1.93087  1.85277       0.09472         2537.47433  0.07689  0.02307     0.01006  10.39277     21.10876   9905.41434    -2.91182  0.87297  7500.77573  0.71365  56022.41618  52.35358   5.17145  16.93797  56094.72743 
    13.45417   1.7352  1.79312       0.02167         3294.70578  0.00338  0.02336     0.01076  10.38072     21.06393   8050.82292    -2.50111  0.77943  7265.39998  0.64366  56022.82689  52.32578   0.22757  16.97127     56098.03 
    13.61823  1.86723  1.85685       0.03292         3713.16117  0.00624  0.02084     0.01104  10.58072      21.0795   5250.65537    -2.50406   0.5224  7533.45618  0.66715  56022.82394  52.35902   0.42139  16.94651     56098.03 
    13.27893  1.87191  1.54343       0.00214         3773.75583  0.00605  0.02013     0.01004  12.44667     21.21955   5517.39062    -2.16173  1.10341  8035.79282  0.92105  56023.16627  52.42995   0.42236  16.94669    56098.293 
    13.30838  1.82945  1.82534       0.02092         5065.09508  0.12449   0.0191     0.01123  12.03045     21.10331   4357.84424    -2.48375  1.20215  7973.34578  0.70475  56022.84425   52.4201   8.63602  16.95999  56094.72743 
    13.51965  1.77277  1.78648       0.01251         2220.92743  0.00132  0.02155     0.01086  11.14069     21.10038   9353.76781    -2.60928  0.68432   7267.8917  0.70001  56022.71872  52.33262   0.08978  16.88761     56098.03 
     13.5591   1.7865  1.75259       0.04594         2674.72404  0.24342  0.02461     0.01139   9.96272     21.10843    5865.6883    -2.49721  0.53418  7868.26589  0.71312  56022.83079  52.39116   16.2228   16.9635     56098.03 
     13.3067  1.74087  1.87838       0.01198         2868.11864  0.27541  0.02638     0.01183  10.31667     21.06476   5162.80337    -2.32083   1.5464   7604.1986   0.6449  56023.00717  52.36479  18.49428  16.94293     56098.03 
    13.13918   1.7458   1.6393       0.00647         4922.18149  0.35145  0.02499     0.01065   8.94219     21.07512   9729.22875    -2.87483  1.33063  7954.21672  0.66046  56022.45317  52.39029  22.87365  16.94246     56098.03 
    13.20866  1.58647  1.58414       0.00469          2095.1665  0.00682  0.02652     0.01159   9.85891     21.10327   7024.50509    -2.76626  1.17034  7713.55034  0.70469  56022.56174  52.37292   0.45358  16.99835     56098.03 
    13.10646  1.44942  1.42603       0.01261         2664.15094  0.00989  0.02129     0.01054   11.6097     21.13894   4545.32127     -2.8963  1.50844  7859.42586  0.76501   56022.4317  52.40437   0.68116  16.96944     56098.03 
    13.24875  1.78401  1.67435       0.01321         2601.74803  0.26818  0.01988      0.0106  11.46429     21.14323    5348.9997    -2.48693  1.51788  7696.04408   0.7726  56022.84107  52.38497  18.41776  16.93511     56098.03 
    13.20334  1.66631  1.68574       0.00483         3794.27659  0.01032  0.02351      0.0108   9.41768      21.0489   9541.16874    -2.52827  1.31849  7527.31316  0.62176  56022.79973  52.34735   0.67907  16.98698     56098.03 
     13.3423  2.03121  1.95848       0.01473          2971.5831  0.15949  0.02451     0.01086  10.16519     21.06302     8548.347    -2.36502  1.21468  7942.04691  0.64232  56022.96298  52.40116  10.67559  16.97976     56098.03 
    13.43527  1.72156  1.76025       0.01793         5206.43338  0.00151  0.02466     0.01334   9.53664     21.08801    7321.9482    -2.73014  0.68723  7885.28062  0.68036  56022.59786   52.3889   0.09942  16.96349     56098.03 
