 texplosion  fnickel    Pspin  log(Bfield)      Mns  thetaPB   mejecta    kappa  kappagamma     vejecta  temperature    alpha  cutoff_wavelength  log(nhhost)      A_V         MJD0   kenergy   mnickel             TSD   log(L0)  Peak_mag     Peak_MJD  log(E_rad)  log(Peak_lum)  Rise_Time    E_fold  tau_1  delta_m15     r_peak     frac 
   -7.20105   0.0349  2.22569     13.69728  1.94756  0.60648   8.60591   0.1905     0.01673  7498.75449   8277.42843  0.26049         2391.41734     20.92698  0.46958  56018.12695    2.8867   0.30037   3611444.16232  45.30573  16.83186     56107.44    51.52642        44.5879   59.43725   64.1407   65.0     0.0823  -22.01558  0.99286 
   -6.15836  0.13085  2.00373      13.5303  1.58358  0.94536   11.5391  0.11371     0.02088  7728.99647    8274.9203  0.03318          3624.9434     20.96137  0.50828  56019.16964   4.11193   1.50987   5134886.82668  45.15428  16.81448     56106.06     51.5188       44.56953   57.75749  67.39513   67.0    0.08275  -22.03823  0.96274 
   -6.56386  0.01312  1.85074     13.72224  1.68427  0.50757  14.13434  0.08739     0.01048  6791.28129   8387.56319  0.36739           3368.315     21.06216  0.64104  56018.76414   3.88871   0.18545   1925034.22882  45.67613  16.80787     56107.44     51.7628       44.84729   45.61205  65.12237   71.5     0.0826  -22.11779   0.9963 
   -6.05774  0.00659  1.83518     13.51995  1.65105  0.48872   7.10118   0.2145     0.01345  7975.92008   7495.57502  1.24446           2057.946     20.83676  0.38149  56019.27026   2.69476   0.04678   4710142.03234  45.28621  16.85111    56103.211    51.63589       44.73481   54.13155  59.32358   68.0    0.09209  -21.96054  0.99896 
   -6.93349  0.01655  1.76882     14.10793  2.01414  0.15583    8.8159  0.17189     0.01005  7374.69349   9153.90031   0.6484         2188.43577     21.06153  0.64012  56018.39451   2.86011    0.1459    355967.69563  46.52616   16.8122     56107.44    51.61378       44.68001   57.76381   64.6681   64.5    0.08343  -22.20886  0.99784 
   -5.71748  0.05923  1.91968      13.9313   1.9966  0.44084  15.02687  0.09958     0.01781  7557.10467   9594.53853  0.25719         2638.20534     21.13288  0.75441  56019.61052   5.11925   0.89006    937483.67694  46.03071  16.79749  56103.75509    51.53065        44.5987   57.14461  63.71263   62.5    0.07464  -22.27898  0.98564 
   -6.63182  0.13857  2.04316     13.41307  1.47417  1.06022   9.11839  0.17028     0.01741   7433.9721   7668.35024  0.64445         2705.06802      20.7868  0.34004  56018.69618   3.00599   1.26351   8527717.13035  44.88596  16.92063    56098.293    51.74565       44.85119   45.08825   61.0194   68.0    0.08749  -21.92115   0.9631 
    -7.0394  0.05143  1.68907     13.51226   1.5555  0.51286   9.08696   0.1641     0.01412  8092.05696   8440.03106  0.11628         3381.36605     20.99635  0.55091   56018.2886   3.54947    0.4673   3894593.17676  45.41496     16.91  56100.74244    51.91137       45.06194   35.14425  54.63915   64.0    0.08987  -22.15525  0.99082 
    -6.4928  0.02019  1.71867     13.44429   1.5765  0.66525   6.84929  0.24413     0.01543  7291.35398   8260.22653   0.4165         3380.67477     20.97108  0.51977   56018.8352   2.17215   0.13829   5588845.18348  45.24883  16.80083    56103.228    51.60489        44.6921   54.91002  59.35976   68.0    0.08794  -22.10796  0.99725 
   -6.45973  0.01285  2.08634     13.37876   1.7634  1.10724  11.08561  0.14641      0.0113  7773.13992   8049.70234  0.70699         2629.28883     20.86612  0.40818  56018.86827   3.99558   0.14244  12457318.06315    44.781  16.82635  56100.74244    51.37801       44.43284   57.76381  65.81775   66.0    0.09223  -21.98769  0.99643 
   -6.81326  0.02042  1.97683       13.371   1.8498  1.37503  10.63972  0.10657     0.01251  7395.38659    8832.9968  0.49934         2364.34879     21.03289  0.59926  56018.51474    3.4712   0.21729  12158413.01643  44.85916   16.8304     56106.06    51.48371       44.54591   57.76381   64.6681   68.5    0.08096  -22.10643  0.99554 
   -6.30454  0.04626  1.77418     13.49094  1.76945  1.42469  17.71013  0.08653     0.01386  7433.52519   9273.87027   0.1449         2514.36957     21.10155   0.7019  56019.02346   5.83766   0.81927   5392301.94394  45.28691  16.79289    56103.211    51.61651       44.71109   54.91002  59.35976   64.0    0.07246  -22.23562  0.98645 
   -7.38752  0.07387   1.9647     13.73696  2.00506  0.50116  11.96424  0.14206     0.01463  8076.84729   9112.30424  0.06021         3397.72749     21.09596  0.69293  56017.94048   4.65582   0.88381   2413330.95086  45.60176  16.82568     56106.06    51.58937       44.66751   57.13489  62.57631   61.5    0.07981  -22.28563  0.98452 
   -6.40466  0.12197  1.79753     13.76298  1.82444  0.34193  10.79236  0.10267     0.01134  7775.68453   9080.62439  0.23952         2274.99435     21.07946  0.66709  56018.92334   3.89243   1.31634   1630560.74167  45.80829  16.77983  56106.76773    51.56596       44.63257   60.54445   63.0335   66.0    0.08713  -22.20491  0.97733 
   -7.10054  0.33123  1.73413     13.24358  1.76125  1.17947   7.85299  0.14619     0.01169  7563.67253   8730.86046  0.16209         2783.48942     21.01964  0.58125  56018.22746   2.67996   2.60113  16019533.40363  44.83185  16.86638     56104.02    51.56625       44.62864   57.13489  65.29702   67.5    0.08845  -22.12011  0.95577 
   -6.29042  0.14166  1.83529     13.25855  1.58514  1.10949  10.06397  0.19851     0.01116  8332.11175   7707.35478  0.33072          2358.3264     20.82764  0.37356  56019.03758    4.1678   1.42569  15072875.07913  44.76331  16.76837     56106.06    51.60804        44.6838   57.13489  62.57631   65.0    0.09403   -21.9966    0.968 
   -5.60406  0.38431  1.65239     13.39967  1.27881  1.19431   8.35793  0.16809     0.03233  7418.32191   8054.85858  0.35101         2967.09555     21.00661  0.56407  56019.72394    2.7437   3.21203   5146398.90564  45.22792  16.85123     56104.02     51.4702       44.52002   62.57631  65.22904   72.5    0.07728  -22.07644  0.92956 
    -6.5098  0.01797  2.06248     13.70932  1.62276  0.39744   6.01523  0.21192     0.02292  7812.87327   7874.28969  0.05238         2951.73436     20.81543  0.36321   56018.8182   2.19029   0.10811   2444562.74532  45.46212  16.80671     56104.02    51.50746       44.57475   59.43183  63.00008   68.0    0.09269  -21.91196    0.997 
    -7.2035  0.00513  1.59737     13.13548  1.52538  1.42933   6.55556  0.25461     0.01088  7274.74385   8200.98161  0.52635          2922.8953     20.92717  0.46979   56018.1245   2.06953   0.03361  19366375.54604  44.75837  16.83109     56106.06    51.57034       44.64221   59.43183  63.00008   65.5    0.09116  -21.99752  0.99937 
   -7.66902  0.02967  2.15524     13.82954  1.96428  0.37891    7.3761   0.2823     0.01662  8020.45069   7806.44676  0.28826          2996.4708     20.88872  0.42998  56017.65898   2.83043   0.21882   1857542.07012  45.62612   16.8424  56106.76773    51.67507       44.74973   51.97224  65.00497   64.5    0.09084  -22.03947  0.99508 
   -6.55124   0.0889  1.91668     13.53926  1.61191  0.92812  15.12881  0.08723     0.01368  6987.56108   8657.13761  0.71619         2312.29392     21.02311  0.58592  56018.77676   4.40639   1.34495   4589192.19726  45.24935  16.80757     56104.02    51.50273       44.56825   60.54445  63.03712   70.5    0.07444  -22.04873  0.97032 
   -8.01939  0.43855  1.57875     13.55579  1.61255  0.43226   8.19248   0.1679     0.01207  7685.88492   8920.14712  0.29765         2049.34754     21.06796  0.64966  56017.30861   2.88689   3.59278   2886514.16338  45.61936  16.80484    56103.211    51.49813        44.5709   57.13489  62.57631   64.5    0.08754  -22.20603  0.94412 
   -5.37123  0.00251  1.95511     13.43634  1.61885  1.08346   9.70851  0.13119     0.01464  6627.37262   7742.29186  4.14271         2034.72798     20.98709  0.53929  56019.95677   2.54368   0.02434    7703318.2735  45.00903  16.81449    56103.211    51.58241       44.67263   51.97224  61.48289   76.5     0.0732  -22.00757  0.99942 
    -7.5555  0.03882   1.9578     13.93631  1.96183  0.23324    6.5141  0.29032     0.01402  7790.53354   8073.05451  0.24674         3012.56922     20.91531  0.45713   56017.7725   2.35839   0.25285    936269.25601  46.00657  16.83947    56103.211    51.60911       44.68608   50.01917  64.25061   65.0     0.0861  -22.03662  0.99515 
   -7.83019  0.05364  2.35014     13.70878  2.11322  0.62874  10.22602  0.15936     0.01474  7999.42831   8310.68426  0.21301         2420.66472     20.93991  0.48377  56017.49781   3.90348   0.54856   4143633.73023  45.23422  16.80114  56103.75509    51.50023       44.57053   57.75749  62.21349   63.0    0.08883  -22.05807  0.98707 
   -5.94387  0.47013  1.37034      13.7777  1.62081  0.73238  25.99775  0.07574     0.01502  7201.86513    9727.4402  0.10225         2792.97892     21.16017  0.80334  56019.38413   8.04364  12.22223    786680.31681  46.30912  16.84257  56100.74244      51.475       44.54927   57.76381  62.20717   66.0    0.06511  -22.28907  0.88084 
   -6.71122  0.01014  1.33767      13.7625  1.38676  0.20208   9.01114   0.1528     0.01008  7265.76686   9179.77084  1.26666         2219.51737     21.10529  0.70797  56018.61678   2.83772   0.09138    687864.44163  46.32065  16.79887     56104.02    51.65488       44.74752    55.5756  58.69418   67.0    0.08335  -22.25038  0.99865 
   -7.32539  0.00566  1.71456     13.25464  1.70897  1.19927   8.56224   0.1987     0.01127  7701.80225   8304.94404  0.18738          3580.8183     20.99495  0.54913  56018.00261    3.0297   0.04846  14440201.61599   44.8737  16.89535     56106.06    51.74717       44.83748   43.21342  62.89423   65.5    0.09047  -22.12899  0.99913 
   -7.62305  0.05156   1.8718     13.58024  1.72651  0.45982   9.65875   0.1836     0.01084  8067.89923   8046.53627  0.03431         4927.59483     20.88067  0.42208  56017.70495   3.75033   0.49801   3881772.84627  45.37246  16.83213     56104.02    51.54874       44.61479   54.41418   65.5568   65.5    0.09383  -22.00522  0.98942 
   -7.00273  0.22847   1.8201     13.43562  1.58604  0.70116   6.67502  0.20528     0.01696  7312.59585   8403.59223  0.61132         2656.51129     20.98373  0.53513  56018.32527   2.12923   1.52503   6562560.72903   45.1319  16.77467     56106.06     51.4654       44.52678   60.54986  64.60275   68.0    0.08474  -22.05002  0.96708 
   -6.73534  0.00131  1.85492     13.50179  1.94796  0.59183   7.28937  0.20175     0.01012  7550.11417   7820.73421   0.9496         2175.38379     20.94672  0.49141  56018.59266    2.4787   0.00952   6172612.78807  45.23131  16.82484    56103.211    51.69741       44.78892   52.73988  60.71525   68.5    0.08748  -22.02166  0.99983 
   -7.05099  0.14898  1.86902     13.57402  1.58765  0.55003   9.10714  0.12353      0.0135  7141.99467    7854.9068  0.65803         2527.34283     20.99989  0.55541  56018.27701   2.77108   1.35678   3662287.51753  45.36262  16.82292     56104.02    51.53843       44.60455   57.76381   64.6681   74.0    0.08344  -22.03586  0.96958 
   -6.53725  0.00104  1.87975     13.38405  1.79927  0.92783  10.19773  0.11536     0.01143   7791.2964   8460.58401  0.01958         2968.62156     20.99441  0.54846  56018.79075   3.69275   0.01065  10069608.73449  44.97273  16.82288     56104.02    51.59833       44.67503   54.41418  62.57631   66.0    0.09003   -22.0936  0.99979 
   -6.62224  0.02422  2.09283      13.7702  1.75479    0.364   9.08184  0.14334     0.01066  6962.34221   8184.61797  1.01233         2763.58754     20.85285  0.39589  56018.70576    2.6261   0.21999    2056447.2207  45.55848  16.84788    56103.228    51.46342       44.52199    55.5756   66.8563   68.0    0.08961  -21.91929   0.9944 
   -5.52469  0.30862  1.90885      13.7207  1.97996  1.03177  23.67317  0.05954     0.01235  7178.29398   9444.06344  0.08472         3680.22516     21.11551  0.72484  56019.80331   7.27656   7.30592   2424465.61544  45.61934  16.83819    56103.211    51.58654       44.67137   54.13155  62.84566   67.5    0.07307  -22.21619  0.89452 
   -5.46978  0.15669   1.6093     13.32398  1.25924  1.24199   5.70696  0.19618     0.04188  7427.09132   7924.24764  0.19125          3366.5718     21.01557  0.57583  56019.85822   1.87789    0.8942   6811520.78609  45.12244  16.83699  56103.75509    51.67947       44.75959   50.11186  64.15792   74.0     0.0811  -22.06796  0.97972 
   -8.49647  0.01577  1.65877      13.8492  1.90086  0.24159    7.5873  0.21897      0.0105  7753.00961   8207.56031  0.08231         4073.35987     21.06927  0.65162  56016.83153   2.72054   0.11968    972593.35898  46.12029   16.8032     56104.02     51.5754        44.6557    56.4787  60.78479   67.0    0.08684  -22.19391  0.99828 
   -5.51359  0.00216  2.12689     13.47469  1.91446  1.11193   5.79018  0.22995      0.0283  8327.58516   7799.64912  0.14612         2125.97509     20.96549  0.51312  56019.81441   2.39529   0.01248   9035971.59135  44.93943  16.81982  56103.75509    51.64596       44.72794   57.13489   60.1286   66.5     0.0912  -22.12913  0.99972 
   -6.11627  0.00569  2.22814      14.0556  2.09034  0.35727   9.04124  0.13881     0.02984  7663.88464   9048.76509  0.07649         3578.13215     21.04597  0.61758  56019.21173   3.16777   0.05145    745974.74359  46.02046  16.84052     56106.06    51.54526       44.61134   59.43183  63.00008   67.5    0.07708  -22.14377  0.99893 
   -8.84432  0.00173  1.79356      13.2953  1.64148  1.24277  10.04936  0.15153     0.01492  7762.54048    9139.3899  0.23515         2680.44197     21.01362  0.57325  56016.48368   3.61221    0.0174  12585804.31998  44.87677   16.8377    56103.228    51.53529       44.60433   59.43183  63.00008   62.5    0.08355  -22.14709  0.99965 
   -6.47866  0.17492  1.96072     13.65006  1.87996  1.01971  16.49852  0.09455      0.0153  7061.96446   9495.48748   0.3764         2866.65072     21.08595  0.67713  56018.84934   4.90821   2.88588   3362653.17195  45.43148  16.84306     56106.06    51.53017       44.59255   59.43183  63.00008   65.0    0.07266  -22.16725  0.94907 
   -7.70552  0.02487  2.20589     13.69347   2.1526  0.59656  10.74973  0.11761     0.01047  7622.52657   8018.23595  0.00256         4865.78835     20.97623  0.52596  56017.62248   3.72583   0.26736   3990285.75787  45.31364  16.80204    56103.228    51.54865       44.61682    55.5756  64.39538   67.0    0.09307  -22.06209  0.99453 
   -7.40115  0.40943  1.53502     13.08755  1.33233  1.26417   9.23341   0.1364     0.01136  7452.21566   8421.01226  1.46074         2088.26062     21.02841  0.59311  56017.92685   3.05886   3.78048  19478089.92468  44.73169  16.79334     56104.02    51.43794       44.49556   60.54986  65.70126   69.5    0.08047  -22.07698   0.9259 
   -7.95259  0.13551  2.08874     13.76419  2.02033   0.4378   10.5555  0.13816      0.0112  7593.19092   8821.40372  0.12759          3630.4495     20.99165  0.54497  56017.37541    3.6304   1.43043   2424545.14857  45.54987  16.79822    56103.211    51.50278       44.57518   59.43183  63.00008   63.5    0.08733  -22.11292  0.97169 
   -5.71518    0.111  1.54648     13.83042  1.57651  0.19796   7.24519  0.18784     0.01157  7453.78108   8579.27835   0.9736         2328.04664      21.0381  0.60649  56019.61282   2.40121   0.80418    764468.93034  46.20449  16.81152    56103.211    51.51731       44.59552    55.5756  61.68789   69.0    0.08904  -22.14034  0.98675 
   -7.15496  0.01264  1.84924       13.349  1.73682  1.33699  13.06862  0.14785     0.01062  7705.30314   8724.48854  0.04932         4098.61332     20.95107  0.49636  56018.17304   4.62846   0.16521   11055027.4317  44.93105  16.82777  56106.76773    51.59405       44.65527   54.91002  65.06096   63.0    0.08501  -22.14451  0.99677 
   -5.87163   0.0034  2.07651      13.5993  1.86828  0.56955   8.56965  0.17809     0.01406  8100.11824   8017.74598  0.28111         2979.22262     20.90866  0.45018  56019.45637   3.35408   0.02914   4735057.07809  45.23029  16.79716  56103.75509    51.50648       44.57909   56.58707  63.12412   64.5    0.09214  -22.03671  0.99933 
   -6.72774  0.06694   2.0044     13.52549  1.78192  0.91458  13.13608  0.11853      0.0151  8008.25473   8491.90872  0.01537         2956.23773     21.00661  0.56407  56018.60026   5.02538   0.87935   5911311.84936  45.14408   16.8455     56106.06    51.59546       44.65484   51.41084  65.83943   65.0    0.08196  -22.15525  0.98117 
   -6.69475  0.34611  2.14138      13.5426   2.0187  0.91024  12.90812  0.08249     0.01121  7658.24879   8715.11786  0.01045         2282.55926     21.06078    0.639  56018.63325   4.51595   4.46759   7064415.36001  45.06345  16.82116    56103.228    51.56062       44.64028    55.5756  61.68789   67.5    0.08079  -22.14412  0.91394 
   -6.52125  0.29884  2.16949     14.04123  1.83003  0.29886  10.79184  0.14392      0.0214  7985.52175   8537.36357  0.16378         2931.47525     21.00134  0.55728  56018.80675   4.10515   3.22508    661493.21101  46.03806  16.80598     56104.02    51.62669       44.70337   54.13245  63.13104   64.5    0.08464  -22.13713  0.92744 
   -6.61012  0.17279  1.88958      13.6732  1.66235   0.6701  10.58642   0.1277     0.02213  7531.26141   8694.31463  0.06469         3000.74853     21.02762  0.59204  56018.71788   3.58189   1.82925   2482390.09751  45.54197  16.81362     56106.06    51.63391       44.70888    56.4787   63.2325   66.5    0.07927  -22.12763  0.96299 
   -2.57316    0.401   1.0059     13.93768   1.6864  1.13521  43.84149  0.05791     0.01316  8089.74312   9173.77158  0.03633         2273.78929     21.09422  0.69015  56022.75484   17.1152  17.58045    211113.14249  47.16618  16.82224  56106.76773     51.5612       44.61974    59.8556  63.72597   65.5    0.06808  -22.17117  0.91224 
   -6.55372  0.40376  1.73802     13.80068  1.48418   0.2594   8.84654  0.15234     0.01321  7451.89232   8281.71586  0.75945         2120.59332     20.99551  0.54985  56018.77428   2.93045   3.57184   1042426.18666  45.94217  16.87519    56103.211    51.65808       44.74206   48.97276  64.48237   69.0    0.08429  -22.06657  0.92586 
   -5.40803  0.36246  2.06253     14.17899  2.10133  0.38699  13.35921  0.12126     0.03129  7575.82112   8790.73048  0.10866         3128.56377     21.07951  0.66717  56019.91997    4.5737   4.84223    364022.06179  46.40141  16.83359  56100.74244     51.6019       44.70235   54.13155  59.32358   70.0    0.07845  -22.15889  0.92337 
   -7.52261  0.00256   1.8012     13.47976  1.73508  0.60281   6.44672   0.1908     0.01414  7444.51057   7839.68155  0.18328         2443.46027     20.93595  0.47938  56017.80539   2.13127    0.0165    5737766.9201   45.2383  16.87569  56106.76773    51.81556       44.90785   48.97276  62.57631   69.5    0.09032  -22.02646  0.99968 
   -6.13498  0.01339  1.92402     13.50223  1.69935  0.94812  13.95835  0.14217     0.01162  7435.11197   8192.54038  1.11106         2641.38366     20.97156  0.52034  56019.19302   4.60295   0.18695   5781657.43774  45.16866  16.82363    56103.211    51.45848       44.52348   59.43183  63.00008   67.0    0.07887   -22.1472  0.99601 
   -8.30657  0.00332  1.67923     13.60363  1.64047  0.39716   8.00686  0.19522     0.01193  7522.86536   8587.67831  0.19577         3151.24941      20.9955  0.54983  56017.02143   2.70306   0.02657   2665285.97746  45.60785   16.8308    56103.211    51.32635       44.38001   59.43183  65.72078   66.0    0.08491  -22.09101  0.99951 
   -7.32628   0.2135  2.08297     13.89489  1.84154  0.27403   5.06794  0.31848     0.02176  7734.19159   8029.03938  0.48604         2187.59537     20.85403  0.39697  56018.00172   1.80838   1.08201   1203896.01301  45.81607  16.82204    56103.211    51.44318       44.50787   59.43183  63.00008   65.5    0.09244  -21.97428  0.97502 
