 log(Bfield)      Mns     Pspin  cutoff_power  cutoff_wavelength  fnickel    kappa  kappagamma   mejecta  log(nhhost)  temperature  texplosion  thetaPB      vejecta      A_V        MJD_0   log(KE)      M_Ni  Peak_mag     Peak_MJD 
    12.22326  2.04398   3.47647       4.00587         3112.99969  0.29367  0.01353     0.41201  45.80058     18.66421   9306.14288   -24.40509  0.97231   6431.58524  0.00256  58632.80491  52.34022  26.05085  19.92951  58692.07929 
    12.14194  1.60127  13.27266       3.46515         2801.89464  0.27442  0.01613     0.39602  52.60477     18.96083   4785.02348   -22.71069  1.49471   8658.51036  0.00508  58634.49931  52.60817  24.89289   19.9096     58693.24 
    14.16009  1.66785  23.54432       4.20895         2968.45413  0.20735  0.01477     0.01094  74.09554     17.32309   6015.66324   -31.20321  0.46403   7685.16259  0.00012  58626.00679  52.52768  19.83591  19.93697     58696.34 
    13.88503  1.64276  29.71732       4.92098          2766.6304  0.27274  0.01588     0.20041  52.61849     16.85406   4423.27371    -19.7445  0.22384   9345.52946    4e-05   58637.4655  52.67451  24.74111  19.96585  58695.31516 
    14.42272  2.01749    7.5219       0.10178         3758.49036  0.44094  0.02921     0.05053  30.19361     17.53827   7001.20445   -30.87647  0.97817   7799.66848  0.00019  58626.33353  52.47719  36.45773  19.92198     58693.24 
    12.79453  1.56385  18.15213       2.38305         2743.16507  0.43299  0.03066      0.0117  35.22669      16.3177    3189.5127   -25.37143  1.33695  10351.22573    1e-05  58631.83857  52.73457  36.76523  19.98354     58693.24 
     14.9583  1.63638  21.73147       2.68819         2916.06827  0.41375  0.02171     0.05497  34.54891     18.04982    6727.4747   -23.53198  1.45909   8075.97831  0.00062  58633.67802  52.51754  35.01594  19.87627  58691.43376 
    14.51473  1.59952  15.50069       4.75632          2873.3003  0.40123  0.02641     0.48216  34.02903     16.63076   7359.67197   -23.89236  1.31212   7931.97982    2e-05  58633.31764  52.50079   33.8681  19.87289     58693.24 
    14.02507  1.60867  25.15828       4.88833         2937.50871  0.45179   0.0267      0.0173  29.52134     18.54708      3381.71   -20.66871  0.77946   8051.91217  0.00196  58636.54129  52.50312  37.20761  19.89367  58698.55102 
    13.50799   2.1785   9.35007       2.36361         2576.82467  0.26051  0.01311     0.36656  60.26412     18.29274   9757.21587   -25.53006  1.22686   8188.44832  0.00109  58631.67994    52.569  24.14256  19.94586  58695.31516 
    14.08953  1.72243   8.65906       2.06615         2895.27339  0.26111  0.01895     0.40414  47.80282     17.67819   5554.14713   -25.44422  1.47914   8461.94482  0.00026  58631.76578  52.58154   23.3243  19.94704     58696.34 
     14.7229  2.04391  19.94751       3.11383         2730.98918  0.25803  0.01665     0.02152  52.63675     17.72353    5235.9651   -21.27692  1.19222   9632.57483  0.00029  58635.93308  52.70081  23.40778  19.90013     58693.24 
     13.0258  1.38895   8.12917       2.20689         2707.55299  0.21283  0.01207      0.0278  70.09283     16.65474   5706.60459   -25.48696  0.84407   8834.93717    3e-05  58631.72304  52.64512   20.1892  19.96724     58693.24 
    14.18916  1.65188   4.96548       1.92199         3495.06102  0.18099  0.01568     0.39712   52.0981     17.88538   3270.80906   -25.50339  1.53181   5619.02683  0.00043  58631.70661  52.23193  16.39268  19.89426     58690.19 
     14.5554  1.94735  20.48239       0.27946         3212.46376   0.4338  0.02131     0.03805  34.80264     19.32475   6485.59274   -26.85383  0.85698   9232.92014  0.01173  58630.35617  52.63437   36.7586  19.93179      58699.2 
    15.01996  1.69079  23.75994       2.33216         2998.32666  0.45924  0.02901     0.01592  33.13802     19.34006   5954.53641   -27.74878  0.94384   8455.34093  0.01216  58629.46122  52.55431  38.58857  19.94567  58695.31516 
    13.66507  1.56552  28.55312       2.49781         2808.34554  0.29689   0.0195     0.26173  50.90742      16.1618   4958.20251   -24.83483  1.34461   8804.19471    1e-05  58632.37517  52.62039     26.79  19.91864     58693.24 
    13.92093  1.63439   3.80786       1.42558         3193.77922  0.32541  0.04272      0.0126  31.35078     20.68142   8367.23353    -31.8538  0.97089   8694.71807  0.26678   58625.3562  52.57439  27.08208  19.85797     58693.24 
    14.20325  1.65207   5.27784       4.77488         2901.15394  0.26535  0.02999     0.09037  37.87601     16.97561   4358.74275    -24.1932  1.25526   7269.11637    5e-05   58633.0168  52.43288  22.80902   19.9558  58698.55102 
    15.11176  1.79489  17.33842       2.57292         2975.45901   0.2466  0.01608     0.23121  57.38584     16.48391   7941.03119    -24.8422   0.8812   8709.94421    2e-05   58632.3678   52.6193   22.6793  19.90003  58695.31516 
    13.39006  1.91989  23.27061        4.2987         2607.42014  0.45228  0.03249     0.01125  34.22917     16.82241   3960.52925   -34.32699  1.35399   8171.02641    4e-05  58622.88301  52.52701  38.21599  19.91298  58695.31516 
    12.09929  1.57977  28.76594       4.85652         2377.60535  0.33749  0.01718     0.31134  43.91082     18.34481   5611.07019   -24.08782  0.12258    8536.2902  0.00123  58633.12218  52.58313  29.73166  19.91794     58693.24 
    14.60373  1.90679  16.62948       3.68122         2753.26983  0.46124  0.02783     0.01066  29.86619     19.31574   3618.62996   -23.16479  0.52179   8589.46169  0.01149  58634.04521  52.56014  38.06352  19.84369  58691.43376 
    12.28199  1.61092  18.53214       4.74067         2852.29475   0.3905  0.02538     0.13004  36.28285     17.05452   8243.18877   -28.88139  0.32477   7362.86377    6e-05  58628.32861  52.44086  33.32413  19.92046     58696.34 
    13.90834  1.99695   8.15856         4.168         2863.54582  0.36923  0.02379     0.03782  38.42604     18.36154   8156.65447   -23.43302   0.1866    8872.9844  0.00128  58633.77698  52.60711  31.81606  19.90723     58693.24 
    12.78003  1.66776   4.70236        4.8183         2798.61016  0.40043  0.02688     0.07072  35.21176     16.24175    4293.8233   -21.35014  1.42007   9327.25202    1e-05  58635.85986  52.64407  33.99865  19.90018  58695.31516 
    13.38308  1.64904  28.08152       0.76489         2808.88422  0.41132  0.02202      0.4098  41.00575      18.0747   3671.42577   -35.04334  0.44401   7459.66779  0.00066  58622.16666  52.46112  35.82911  19.86129  58692.07929 
    13.38016  1.67367  28.00432       2.63578         2756.77477  0.21365  0.01165     0.15294  71.68485     19.73227   9015.29711   -19.20047  0.31721   10151.5531  0.02999  58638.00953  52.76726  20.33604  19.93319     58693.24 
     14.5096  1.94423   6.35816       4.09574         2015.31243  0.28982  0.02012     0.02615  43.01966     18.39561   3630.16088   -19.81255  1.29281   9390.20066  0.00138  58637.39745  52.66448  25.44618  19.96394     58696.34 
    13.88088  1.78575  23.50147       4.79687         2825.64851  0.32301  0.01786     0.03767  44.28374     16.48116   8734.87666    -20.8057  0.49023   8979.87643    2e-05   58636.4043  52.62773  28.49615  19.75909     58690.19 
    14.08435   1.8698   7.52591       3.44512         2980.10916  0.30384  0.02538     0.03185  37.80224     19.97557   3253.55055   -28.78211  1.53514   8073.31126  0.05252  58628.42789  52.52388  26.10976   19.9023  58695.31516 
    13.50583  1.90041  12.73767       4.90702         2859.17512  0.43123  0.03025     0.01447  33.62049     17.99426   3014.32099   -25.16974  0.94519   9102.44506  0.00055  58632.04026  52.61944   36.3249  19.95894  58698.55102 
     14.1627  1.98814  28.00114       3.81232         2443.91422  0.45982  0.02483     0.05554  33.43775     18.45472   5998.50363    -23.4198  0.33392    9366.7348  0.00158   58633.7902  52.64389  38.69709  19.93464     58693.24 
     12.3013  1.51463   19.4696       4.43893         2864.04233    0.453  0.02751     0.01313  32.15376     17.18564   5752.90963    -21.3529  0.28302   9141.66054    9e-05   58635.8571  52.61984  37.86637   19.9498     58696.34 
    14.05606  1.77207  21.47236       2.25858         2355.93811  0.22264  0.01246     0.17571  71.26778     16.44849   3656.24078   -25.61607  0.06405   9244.27662    2e-05  58631.59393  52.68556  21.17301  19.85341  58691.43376 
    13.88067  1.26615   4.56646       3.47185         2371.05911  0.31002  0.03248        0.22  35.62261     16.19725   6706.06064   -32.23585  1.40346   8001.57208    1e-05  58624.97415  52.51177  26.37435  19.89261     58693.24 
     13.7162  1.68421  16.00366       3.82476         2979.05828  0.25341  0.01685      0.0177  55.59017     16.60397   7341.72173   -26.18271  1.18199   8687.53419    2e-05  58631.02729  52.61488  23.18894  19.87623  58695.31516 
    14.27588  1.26011  11.13111       3.23295          3177.1129  0.33437  0.01906     0.11442  38.21837     19.59693   5140.72769   -22.22443  0.70682   8178.29136  0.02196  58634.98557   52.5359  28.78575  19.90416  58695.31516 
     14.3463    1.628  24.95442         3.977         2221.39387  0.19847  0.01061     0.05652  76.08358     17.56622   8186.94878   -22.95449  0.14564   9842.86185   0.0002  58634.25551  52.74435   19.0627   19.9054     58693.24 
    12.46232  1.59219   9.89311       1.28474         2882.37755  0.46997  0.02784     0.01008  34.17967     18.07771   4260.49751   -27.27265  0.19951   8516.79783  0.00066  58629.93735  52.56291  39.70032  19.86729     58693.24 
    12.03124  1.63342  24.21853       4.45188         2901.50752  0.40677  0.02501      0.0102   34.1311     17.39711   3233.46354   -22.98259   0.5003   8818.22146  0.00014  58634.22741  52.59301  34.35347  19.85084     58693.24 
    14.73702  1.27474  18.20997        0.8099         2471.12401  0.38797  0.01894     0.05507  39.04458     18.44888   8542.41919   -21.51884  1.02561   9555.32956  0.00156  58635.69116  52.67263  33.52037  19.89467      58692.3 
    12.92407  1.92868   12.9478       0.38464         2876.56428  0.45508  0.02288     0.01246  35.36906     17.41752   3009.18258   -20.79133  0.54767  10986.62638  0.00015  58636.41867  52.78662  38.66814  19.93263      58692.3 
    12.78651  1.49398   6.66125        2.0304         2965.62115  0.31788  0.01556      0.1014  45.70317     16.49236   4976.05501    -22.0711  1.38987   8469.31166    2e-05   58635.1389  52.57913  28.18802  19.93883     58693.24 
    14.60885  1.54041  18.74255       2.78303         3206.44644  0.32541  0.01644     0.47831  41.73492     19.21048   7618.79198   -26.56215  0.44252   6627.42406  0.00902  58630.64785  52.35964  28.42879  19.94205  58695.31516 
    13.67565  1.79273   6.28571       4.76462         2704.95988    0.361  0.02279     0.02577  39.54913     18.22631   6221.19241   -24.53491  0.21558   9143.48442  0.00094  58632.67509  52.63529  31.25708  19.87557     58693.24 
    12.74522  1.36741  25.96982         0.182         2686.34193  0.40086  0.02386     0.10702  41.79885     18.87359   8655.37021   -30.72107   0.2731   9198.19473  0.00415  58626.48893  52.64447  35.02943  19.94917  58695.31516 
    12.12857  2.08859   16.8345       4.94173         2059.24136  0.29372  0.01395     0.09819  55.05132     16.86889   5334.36398   -24.43678  0.55108   8868.70416    4e-05  58632.77322  52.63214  26.83638  19.91945     58693.24 
    15.04585  1.32694  10.21835       4.77665         2580.55174   0.4332  0.03283     0.01121  34.86156      16.5493   5958.05375   -20.42869  0.26416  10883.75571    2e-05  58636.78131  52.77738  36.71849   19.9399     58696.34 
    14.31053  1.51172  15.01963       1.21504         2742.12831  0.31214  0.01552     0.19485  46.46576     17.53551   9669.85111   -25.22158  0.79851   8749.90505  0.00019  58631.98842  52.60861  27.75385  19.94177     58696.34 
    14.81447  1.56072  27.00734       4.83567         2981.51967   0.2932  0.01596     0.06119  45.19039     17.49003    6901.5349   -19.58703   0.6653   8561.54262  0.00017  58637.62297  52.58774  25.95231  19.96006     58696.34 
    12.09456  1.86868    6.0895        2.2603         2814.97669  0.48732  0.02724     0.01421  32.14267     19.99619   6326.94833   -24.27236  1.31869  10083.29027  0.05507  58632.93764  52.70496  40.73276  19.95672  58695.31516 
    14.22241  1.51955  12.40385       0.19968         2376.79456  0.46608  0.02635     0.01425  33.09147     17.71254   3395.77196   -31.60978  0.67005   8702.68048  0.00029  58625.60022  52.57925  39.15355  19.95603  58695.31516 
    14.60053  1.82715  14.41972       2.42997         2948.01976  0.34485  0.02774      0.0207  40.60729     16.65848   7965.96839   -24.84194  0.87656   9827.61629    3e-05  58632.36806  52.69988  29.99031  19.92494     58693.24 
    14.91669  1.93022  28.22199       2.01115         2979.77019  0.49298  0.02546     0.22552  31.54422     20.09803   3154.15585   -25.92619  1.09338   8323.39948  0.06962  58631.28381  52.53695  41.07231  19.95279     58696.34 
    15.16475  1.80949  10.61333       1.47771         2913.22162  0.40793  0.01937     0.04227  34.00275     18.89929   3129.77502   -19.31905  1.47495   8879.76485  0.00441  58637.89095  52.59877  34.42878  19.91875     58693.24 
    13.33035  1.70293  29.03488        4.1464         2927.45921   0.3614  0.01797     0.36559  37.98281     17.98658   5762.93093    -17.6877  0.99397   9186.35851  0.00054   58639.5223  52.63641  31.08043  19.94415  58695.31516 
    12.57081  1.69922  25.60294       4.78274         2586.90057  0.39842  0.02621     0.12668  38.45591     19.62883   4040.01695   -25.14666  1.25031   9993.51635  0.02364  58632.06334  52.71047  34.33552  19.88075     58693.24 
    13.61091  1.40443  29.92535       1.73545         2891.62816  0.37947  0.02181     0.01064  39.18519     17.93375   8588.84002   -22.27977   1.4278   9675.48761  0.00048  58634.93023  52.68374  32.80521  19.93649     58690.19 
    14.63161  1.61082  26.97028       4.93044         3278.31445   0.2439  0.01668     0.05647  56.17784     17.39946   7090.52507   -21.73295  0.69084   8781.64679  0.00014  58635.47705  52.62496  22.35623  19.88821     58693.24 
    13.48339  1.92483   16.3174       4.97155         2650.58664  0.45006  0.02753      0.0102  32.85432     17.72528   4042.93649   -24.51072  1.12003   8699.30353   0.0003  58632.69928  52.57837  37.76099   19.9892     58696.34 
     14.4728  1.89117   6.50988       0.08818         2768.68322  0.18078  0.01622     0.31166  72.96021      19.0031   3763.32079   -39.62511  0.56034   7563.54582   0.0056  58617.58489  52.51281  17.25367  19.89411     58693.24 
    12.35365  1.34764  25.18439       0.75879          3273.7968  0.35017  0.02129     0.02277  45.58965     19.28394   3902.11827   -25.00044  0.70336   9776.94705  0.01068  58632.20956  52.70366  31.03926  19.81627  58692.07929 
     14.0738  1.47154  28.27651       4.57712         2983.58352  0.45282  0.02243      0.0406  31.27159     17.62322    7935.0237   -17.11869  0.07883   8295.19557  0.00023  58640.09131  52.53334  37.66935  19.87157      58692.3 
    14.61459   1.2516    25.605       4.54015         2718.51246  0.39861  0.02484     0.29941  35.92154     18.30465   4017.40177   -25.70635  0.54704   8238.29658  0.00112  58631.50365  52.53771  33.95918  19.90695     58693.24 
    12.79297  1.45219  20.08975       2.35631         3131.48639  0.32822  0.02056     0.15825  43.90902     17.94952   8425.25925   -27.05591  0.28478    7995.1429  0.00049  58630.15409  52.52624  28.91525  19.92115  58695.31516 
    12.21528  1.44191  21.51732       4.28203          2940.0348  0.17739   0.0101     0.08432  78.42243     18.49139   4391.35617   -23.16951  0.26056   8077.52568  0.00172  58634.04049  52.57464  17.11525  19.94958  58695.31516 
    14.38688  1.49896  19.88116       3.02078         2443.31848  0.48441  0.02989     0.02165  30.86236     18.41414   6702.42985   -21.98056  0.13017  10011.06612  0.00144  58635.22944  52.69566  40.20487  19.95832     58696.34 
    14.32135   1.6825   9.26176       2.22891          3033.6312  0.32682  0.02352     0.31245  38.81846     19.14799   6171.24939   -22.28816  1.53466   9064.47927  0.00781  58634.92184   52.6264  28.20913  19.94221     58696.34 
    12.65231  1.50804  22.78288       2.67065         2581.44692  0.49632  0.03015     0.01057   31.0238     19.66756   6172.13601   -26.60575  0.33173   8835.80646  0.02584  58630.60425  52.58758  41.23078  19.91775     58693.24 
     12.9772  1.90661  21.57456       2.83464         3318.30067  0.23629  0.01145     0.01884  57.76293     16.54956   4900.73748    -21.5306  0.70465    7433.1124    2e-05   58635.6794  52.48205  21.75328  19.92816  58695.31516 
    13.52162  1.60521  26.53127       3.44277         3151.61026  0.40496  0.02555     0.04666  34.76619     17.40786   5843.52009   -27.67782  1.19096   7613.00103  0.00014  58629.53218  52.46673  34.30869  19.88338      58692.3 
    12.26633  1.54062  29.88067       1.44546         2714.22521  0.31987  0.01584     0.01256  49.92861     19.59302   6561.57461   -20.70585  0.99605  10249.98553  0.02176  58636.50415   52.7511  28.77432  19.94872     58693.24 
    12.41836  1.77771   15.9626        3.0277         2797.75336   0.3653  0.01988      0.0405  40.34551     19.43409   7682.37772   -28.66695   1.3881   7570.90557  0.01509  58628.54305  52.47281  31.73458  19.95231     58696.34 
    14.20681  1.48321   7.15937       2.01419         2076.62908  0.32122  0.01956     0.05999   40.1265     16.16637   4988.16938    -22.8991  1.23535   9287.40823    1e-05   58634.3109  52.64991  27.87986  19.88952     58693.24 
    14.34069  1.46548   6.00434       3.11442         2977.44635   0.3063  0.02114     0.03528  42.90864     20.42408   8406.06211   -27.10901  0.52479   7246.01097   0.1475  58630.10099  52.43914  26.88245   19.9832     58693.24 
    12.99452  1.68438  28.70082       3.72935         2920.33292  0.17382   0.0108     0.18711  81.17056     17.24173   6262.46299   -23.52644  1.15021   8161.27606   0.0001  58633.68356  52.58584  16.85752  19.98132  58695.31516 
    13.39549  1.59496  27.00706       3.78989         2040.03092  0.37744  0.01447     0.27289  47.31866     20.09289   4442.59711   -22.10294  1.02961   8821.12324   0.0688  58635.10706  52.61694  33.65939  19.94123      58692.3 
    12.75016  1.38338  23.17439       4.90087         2703.02672  0.24284  0.01395     0.15891  60.96919     19.20204   7577.48831   -23.12272  0.61993   8491.71438  0.00885  58634.08728  52.60137  22.54673  19.93653  58695.31516 
     12.2073  1.87358   7.89501       3.69766         2530.44819  0.38805  0.02528     0.01261  39.19404     16.84095   6717.44627   -25.52075  1.41784   9714.77466    4e-05  58631.68925  52.68728  33.54886  19.99592     58696.34 
    14.56209  1.70201  22.10489       4.74077          2341.0879  0.20449  0.01106     0.31007   70.0556     16.77711   4640.70604   -17.96355  1.38888  10945.44026    3e-05  58639.24645  52.83115  19.39619  19.91911  58695.31516 
    14.31172  1.65615  26.78777       2.69036          3050.4496  0.48972  0.03426     0.04355  30.33597       18.134   3980.11059   -25.47932  0.00404   9104.37878  0.00076  58631.73068  52.61189  40.52382  19.91253     58696.34 
    12.35609  1.95014   6.73755       4.75799         2568.88498  0.18442  0.01015     0.40387  78.43676     16.06191   5912.45606   -20.69606  1.51625   9119.69233    1e-05  58636.51394  52.68006  17.79468  19.96977  58698.55102 
    13.37414  1.79792  18.18494       4.98977         3019.07722  0.22727   0.0132     0.16894  68.03784     19.98823   5093.43525   -27.05465  0.60946    7696.6887  0.05407  58630.15535  52.52335  21.46092  19.87008     58693.24 
    12.28219  1.80909  27.34999       3.99938         3391.36542  0.26736  0.01343     0.01608  49.60633     17.56393    9404.3841    -22.7706  1.01493   6755.78526   0.0002   58634.4394  52.38855  24.02541  19.85741      58692.3 
