 log(Bfield)      Mns    Pspin  cutoff_power  cutoff_wavelength  fnickel    kappa  kappagamma   mejecta  log(nhhost)  temperature  texplosion  thetaPB      vejecta      A_V        MJD_0   log(KE)      M_Ni  Peak_mag     Peak_MJD 
     14.1861  2.03278  2.90464       0.12796         2738.48624  0.39085  0.10481     0.25764   8.28588     16.31652   6230.55283   -11.65695  1.39391  10358.71184    1e-05  58946.83527  52.61229  25.00701  19.36612  58994.43966 
    13.90895  1.60251  2.43091        0.0244         2218.52396  0.00318  0.32838     0.23005   2.25036     19.74439   5210.90405   -14.28971  1.53888   9597.30085  0.03084  58944.20252  52.39439   0.14353  19.36595  58993.70127 
    13.93914  1.49807   1.8796       0.38061         5084.70468  0.01933   0.0967     0.16499   6.81734     16.23108   3855.66689   -16.28986  1.36625   6194.29905    1e-05  58942.20237  52.14607   1.18234   19.4048  58993.70127 
    14.04125  1.52736  2.60059       1.31072         2585.22479  0.03337  0.07656     0.07267   9.00722      16.8576   7020.99396   -13.72403  0.80227   8456.45259    4e-05  58944.76819  52.44417    2.1754  19.37296     58994.27 
    14.09928   1.6888   2.2365       0.05911          3780.9286  0.04872  0.07418     0.04464   8.99697     17.27128   7289.42523   -13.55674  0.88888   8544.77878   0.0001  58944.93548  52.45309   3.17524  19.39215  58993.70127 
    13.75228  1.22365  2.04077       0.30445         3842.94706  0.00306  0.16501     0.08909   3.84518     18.74066   5366.09472    -14.8316  1.43217     8028.644  0.00306  58943.66062  52.30818   0.16186  19.36195  58994.43966 
    13.90931  1.71245  3.06593       3.95626         2165.24058  0.04476  0.16134     0.04944   4.52102      17.9971   8015.30179   -14.39816  1.34013   9384.74923  0.00055  58944.09406  52.46256   2.47151   19.3918  58994.43966 
    14.02016  1.33636  2.00844       0.77917         3318.98136  0.31518  0.06675     0.09183  12.97938      16.4082   9045.94871    -9.46476  1.32156   9231.12163    1e-05  58949.02746  52.55415  22.21131  19.36921     58991.31 
    14.11617  1.67827  1.74767       0.26069          5893.9266  0.15159  0.06474     0.47765  12.37047     19.17273   5534.24168    -15.7025   1.1103    6915.8697  0.00827  58942.78972  52.29903   10.5774  19.38026  58994.43966 
    14.34845  2.11258  3.03222       0.07074         5723.74903  0.08069  0.12543     0.27025   5.64649     19.30618   4148.24073   -14.78455  0.58431   8926.60096  0.01124  58943.70768  52.44367   4.71493   19.4203     58994.27 
    14.14409  1.58921  2.12724       0.35854         2952.60847  0.45232   0.1404     0.34347   6.98482     16.34061   7329.84876   -12.88321   0.9899   9501.91588    1e-05  58945.60902   52.5202  27.82262  19.37586  58993.70127 
    13.89064  1.53497  2.47591       2.34501         2027.64891  0.00912  0.21953     0.20865   3.43283     17.38897   6451.31496   -13.42948  1.45919   8415.75088  0.00014  58945.06275   52.3354   0.46748  19.41394     58994.27 
     14.0799  2.13342  3.65276       3.18109         2074.45273  0.42678  0.21107     0.23026   3.26413     19.05994   8293.16409   -13.64504  1.42323   9301.13795  0.00638  58944.84719  52.41606  21.55606  19.37739     58991.31 
    14.08194  1.93363  2.65671       0.11991         4272.34691  0.08428  0.16646     0.07373   4.71373     16.71545    6448.2151   -13.95154  1.45124   8894.66181    3e-05  58944.54069   52.4207   4.70452  19.37624  58992.45036 
    14.13272  1.90902  2.64626        1.9882         2624.94603  0.01979  0.06051     0.04335  19.12277     17.96027   8074.74755   -12.50244  1.39855   9037.24245  0.00051  58945.98979  52.56894    1.5055  19.39318  58994.43966 
    14.26826  1.71275  1.88117       0.42589         2841.30171  0.21609  0.07441     0.22373  14.27165     16.31599   4493.40074   -12.54024  0.83329   8955.62872    1e-05  58945.95198  52.53621  15.52488  19.40332  58993.70127 
    14.14967  1.77444  2.37187       0.36264         3339.98013  0.36887  0.17156     0.14369    5.3052      16.3171   5419.62871   -12.48407  1.15138   9152.52925    1e-05  58946.00816  52.45862  21.22184  19.38482  58993.70127 
    14.10856  1.72865  1.83864       0.21491         5818.65375   0.2877    0.055     0.02484  11.59742     16.80602   3380.76802   -12.90022  1.49217   7216.61904    4e-05    58945.592  52.33016  19.80627  19.39815  58993.70127 
    14.02655  1.85439  3.11094       4.87378         2112.04623   0.0028  0.25439     0.19238   3.02376     16.11468   8282.63678   -13.77048  1.14866   8637.86945    1e-05  58944.72174  52.34219   0.13852  19.36396  58993.70127 
    13.99015  1.76824  2.91527       3.72119         2023.65741  0.00554  0.23697     0.33208   3.61301     17.34173   9829.15245   -12.37433  1.42985   9678.44758  0.00012  58946.11789  52.46305    0.2877  19.39616  58993.70127 
     14.5666  1.94541  2.16552       1.99798         2026.04406  0.36845  0.05357     0.16995  20.73293     17.82951   7954.66363     -7.6433  0.67051  11695.23844  0.00038  58950.84892  52.79951  28.46097  19.43863     58994.27 
    14.35286   1.7141  2.15535       0.37388          3709.4556  0.38262  0.07984      0.0751   7.40508       17.408   9572.10684   -13.08714  0.56949   7078.71134  0.00014  58945.40508  52.27041  23.85836  19.38977  58994.43966 
    14.14805  1.68899  2.41636       0.02748         5036.55891  0.27351  0.11271     0.20915   6.85826     16.17757   7112.42089   -13.16262  0.80078   9485.04218    1e-05   58945.3296  52.51678  16.75159  19.40529  58993.70127 
    14.26156  1.70064  1.53099       3.89246         2304.90455  0.28909  0.16764     0.08102   8.53185     16.29767   7017.27549    -5.64024  1.21324  10075.61768    1e-05  58952.85198  52.59108  18.61825  19.36875  58993.70127 
    13.97753   1.2512  2.01128       0.06783         3287.33079  0.06355   0.2106     0.12964   3.25719     18.30699   7976.65492    -15.7224  0.61292   8629.67255  0.00113  58942.76982  52.35072   3.20769  19.36528  58994.43966 
    14.03536   1.5974  2.08627       0.48266         5664.19932  0.12785  0.06834     0.03324   7.87564     17.35026   7641.35795   -11.57826  1.10317   6359.82759  0.00012  58946.91396  52.18355   8.08575  19.36838  58993.70127 
    14.13303  1.59887  2.93301       4.29287         2197.95475  0.19031  0.32482     0.17427   2.42083     17.47386   7156.60545   -13.25801  0.61779   9530.18293  0.00017  58945.23421  52.39834   8.78973  19.38829     58994.27 
    14.09209  1.57495  2.87866        2.5442         2466.10576  0.01034  0.05074     0.19609  12.14967     17.78351   3966.83187   -14.75557  0.63224   8029.23287  0.00034  58943.73666  52.42706    0.7187  19.37454  58992.45036 
    13.99595  1.88625  3.59915       4.87952          2611.9338  0.05968  0.08295     0.09642   8.23841     16.91877   9882.65137   -13.19216  1.33796   8160.91831    5e-05  58945.30006  52.40459   3.81341  19.39844  58992.45036 
    13.91011  1.15511  1.93569       0.43493         3229.02364   0.0116  0.18653     0.18348   3.98921     16.90847   9039.96027   -15.89332  0.69804   8100.06081    4e-05   58942.5989  52.32022   0.61953  19.42988     58994.27 
    14.08963  1.84412  2.39643       0.28393         2575.79074  0.00338  0.09696     0.16536   8.51013      16.4124   3489.95665   -16.87576  1.08418   7748.96352    1e-05  58941.61646  52.36278   0.21782  19.38119  58993.70127 
    14.30508  1.94625  2.57782       2.94575         2029.66698  0.31274  0.05958     0.08407  17.84437     18.17984   6862.25554    -8.62792  1.25214  11052.26807  0.00084  58949.86431  52.73803  23.47926  19.38555  58992.45036 
    13.98137  1.46217   1.7709         0.087         3792.17272  0.18493  0.03636     0.01608   19.3711     19.71296   7848.66457   -13.76555    1.317   8319.82384  0.02869  58944.72667  52.49816  14.10328  19.36594  58993.70127 
    14.11951  1.70715  2.80699       4.08182         2324.92707  0.35171  0.25378     0.41327   3.14077     18.15099   6081.03072   -11.84505  0.91058    8197.1119  0.00079  58946.64717   52.3015  17.56841  19.42016  58992.45036 
    14.33362  1.92265  1.85757       0.04201         5021.68934  0.42128  0.15138     0.24849   5.30991     18.18986   7122.17655   -16.55108  0.74861   7624.47159  0.00086  58941.94114  52.30006  24.24292  19.39051  58994.43966 
    14.01683  1.71148  2.43417       0.22633         5557.61881   0.0029  0.17898     0.15034   3.52303     16.60672    5096.4738    -13.6296  1.16237   8039.46871    2e-05  58944.86262  52.29884   0.14944  19.35839  58994.43966 
    14.30242  1.83856  1.74211       0.49115         5440.59032  0.30067   0.0598     0.20633  10.48238     17.10537   9443.41649   -11.86791  0.86705   6190.18111    7e-05  58946.62431  52.18757  20.25921   19.4013  58994.43966 
    14.18122  2.19579  3.36992        2.5187         2216.28973  0.18051  0.11819     0.17806   7.03372     18.85494   3323.39296    -13.0218  1.21867   8891.01684  0.00398  58945.47043  52.46319  11.12136  19.40283     58994.31 
    14.26062  1.82457  2.29738       3.86599         2259.52426  0.18743  0.05079     0.37065  18.80709     16.20767   5677.96204    -7.00536  1.21589   9117.64955    1e-05  58951.48686  52.57526  14.21385    19.355  58994.43966 
    13.82818   1.4267  2.58318       1.36483         2380.45377  0.00379  0.20373     0.16126   3.46643     16.15892    7757.9719   -14.47858   1.1876   9221.53686    1e-05  58944.01364  52.41601   0.19479  19.37729  58992.45036 
    13.95448  1.60768  2.53611       0.41857         2681.33837  0.03127  0.08676     0.07569   8.97386     18.70221   9575.52714   -14.02075  1.21592   9066.61976   0.0028  58944.47147  52.50433   2.03675  19.39352  58993.70127 
    13.98867  1.79767    2.682       0.00649         3644.09671  0.33194  0.21936      0.4914   3.37215     17.79585   3785.02436    -16.5031  1.48755   8878.71466  0.00035  58941.98913  52.37972  16.92222  19.38066  58992.45036 
    13.74796  1.20141  2.11352       0.50947         3689.71504  0.00138  0.07146     0.06769   7.86404     17.94667    4982.7709   -15.50772  1.08586     7399.873  0.00049  58942.98451  52.31496    0.0873  19.39881  58993.70127 
     14.4095  1.99908  2.66159       1.66201         2107.99734  0.28426  0.07292     0.20192  13.30067     16.18888   7447.00107   -11.31215  0.69785   9660.38774    1e-05  58947.18008   52.5958  20.13303  19.39629  58992.45036 
    14.07418  1.76319  2.96036       2.53898         2361.16845  0.24971  0.19398     0.35069   4.20034     16.31821   4966.14486   -11.34724  1.09196   9177.62702    1e-05  58947.14498  52.43473  13.52301   19.3908  58994.43966 
    13.89093   1.4823   2.2629       0.29844         3359.17114  0.02619  0.05047     0.01956  14.33297     17.75151   7594.29577   -15.60722  1.36197   8141.93031  0.00031    58942.885  52.45385   1.88355  19.39185  58993.70127 
    14.02546  1.46925  2.68145       4.46767         2296.77796  0.11971   0.2047     0.35778   3.89589     18.26978   5875.78914   -10.88523   0.7966   9248.47425  0.00103    58947.607  52.43259   6.35288  19.38139  58994.43966 
    14.25016  1.67063  2.53618       0.38586         2537.85167  0.06863  0.10543     0.04603   6.23334     16.78787   5699.27644   -14.80266   0.5069   8421.60965    3e-05  58943.68956  52.40358   4.10869  19.36572  58992.45036 
    13.96966   1.7829  3.07422       1.40531          2470.1093  0.14194  0.25333     0.18667   2.85758     18.70155   8778.32374   -14.47062  1.29552   9468.80881  0.00279   58944.0216  52.41472   6.89601  19.39456  58993.70127 
    14.25634  1.92274  2.19792       3.56035         2272.19394   0.2501  0.15988     0.30721   7.70289     18.51533   6437.37656    -8.49281  1.29004   9385.50655  0.00182  58949.99941  52.51937  15.73738  19.37426  58993.70127 
    14.01229  1.52067  1.97815       0.54696         3126.52187  0.10047  0.05454     0.02996  17.00863     16.47745   3326.84045   -12.90267  1.41626   8275.73575    2e-05  58945.58956   52.4827    7.4732  19.42335  58993.70127 
     14.0201  1.71966  2.22607       0.03866         2226.38945  0.16852  0.09446     0.05771   8.46222      16.5952    6638.2877   -15.92884  1.32956   8398.31344    2e-05  58942.56339  52.43212  10.83336  19.38986  58992.45036 
    14.34119  1.85812  1.79033       0.32196         4093.05349  0.23909  0.07163     0.24681  12.24721      16.8943   9465.80884   -11.51198  0.84606   7973.94134    4e-05  58946.98024  52.42178  16.64827  19.34984  58994.43966 
    14.24285  2.00896  2.86532       4.07122         2188.85593  0.24857  0.29678     0.29986   3.07551     16.81879   8171.16335    -9.04636  0.98752   8847.08564    4e-05  58949.44586  52.36513  12.34073  19.41527  58993.70127 
    13.89611  1.42114  2.33521       0.41496          2901.6626  0.01336  0.18887     0.30466   3.76229     19.38309   7981.30342   -13.51879  1.03585   9342.95335  0.01342  58944.97343  52.43727   0.70238  19.39373  58994.43966 
    13.85119  1.49027  2.33537       0.14347         2791.29574  0.00122   0.2065     0.31171    3.0703     16.28894   6236.62975   -13.96549  1.54734   9255.95403    1e-05  58944.52673  52.40415    0.0604  19.38991     58994.27 
    14.06313  1.55608   2.4216        1.0708         2173.78811  0.02535  0.33874     0.32581   2.40805     19.80437    7370.8747   -12.60947  0.77033   9576.79831  0.03541  58945.88275  52.40186   1.16903  19.38054  58994.43966 
    13.93498  1.57318  2.50585       0.17484         2589.74514  0.00554  0.11642     0.46115   5.33464     16.43555   6262.96783   -14.23655  1.05925   9217.73887    2e-05  58944.25568  52.46539   0.31944  19.36968  58992.45036 
    14.08773  1.66691  2.30738       0.35438         3510.84114  0.03643  0.05651     0.07159   12.3302     18.71687    7142.2348   -14.58097  0.92429   7657.54863  0.00289  58943.91125  52.38722   2.54025  19.38227     58994.27 
    14.03774  1.75045  2.12262       0.16544          5396.4451  0.05831  0.13602     0.36865   5.18082     16.20516   7037.71741   -14.56436  1.55927   7470.24589    1e-05  58943.92786  52.27961   3.33476  19.35039  58992.45036 
    13.90491  1.63965  2.83936        3.9589         2005.75794  0.01294  0.23134     0.08173   2.91785       16.891   6770.08235   -13.59025  1.35719   8698.41119    4e-05  58944.90198   52.3437   0.63236   19.3954  58992.45036 
    14.15842  1.71795  3.02136       0.60504         2170.43355  0.34643  0.16086     0.05156    4.6156     16.49698   7211.12873   -15.31994  0.61412  10128.87079    2e-05  58943.17228  52.53119  19.23353  19.37739  58992.45036 
    14.22131  1.94425  2.68203       3.90383         2036.01555  0.02043  0.27565     0.17605   3.53657       18.257   8608.08882   -11.29684  0.90575   8660.25832    0.001  58947.19539  52.36391   1.05533  19.38012  58994.43966 
    14.10407  1.72584  2.21291       0.11654         4645.28129  0.33481  0.17045     0.10902   4.18672     16.68724   8859.75177   -13.93832  1.05144   8269.56978    3e-05   58944.5539  52.34386  18.11629  19.36117  58993.70127 
    13.91128  1.55289  2.67234       1.00586         2312.88591  0.07595   0.2405     0.08685   2.72361      18.5239   9333.66062   -13.37518  1.11052   8907.91975  0.00186  58945.11704  52.35543    3.6373  19.37601     58994.31 
    14.06308  1.48716  2.12971       0.03101          5460.8109  0.11252  0.10153     0.40089   7.00484     17.80747   4773.50026   -16.09973  0.74121   8343.43134  0.00036  58942.39249  52.40756   6.92567  19.35018  58992.45036 
    13.93608  1.56741  2.12608        0.3155         5212.95915   0.0061  0.04368     0.01798  13.21991     17.86201   5402.85065    -12.8222  1.54684    7354.1255   0.0004  58945.67002  52.35834   0.43141  19.39733  58994.43966 
     14.2783  2.05726   3.1095       4.61569         2000.92152   0.2833  0.15696     0.13449   5.71059     16.56911    7226.2411   -10.64364  0.86309    9643.1632    2e-05  58947.84858  52.51195  16.60073  19.41233     58994.31 
    13.92452  1.82287  2.95063        0.8753         2746.41497  0.32218  0.17816     0.02474   3.88751     17.94053   5679.66392   -19.29322  1.54169   7354.79067  0.00048    58939.199  52.23334  17.08701  19.36425     58994.27 
     13.9176  1.60022  2.61953       0.52813         2930.17487  0.00158  0.29589     0.16733   2.61816     19.39498   9350.77269    -16.2226  1.14762   8681.34887  0.01379  58942.26963  52.32784   0.07465  19.36127     58994.27 
    14.18468  1.86043  3.07575       2.88802         2152.79113  0.00346  0.31733     0.27097   2.73309     19.16214   8088.91781   -13.71848  0.70352     9533.164  0.00807  58944.77374   52.4148   0.16575  19.40826  58993.70127 
    13.98922  1.77308  3.04591       1.70196         2723.70856  0.03377  0.04641     0.05302  16.26212     17.91858   6518.97796   -13.31069  1.54619   8765.56013  0.00046  58945.18153  52.52884   2.48967  19.35167  58992.45036 
    14.17819  1.79039  2.31652       0.52833         3674.98516  0.41162  0.11807      0.1253   5.66081     16.26877    5147.6082   -11.46842  1.08583   7462.27579    1e-05   58947.0238  52.28831  24.06795  19.38999  58993.70127 
    14.54304  2.10028  2.52626       0.31219         2721.61841  0.01647  0.06402     0.12173  16.89841     16.37396   7594.12253   -14.80134  0.43979   8778.44063    1e-05  58943.69088  52.53338    1.2232  19.38853     58994.27 
    14.35344  1.79112  3.13092       4.05228         2136.04653  0.18005  0.17787     0.24676   4.42968     17.24177   8118.46646   -10.45851  0.45762  10174.54321   0.0001  58948.03372  52.53042   9.88925   19.3342  58993.70127 
    14.02661  1.76348  2.72863       2.12803         2225.56966  0.00281  0.31634     0.48942   2.57398     19.39872   4573.86548   -13.36168  1.14158   8576.76103  0.01391  58945.13054  52.31505   0.13217  19.41551  58996.36411 
    14.03109  1.42553  2.02808       0.48684           2561.984    0.011  0.06436      0.2786  10.78787     20.02341   3636.78319   -13.01414  0.72632   8422.12639  0.05863  58945.47808  52.45768   0.74546  19.35643     58994.27 
    13.89379  1.32632  2.36388       0.50824         3054.48402  0.00499  0.08043     0.27366   7.78603     18.50638   3966.06624    -14.1105  0.84014   8717.83869  0.00178  58944.38172  52.45634   0.31478  19.42183  58992.45036 
    14.04804   1.6871  2.21528       0.25922         4376.05237  0.02566  0.13215     0.06339   5.37043     16.56884   6754.61564   -18.57167  1.01411   6717.44204    2e-05  58939.92055  52.19128   1.48084  19.35393  58994.43966 
    14.03909  1.96473  2.64641       0.06374         4849.03162  0.00422  0.13484      0.0977   4.61997     19.37697   4939.55002   -15.02185  1.48399   8199.45983  0.01323  58943.47037  52.34774   0.23435  19.39301  58994.43966 
    14.03155  1.55358  2.08787       0.16269         5320.33612  0.12763  0.09663     0.08579   6.33245     16.60667   9336.69705   -16.51902  0.86467   7124.03768    2e-05   58941.9732   52.2599   7.66945  19.39623  58994.43966 
    14.33888   2.0851  3.05345       4.83208         2055.80919  0.09213  0.05868     0.37019  15.95132     17.63691   7618.09651    -11.0219  0.76064   9320.23855  0.00024  58947.47032  52.58049   6.76719  19.37328  58994.43966 
    14.17319  1.43512  2.28524       0.03331         3595.56476  0.44466  0.10607     0.10917   7.81172     19.70082   8588.30106      -13.49  0.57741   10322.6795   0.0279  58945.00223  52.60344  28.07051   19.3741  58992.45036 
    14.20814   2.1701  3.60399       1.90949         2822.65319  0.00719  0.09303     0.21612   7.22628      16.8651   7024.79647   -11.04054  0.98419   8312.11517    4e-05  58947.45168  52.40745    0.4455  19.39489     58991.31 
    14.38097  1.83139  2.00532       0.65816         2324.37086  0.31846  0.08577     0.21167  12.74654     17.45097   4579.65208   -11.82038  0.73034   9640.34614  0.00016  58946.67185  52.59021  22.35894   19.3899  58992.45036 
