 log(Bfield)      Mns    Pspin  cutoff_power  cutoff_wavelength  fnickel    kappa  kappagamma  mejecta  log(nhhost)  temperature  texplosion  thetaPB     vejecta      A_V        MJD_0   log(KE)     M_Ni  Peak_mag     Peak_MJD 
    13.67803   1.8333  2.68721       4.21938         2366.45663  0.00142  0.01614     0.02623  0.23119     21.01852   9776.89671   -23.36308  0.85204  1023.61131  0.57975  56635.91692  49.88296  0.01732  18.56462  56651.15188 
    13.81091  1.82586  4.91929       3.41591         3020.49842  0.06619  0.03309     0.12607  0.32025     20.42491   5732.81173   -15.90451  1.15395  2559.95163  0.14779  56643.37549  50.82082   1.1207  18.72814  56665.30647 
     14.0536  1.90468  3.86528       2.83299         2263.36029  0.00454  0.06178     0.16551  0.22373     17.51264   6140.23136   -46.42164  0.66636  2081.86693  0.00018  56612.85836  50.48242  0.05328  18.71896      56663.3 
    13.89197  1.62492   4.8925       4.90789         3629.78616  0.00767  0.01685     0.03709  0.22831     20.63296   4190.17958     -15.983  0.67673  1332.23732  0.23861    56643.297  50.10538  0.09229  18.66247  56651.15188 
    13.61746  1.42244  2.61474       3.48145         2465.37173  0.00339  0.05505     0.16092  0.20828     20.59614   5863.17257   -50.72875  1.02955   2027.9676  0.21922  56608.55125  50.41959  0.03634  18.23014  56633.45865 
    13.72372   1.5819  2.97935       2.25012         2142.47652  0.00415  0.09437     0.24344  0.17013     19.53652   6222.33087   -47.77407  1.24171   2423.1142  0.01911  56611.50593  50.43565  0.03232  18.83446     56672.19 
    13.67067  1.45229   5.2468       4.12603         3787.30069  0.00747  0.08764     0.17888  0.10053     17.54066   3064.32871   -13.53365  1.16454  2041.33834  0.00019  56645.74635  48.64247  0.00132  18.64709  56647.61323 
     13.6394  1.50333  3.44013       3.07983         2591.66885  0.01768   0.0815     0.14846  0.12018     18.36405   4439.61667   -39.99529  1.28127  1747.51238  0.00128  56619.28471  49.70116  0.04877  18.58046      56663.3 
    13.98768  1.63991  5.83118       4.59846          3889.6393  0.00116  0.02641       0.069  0.21253     17.05908   9304.87468   -13.39985  0.56427   1839.9484    6e-05  56645.88015  50.34675  0.01278  18.66366  56633.45865 
    13.87668  2.08793  6.32959       4.19346         3707.95022   0.0141  0.04544     0.11182  0.17287     19.03157   3981.57198   -27.10114  1.31444  2151.55098  0.00597  56632.17886  50.34507  0.11303  18.44943  56658.22917 
    13.77458  2.00597  4.47297       3.26447         3821.89941  0.02947  0.01971     0.09375   0.1102     20.98863   6242.39249   -16.72638  1.31716  1217.98689   0.5412  56642.55362  49.12442  0.04434  18.28462  56615.76541 
    13.63502  1.46301  3.91453       1.58791         3772.81628  0.02052  0.09261     0.28741  0.16193     19.78517   8087.43087   -36.88011  0.92076  3132.39438  0.03388  56622.39989  50.61682   0.1451  18.72271     56659.28 
    14.02474  1.79308  3.48209       3.00419         2687.44913  0.00516  0.03976     0.04002  0.16364     20.36565   6186.40649   -36.36887  0.53971   1076.7736  0.12894  56622.91113  49.69857  0.03725  18.81375  56658.22917 
    13.88431  1.92238  5.39049       3.02025         3987.41024  0.01072  0.02476     0.05033  0.24211     17.96775   7475.40578   -37.78082  0.83437   1624.8456  0.00052  56621.49918  50.30743  0.13822  18.67511  56651.15188 
    13.72389  1.66794  4.06244       1.88519         4185.17523  0.00207  0.02541     0.04971  0.19821     16.68358   5100.62667   -46.40857  1.40143  1319.15599    3e-05  56612.87143  50.01598  0.02064  18.61611  56658.22917 
    13.46051  1.50683  3.45451       4.64181         3122.66171  0.00504  0.02389     0.03969  0.22526     20.66347   8986.96296   -28.09924  1.32754   1652.5368  0.25597  56631.18076  50.28544  0.05972  18.77158  56658.22917 
    13.72865  1.51934  3.73121       2.89083         2821.94289  0.02785  0.07655     0.14355  0.18375     19.98519   5574.98699   -40.43638   0.9032  2210.18117  0.05369  56618.84362  50.41383   0.2478  18.44036  56640.53594 
    13.73966  1.73965  3.76647       2.34771         3604.73002  0.01098  0.02587      0.0775  0.21207     20.81941   8576.87243   -28.76486  1.56767  1416.70315  0.36656  56630.51514  50.11847  0.12044  18.64379  56647.61323 
    13.84585   1.8689  4.75574       2.11405         4136.29622  0.00804  0.04241     0.12196  0.16165       20.248   7636.45709   -35.73733  1.15139   1759.3686  0.09834  56623.54267  50.11426  0.05666   18.7061  56654.69053 
    13.83716  1.83466  4.08314         4.437         3393.30995   0.0037  0.01047     0.03409  0.24412     21.01063   7133.52735    -11.8238  0.74811  1228.36447  0.56932   56647.4562  50.06846  0.04817  18.62362  56651.15188 
    13.96925  1.81873  5.68071       2.85328         3994.00122  0.00603  0.01982     0.05541  0.36765     18.91336   5184.99541   -24.02494  0.78709  1917.14951  0.00455  56635.25506  50.61807  0.11421  18.56642  56644.07459 
    13.79468  1.88174  5.39061       4.57815         3151.29126  0.00221  0.06919     0.23895  0.22367     19.83299   3641.20252    -31.2084  1.29613  3195.06129  0.03782   56628.0716  50.85433  0.02594  18.57169  56651.15188 
    13.90229  1.71951  4.89144       2.40825         4166.52256  0.01133  0.07171     0.25733  0.12657     18.98274   8402.60807   -44.39164  0.76904  2322.06457  0.00534  56614.88836   50.0524  0.03976  18.39276  56647.61323 
    13.82627  2.04283  5.41756       4.64717         3241.78315  0.02064  0.05286     0.08308  0.11268     20.43516   5405.91628   -22.06333  1.50313  1384.13155  0.15132  56637.21667  49.31971  0.03771  18.72599  56651.15188 
     13.7977  1.74056  4.02279        2.8979         3047.33327  0.00105  0.06847     0.24458   0.1211     20.57145    8818.9318   -24.38495    1.136  1916.40732   0.2071  56634.89505  49.79827    0.003  18.76635  56651.15188 
    13.70869  1.86616  4.90218       4.98584         3523.18152  0.00784  0.01107     0.02682  0.32282     20.82607   4127.80191   -13.92729  1.47627  1436.86124  0.37222  56645.35271  50.32215  0.13371  17.98693  56608.68812 
    13.63176  1.64315  3.91609       3.43126          3563.9819  0.00348   0.0838      0.1966  0.11154     20.83308    7284.4196   -29.97537  1.16189  2135.41294  0.37828  56629.30463  49.65975  0.00585  18.56566  56644.07459 
    13.86245  2.01997  6.96118       4.96159          3898.6919  0.02336  0.03091     0.09476   0.1522     19.38408   4138.12448   -15.41071   1.5284  1728.62655  0.01345  56643.86929  50.04163  0.14422  18.56682  56640.53594 
    13.77471  1.80394  4.43108       4.95417         2763.67199  0.00597  0.05558     0.15453  0.23549     20.35163   8680.47157   -36.01002  1.14875  2438.57391  0.12484  56623.26998  50.64634  0.07459  18.68568  56654.69053 
    13.57365  1.53697  2.83679       3.32773         2890.76403  0.00254  0.03498     0.12568  0.17296     21.05571   5886.00777   -18.24577  1.09865  1772.38728   0.6316  56641.03423  50.17712  0.02038  18.43494  56633.45865 
    13.81616  1.68093  5.18202        2.6704         3808.77495    0.001  0.02782     0.11524  0.19182     17.69585   6573.76736   -16.11791  1.20894  1906.15862  0.00028  56643.16209  50.31459  0.00954  18.66871  56658.22917 
    13.80307  1.78757   4.4147       2.54186         4028.31404  0.00183  0.01856     0.02699  0.23531     20.59885   7449.17355   -25.14797  1.02475  1152.29116  0.22058  56634.13203  49.99481   0.0228   18.5431  56644.07459 
    13.91393  1.97443  5.85903        3.3464         3970.67323  0.03259  0.01211     0.04157  0.21543     20.48655   9567.55924   -10.88421  1.05171   1216.1437  0.17033  56648.39579  49.99479  0.36494  18.61019  56651.15188 
    13.79746   1.9065  4.63495       2.86634          3580.6927  0.00259   0.0174     0.04921  0.34373      20.5991   7145.07024   -28.67251  1.45338  1680.09922  0.22071  56630.60749  50.48051  0.04653  18.74548  56644.07459 
    13.87659  2.00928  4.49868       2.51193         3703.13106  0.00586  0.04237     0.08698  0.19626     20.66974   4323.84377    -35.7986  0.91487   1794.3054  0.25969   56623.4814   50.2769  0.05777  18.62623  56651.15188 
     13.7342  1.90967  4.62369       3.87739         3453.08062  0.01144  0.01886     0.05969    0.148     20.80866   7902.44254   -14.06992  1.26911  1337.00501   0.3576  56645.21008  49.78902  0.06598   18.6845  56654.69053 
    13.70361   1.6889  4.16056       4.86724         3816.14281  0.01671  0.01493     0.03456  0.17164     20.89716   5097.24774   -27.13543  0.80823  1221.43412  0.43842  56632.14457  49.84771  0.13222  18.57285  56640.53594 
    13.67065  1.62764  4.43842       2.83344          3255.0136  0.00447  0.07726     0.21724  0.21784     16.61415   3128.59858   -41.36128  1.24168   3185.5673    2e-05  56617.91872  50.83738   0.0508  18.77864  56654.69053 
     14.0113  1.85963  6.03056       4.65162         3657.16771  0.00909  0.02228     0.09694  0.24212     20.53712   3804.30321   -10.51941  0.73729  1941.35675  0.19136  56648.76059  50.46203  0.11711  18.74267  56651.15188 
    13.75726  1.99268  4.84588       2.98597         3885.91673  0.00551  0.03553     0.03672  0.13934     20.38872   4658.76823   -28.68912  1.25687   1244.3802  0.13597  56630.59088  49.65549  0.02699   18.6196  56647.61323 
     13.7077  1.30927  2.83776       3.22641          2371.7973  0.02365  0.09922      0.1628  0.11239     16.30234   9964.30912   -49.91548  0.69414  1764.50969    1e-05  56609.36452  49.52143   0.0423  18.67891  56647.61323 
    13.68146  1.63926  4.48842       4.23111          3648.6901  0.00171  0.02734     0.08167  0.28731     20.66807   8406.58478    -31.3055  1.14149  2171.72864   0.2587   56627.9745  50.63571  0.02628  18.53455  56654.69053 
    13.80718  1.25486  3.21356         3.555         3077.31325   0.0121  0.05599     0.04857  0.20747     17.47176   7248.91045   -44.50516  0.70574  1194.22998  0.00016  56614.77484  49.95733  0.12887  18.74043  56651.15188 
    13.82256  1.66806  3.99333       2.50803         3839.59975   0.0223  0.07411     0.15871  0.10988      17.8589    5728.6414   -64.69286  0.89634  1642.01286   0.0004  56594.58714  49.37132   0.0326  18.54264  56651.15188 
    13.65918  1.44299  3.06544        1.9013         4065.04529  0.00383  0.04408      0.0931   0.1094     20.62903   8278.15049   -38.19647  1.18687  1184.77979  0.23646  56621.08353  49.06873  0.00535  18.67398  56658.22917 
    13.86009  1.96301  5.90191       4.22264         3170.59954  0.04812  0.09641      0.3431  0.16524     16.27982   4972.12984    -26.4987  1.33558  3245.86431    1e-05   56632.7813  50.66535  0.35434   18.5813  56636.99729 
    13.89928  1.71351  4.47862        1.9917         3522.80845  0.00565  0.10435      0.2911  0.12123     19.06868   6609.98778    -42.9039  0.72318  2572.83564  0.00651   56616.3761  50.05648   0.0163  18.71474  56661.76782 
    13.74738  1.74302  5.89777       4.88402         3818.26335  0.00846  0.03322     0.10869  0.12807     20.19581   8779.22214    -8.54148  1.50941  1717.73005   0.0872  56650.73852  49.81113  0.03113  18.77556  56654.69053 
    13.86729  1.98427  5.43013        3.6157         3854.32712  0.01423  0.04277     0.09808  0.19553     20.15028   5753.05043   -30.46403  0.81734  2344.61867  0.07853  56628.81597   50.5069  0.13943  18.53941  56633.45865 
    13.75192  1.78737  5.50939       3.58908         3914.28171  0.00357  0.01839     0.05997  0.31083     19.98062   4650.38054   -32.31382  1.55442  1899.67781  0.05313  56626.96618   50.5505  0.05883  18.55367  56651.15188 
    13.64902  1.55409  3.59547       4.78639         2157.52738  0.04491  0.07688      0.1909  0.17229     18.80797   8647.50716   -33.80909  1.06374  2560.55056  0.00357  56625.47091  50.49363  0.35787  18.55353  56651.15188 
    13.92765  1.88723  5.20121       2.95322         3300.08695  0.05674  0.07886     0.27014  0.10187     18.77933   5240.62372   -27.88638  0.85094  2194.50296  0.00334  56631.39362  49.02381  0.02086  18.41165  56640.53594 
    13.79068   1.5921  5.43882       4.17082         3748.95982  0.00202  0.04066     0.12322  0.16628     19.81074   4745.89843   -14.80412  0.94585  2082.52624  0.03593  56644.47588  50.28518  0.01508  18.70378     56660.31 
    13.62392  1.44685  3.29896       4.27117         2831.40575  0.00241  0.02988     0.06817  0.25076      20.7626   4013.20364   -28.75653  0.81391  1880.68362  0.32161  56630.52347   50.4512  0.03232  18.34489  56633.45865 
    13.64268  1.57326  3.92953       4.69601         3373.60737  0.00107   0.0497     0.04416  0.10581     20.71977   7669.29789   -35.01158  1.16651  1011.41109  0.29141  56624.26842  48.74773  0.00098  18.40341  56633.45865 
    13.73727  1.67613   4.5192        4.4217         3816.78647  0.02024  0.03454     0.12209  0.12516     20.77577   6788.00215   -26.91601   0.8893  1748.88306  0.33151  56632.36399  49.78555  0.06769  18.63221  56640.53594 
    13.74116  1.26844  2.31456       2.29451         2985.72043   0.0146  0.04463     0.10432  0.19481     20.84981   3148.66466    -28.8299   0.6413    1683.828  0.39313   56630.4501  50.21698  0.14228  18.65972  56658.22917 
    13.68644  1.41922  4.38304       4.00426         3070.91018  0.00143  0.11783     0.40695    0.119     18.21484   4225.62181   -27.95983   1.1233  2873.69311  0.00091  56631.32017  50.11004  0.00375  18.76258  56654.69053 
    13.80479  1.57881  5.01327       2.21295         4058.62353  0.07526  0.02795      0.0785  0.23947     18.98688   9777.08311   -18.93651  1.26303  1692.41293  0.00539  56640.34349  50.33743  0.95796  18.30027  56636.99729 
    13.65302  1.62966  4.36035       3.42538         3743.04428  0.00191  0.01564      0.0461  0.32383     20.62607   5949.72023   -28.67488  1.26459  1736.62107  0.23485  56630.60512  50.48787  0.03269  18.55143  56651.15188 
    13.99372  2.00325  3.92195       3.02205         2420.38089  0.00257  0.02245     0.07699  0.62876     20.17313   5580.20027   -40.45844  0.79532  2498.92367  0.08277  56618.82156  50.99747  0.06849  18.85659  56661.76782 
    13.75988    1.772  4.82668       2.96381         3334.22609  0.00647  0.04384     0.11763  0.31178     20.01808   7804.10248   -39.93363  1.18139  2643.68544  0.05792  56619.34637  50.83872  0.10711  18.61834  56661.76782 
    14.11417  2.13923  5.85903       3.87033         3172.88306  0.00591   0.0505     0.15235  0.50726     17.85344   8595.92686    -44.4029  0.63178  3558.40216   0.0004   56614.8771  51.25076  0.13948  18.72106  56651.15188 
    13.83147  1.54043  3.91721       3.38011         3816.34935   0.0107  0.01525     0.04611  0.15402     20.84029    3055.6811   -15.96437   0.5511  1258.20214  0.38461  56643.31563  49.77766  0.06793  18.66954  56654.69053 
    13.70387  1.60907  3.35908       2.45495         3621.51456  0.02759  0.02104     0.06261  0.13376     20.86502    3331.7425    -16.3072  1.06458  1130.34634  0.40715   56642.9728  49.51622  0.11884  18.67042  56647.61323 
    13.71607  1.92514  4.13089       3.15543         3779.04999  0.00228  0.02301     0.06592  0.12634     20.94879   4596.35394   -24.21437  1.38078  1214.17118  0.49376  56635.06563    49.486  0.00793  18.71285     56659.28 
    13.72792  1.85442  4.66462       3.28949         3951.37151  0.01347  0.01766     0.04235  0.25873     20.64804   5833.16752   -33.31407   1.1154  1630.62901  0.24704  56625.96593  50.34172  0.18649  18.50315  56647.61323 
    13.73109   1.8125  4.76986       3.48503          2898.2253  0.01057  0.03021     0.08175  0.33244      18.9786   3078.80513    -26.8631  1.29746  2447.67412  0.00529   56632.4169   50.7955  0.18463  18.59585  56658.22917 
    14.10635  1.69794  5.05721       3.41173         3909.34829  0.00101  0.02055     0.07206  0.32539     20.39002   4276.90895   -29.69829  0.42801  2068.73597  0.13638  56629.58171  50.64163  0.01732  18.71896  56651.15188 
    13.55783  1.37202  3.72522       1.77985         4098.36406  0.02164   0.0295     0.03926  0.35044     18.41807   7728.26345   -42.05734  1.08114  1846.46624  0.00145  56617.22266  50.56923  0.39454  18.78572  56654.69053 
    14.11413  1.92859  5.04417       2.96798         3040.76151  0.02267  0.05484      0.1422  0.26552     18.83982   4895.78237   -35.59215  0.48959  2740.76215  0.00384  56623.68785  50.80434  0.32241  18.36472  56640.53594 
    13.94458  1.84889  5.14968       4.34822         3940.73881  0.00267  0.04105      0.0752  0.13993     20.48164   4990.86392   -20.63899   0.5121  1769.61668  0.16841  56638.64101  49.96674  0.01326  18.71175     56659.28 
    13.78143  1.78857  4.26453       4.57055         3793.84073   0.0599  0.02145     0.02486  0.13043      20.8072   3361.86254   -21.83191  0.64511  1052.28952  0.35639  56637.44809  49.41557  0.23608  18.75488  56665.30647 
    13.61553  1.29974  4.71073       4.42839         3775.50795   0.0232  0.05878      0.2125  0.12235     19.09687   8482.66853   -29.14126  1.28691  2087.78263  0.00694  56630.13874  49.89457  0.06998  18.64104  56658.22917 
    13.90529  1.84219  5.30226       2.89469         3734.98946  0.00614  0.05784     0.16367  0.13689     19.36209   9591.53684    -25.7108  0.72449   2301.2658  0.01279   56633.5692  50.16621  0.02848  18.76326  56654.69053 
    13.71577  1.66368  4.40194       4.20308         3732.88476  0.00218  0.02582     0.05587  0.13779     20.86715   9770.23988   -16.87311  0.96727   1283.9665  0.40914  56642.40689  49.66819  0.01031  18.51349  56647.61323 
    13.74381  1.36331  4.20497       4.16349         3438.68817  0.02277  0.04205     0.08563  0.35399     19.05678   3439.06187   -45.99938  0.76489  2368.81531  0.00633  56613.28062  50.78907  0.41857  18.62173  56654.69053 
    13.82586  1.84203  5.21295       4.30473          3100.3684   0.0043  0.08194     0.17012  0.15184      19.7055    9560.5737   -26.14446  1.09481   2310.5872   0.0282  56633.13554  50.29123  0.02643  18.57038  56647.61323 
    13.69496  1.47925  3.77889       2.39984         3416.11562  0.00391  0.02662     0.06402  0.25014     20.08836   3608.96076   -34.98497  1.51711  1479.44622  0.06809  56624.29503  50.24162   0.0522  18.46098  56633.45865 
    13.72297  1.83496  4.77412       3.99677         3522.25247  0.00383  0.01483     0.03791  0.37132     20.66348   9437.67944   -25.71596  1.52351    1665.587  0.25598  56633.56404  50.49917  0.07309  18.60379  56654.69053 
    13.60373  1.49909  3.52138       4.25917         3615.21627  0.00339  0.02083     0.06971  0.10498     20.96935   6148.49586   -25.32077  1.04317  1161.39817  0.51769  56633.95923  48.81025  0.00272  18.54809  56651.15188 
    13.80822  1.77995  5.25235       2.62923         4013.73146  0.05001  0.02466     0.04566  0.18012     19.15224   9098.23232   -24.95532  1.23254  1274.72204  0.00789  56634.32468  49.92148  0.43063  18.64277     56659.28 
    13.76619  1.76421  4.46345        4.8765         2508.88477  0.00281  0.01986     0.05521  0.77726     19.15249   5948.67439   -29.83888  0.88921  3124.78804  0.00789  56629.44112  51.23884  0.08374  18.57245  56647.61323 
    13.71838  1.80096  2.99582       3.23077         2610.90252  0.00382  0.05115     0.03552  0.17409     18.75066   5489.03011   -71.07132  1.44241  1075.09168  0.00313  56588.20868  49.74794    0.031  18.66503  56658.22917 
    13.65538  1.37674  4.47942       3.39622         3647.46284  0.02394   0.0552     0.10702  0.12884     19.70567   6789.55283     -31.435  1.55379  1495.35156  0.02821    56627.845  49.70089  0.09012  18.48232  56640.53594 
    13.65296  1.63059  4.20417       2.72289         3868.72841  0.00105  0.01577      0.0347  0.45425     20.45129   4073.83999   -38.21218  1.34034  1764.30936  0.15704  56621.06782  50.61096  0.02309  18.62377  56658.22917 
    13.86571  1.39021  4.21038       4.63508         2891.91116  0.03747  0.03817     0.07606  0.27073     19.67051   3712.87332    -23.2112  0.58934  1993.84865  0.02602   56636.0688  50.53649  0.54346    18.655     56659.28 
