 texplosion  fnickel    Pspin  log(Bfield)      Mns  thetaPB   mejecta    kappa  kappagamma      vejecta  temperature    alpha  cutoff_wavelength  log(nhhost)      A_V         MJD0   kenergy   mnickel           TSD   log(L0)  Peak_mag     Peak_MJD  log(E_rad)  log(Peak_lum)  Rise_Time     E_fold  tau_1  delta_m15     r_peak     frac 
 -160.51424  0.49802  1.83485     14.53367  1.50039  1.08666  33.19691  0.04139     0.01355   4922.87006   9998.77011  3.18339         2629.80028     18.45125  0.00157  56498.76576   4.79912  16.53271   40167.96191  47.31397  18.06643  56593.69042    51.30471       44.18401   56.48634  115.42861   93.0    0.04274   -21.2113  0.78595 
 -146.39267  0.36219  1.01068     14.39033  1.82186  1.25696  31.57113   0.1579     0.02838   7009.26614   9903.35217  2.47634         2286.98018     16.99697    6e-05  56512.88733   9.25257  11.43488    28635.6588  48.06322  18.36568  56619.41209    51.12472       44.03468   54.03041  103.14897  117.5     0.0269  -21.07219  0.96595 
  -95.25707  0.07423  2.28745     14.65229  2.16338  0.46675   40.7478   0.1203     0.01117   4437.44505   9710.78558  2.78011          2212.8245     17.86193   0.0004  56564.02293   4.78627   3.02474   52128.49852   47.1682  18.01397  56627.98598    51.08231       44.15201   24.55928   68.76598  102.0    0.04554  -20.54209  0.94417 
 -183.93142  0.35621  1.46533     14.30321  1.29747  0.59191  39.55747  0.14245     0.01195   5072.96659   9952.69654  2.07893         2995.06999     17.19641    9e-05  56475.34858   6.07267  14.09092   64025.95858  47.24371  18.39723  56636.55987    51.16299       44.03058   51.57449  117.88454  119.5    0.02387  -20.65942  0.80728 
 -185.33406  0.37378  1.35294     14.74346  1.97021  1.29063  46.17226   0.0104     0.01779   6573.14589   9881.60752  4.31218         3542.49847     18.91273  0.00454  56473.94594  11.90022  17.25815   10913.57656  48.26283  18.02962  56585.11653    51.27597       44.18536   49.11856  112.97268  105.0    0.11433  -21.60718  0.96007 
  -80.62209  0.47507  2.54664     14.94726  1.65683  1.33128  14.69489  0.08579     0.04822   6396.36123   9921.07244  3.12393         3587.92557     16.04161    1e-05  56578.65791   3.58641    6.9811   12720.91379  47.57167  18.58933  56613.69616    51.19262       43.93434  112.97268  137.53196  102.0    0.04269  -20.75663  0.92558 
 -150.66497  0.44938  1.51971     15.02758  1.45363  0.38732  28.46402  0.12093     0.02915    6271.3636   9834.21298  1.35251         3315.96367     18.95402    0.005  56508.61503   6.67801  12.79102    2745.54406  48.62915  18.08049  56576.54264    51.29317       44.13486   73.67784  122.79639  118.0    0.02148  -20.89288  0.92462 
  -87.81753  0.16882  2.72717     14.37396   1.9818  1.01607  22.20927  0.12593     0.01251   3561.56122   9653.97156  2.03844         3507.03119     17.15527    8e-05  56571.46247   1.68051   3.74948  244551.74451  46.30611  18.52136  56613.69616    51.14979        43.9312   93.32526  130.16418   88.0      0.034  -20.57841  0.89333 
  -188.7933  0.42275   0.9207     14.82854  1.55567  1.56811  41.78566  0.20132     0.03125   8234.65823   9997.72001  2.16564         3067.63345     19.66458  0.02566   56470.4867  16.90229  17.66492    2697.01538  49.10164   18.6019  56647.99172    51.10684       43.93531   73.67784  122.42358  118.5    0.02223  -20.72909  0.99396 
 -159.77644  0.36522  1.21971     14.84302  1.71862  1.01967  36.45835  0.13889     0.03208   7268.02424   9959.84098  1.36738         3665.93435     17.04773    6e-05  56499.50356  11.48833  13.31518    4891.85488  48.64204  17.29516   56579.4006     51.3841       44.62511   14.73557   39.29485  119.5    0.02558   -20.7665  0.98246 
 -166.25733  0.33769  1.37026     14.27065  1.77186  1.00144  36.26074   0.0979     0.02366   5720.67994    9912.3259  1.33449         2579.13112     19.15574  0.00795  56493.02267   7.07879  12.24471   88826.69534  47.29513  17.86837  56593.69042    51.29027       44.24873   36.83892   95.78119  115.0    0.02967  -21.01497  0.90041 
 -175.53975  0.30272  0.73083      14.5494  1.53447  0.30794  25.65531  0.31903     0.01919   4739.71606   9982.77673  3.20712         2668.61565     16.67883    3e-05  56483.74025   3.43803   7.76631    6061.79706  48.94457  18.56368  56636.55987    51.04225       44.05454   34.38299   81.04562  134.0    0.01341  -20.23661  0.97888 
 -174.98106  0.47728  1.96246     14.74326  1.95121  0.82527  30.02566  0.10755     0.01577   4774.67742   9988.34512  2.80681         3210.94091     16.86641    4e-05  56484.29894   4.08327  14.33066   22761.24733  47.61635  18.59948  56650.84968     51.0994       43.92421    88.4134  117.88454  116.0    0.02387   -20.8442  0.84951 
 -171.49691  0.26085  0.84874      14.2662  1.39244   0.9516  40.16299  0.27614     0.03946   8482.83344   9969.00662  4.68974         2931.89958     18.18196  0.00084  56487.78309  17.23991  10.47641   27336.97747  48.11832  18.04324  56576.54264     51.2624       44.23778   34.38299  100.69304  128.0    0.01455  -20.39649  0.96467 
  -182.3175  0.49678  1.21865     14.53782  1.59631   0.7186  43.57438    0.027     0.01011    5096.4419   9813.15833  0.49962         3053.29519     17.32993  0.00012   56476.9625   6.75138  21.64696    18494.6701  48.03316  17.32523  56607.98023    51.36088       44.73114   12.27964   29.47113   89.5    0.04755  -21.37352  0.88193 
  -167.1196  0.49034  1.36726     14.66272   1.6435  1.32973  30.64959  0.03431     0.01373   4826.55003   9938.68953  3.05453         3529.74416      17.0183    6e-05   56492.1604   4.25917   15.0286   13484.65616  48.08307  17.92505  56619.41209    51.17585       44.23225   24.55928   73.67784  101.5    0.05573  -21.27549  0.94969 
 -139.95195  0.20547  1.09112     14.56877  1.44573  0.49803  51.37794  0.10319     0.01041   5738.37042   9992.76397  1.13467         2406.51335     16.24356    1e-05  56519.32805  10.09209   10.5565   11644.16602  48.28708  17.72722  56559.39486    51.43477       44.33924   49.11856  111.27849  123.0    0.02236  -20.76695  0.93951 
 -166.24915  0.49481  1.27822     15.12774  1.40079  0.89212  28.06299  0.16643     0.02311   5329.30608    9861.2955  2.65005         2851.02679     17.41913  0.00015  56493.03085   4.75447  13.88579    1180.11567  49.13008  18.24815  56567.96875    51.27905       44.03912    88.4134  142.44382  122.0    0.01816  -20.62219  0.99266 
 -120.20758  0.21698  1.03109     14.12523  1.34818  1.23779  28.70279  0.19336     0.02215    5426.8487    9992.6404  4.93441         2541.84411     16.78779    3e-05  56539.07242   5.04251   6.22781    74766.2429  47.49829  18.56542   56633.7019    51.07252       43.89237   83.50155  122.05381  122.0    0.02726  -20.75189    0.958 
 -158.45107  0.48705  4.00241     14.44008  1.64603  1.17155  23.61418   0.1259     0.01258   3165.26989   9999.70461   3.3172          2641.9988     17.06252    6e-05  56500.82893   1.41131  11.50121  322654.55363   45.7719  18.40072  56599.40634    51.13739       43.90186  100.69304  132.62011  128.0    0.01914  -20.54475  0.48956 
  -110.7538  0.29957  1.17916     14.17809  1.51818  1.44252   18.7606  0.29798     0.04521   6537.79153   9967.16956  4.58103         2516.61734     19.01572  0.00576   56548.5262   4.78339   5.62009   86318.97597  47.37092  18.58525  56647.99172    51.11084       43.93012   73.67784  127.33544  112.0    0.03002  -20.85154  0.95753 
 -179.61344  0.42675  1.91531     14.51089  1.33476  0.91938  35.65132  0.05911     0.01208   4451.96237   9931.04389  3.22148         3333.53244     18.00831  0.00057  56479.66656   4.21508  15.21414   43243.52957  47.19385  18.38137  56602.26431    51.18402       43.98344   95.78119  125.25232  112.5    0.03461  -21.04544  0.73858 
 -157.66119  0.49858  2.13656     14.08377   1.4578  1.18203  25.20631  0.05932     0.01139   4156.73513   9993.94569   3.4104         3092.07921     19.04072   0.0061  56501.61881   2.59801   12.5673  420148.37735  46.14971  18.56967  56625.12801    51.14848        44.1084   34.38299  108.06083   96.0     0.0442  -21.29682  0.71907 
 -161.40313  0.43986  0.74423     14.86359  1.79128  0.98197  29.76761   0.1509     0.02645   5953.49764   9963.84376  1.17052         2968.07468     18.24778  0.00098  56497.87687   6.29384  13.09348     1726.6741  49.54139  18.11798  56596.54838    51.29514       44.14012   76.13376  117.88454  120.0    0.02337   -20.6182  0.99764 
 -154.53465  0.47327  0.78535     14.54398  1.71752   1.1025  29.44325  0.07127     0.04371   7704.54802   9882.96786  1.51344         2860.93377     17.83493  0.00038  56504.74535  10.42575  13.93474    8033.16217  48.80873  18.08426   56579.4006    51.28469       44.34886   24.55928   71.22191   99.5    0.07282  -21.30708   0.9888 
 -173.47921   0.3245  1.34014     14.31789  2.01347  1.20689  35.26547  0.28078     0.04203   7546.37416   9911.34876  1.72407         2055.26027     18.00915  0.00057  56485.80079  11.97991  11.44362   77673.56643  47.42822  18.46686  56605.12227    51.20691       43.95668  122.79639  132.62011  132.0    0.01682  -20.45127  0.92711 
 -164.45265   0.3388  0.89494     14.76171   1.8749   1.0298  34.34822  0.10566      0.0134      4459.52   9970.24888  4.87531         3091.75415     17.45828  0.00016  56494.82735   4.07481  11.63727    4177.91999  49.01728  18.25817  56582.25856    51.20606       44.00532   71.22191  135.07603  120.0    0.02246    -20.617  0.99352 
 -139.59244  0.47098  0.97088     14.94954  1.61671  1.26883  24.43272  0.21547     0.10107  10840.64041   9879.24821  4.20435         2906.16018     17.89714  0.00044  56519.68756  17.12809  11.50724    1785.27826  49.25144  18.07588  56602.26431    51.13659       44.07373   39.29485  103.14897  117.0     0.0291  -20.80358  0.99693 
  -176.2724  0.28699  1.53633     14.51246    1.954   0.5434  36.03323  0.26636     0.02098   6615.26151   9958.63326  3.77238         2817.22208     16.43287    2e-05   56483.0076   9.40642  10.34127    40437.0661  47.58002  18.61981     56659.28    51.05414       43.94861   58.94227  108.06083  124.0    0.01739  -20.46803  0.90619 
  -128.9704  0.44875  3.51176     14.81089  2.01672  0.71586  20.28469  0.12656     0.02397   4974.60498   9925.20369  2.64765         3361.01913     18.78182  0.00336   56530.3096   2.99442   9.10268   55173.99231  46.74071  18.26737  56625.12801    51.26655       44.17173   46.66263   105.6049  115.0    0.02758  -20.77555  0.69032 
 -147.35809  0.32199  0.92195     14.56462  1.66618  0.83714  39.51989  0.06021     0.01275   5292.77597   9894.59664  1.90703         3016.96442     17.64483  0.00025  56511.92191   6.60404   12.7251    9765.72079  48.57145  18.08394  56593.69042    51.29167       44.19776   46.66263  112.97268   92.0    0.04038  -21.16085  0.97654 
 -142.21586  0.37119  2.74138     14.84799  1.33462   1.2085  24.60828  0.13359     0.01772   4480.11566   9956.47408  4.01543          3800.3871     17.09613    7e-05  56517.06414   2.94637   9.13428   18755.42921  47.24514  18.28573  56636.55987    51.15084       44.20369   24.55928   76.13376  120.0    0.02272   -20.5594  0.81507 
 -168.71121     0.45  1.32509     14.41058   1.6791  1.46892  33.23681  0.09988     0.02848   6986.64017    9951.1031  4.02158         2686.83841      17.5859  0.00021  56490.56879   9.67795  14.95641   41326.28204   47.6332  18.51017  56630.84394    51.12242       43.96729   68.76598  117.88454  111.0    0.03341  -21.05637  0.90781 
 -120.12548  0.41886  1.63445     14.79991  1.82278  1.50492  20.49764  0.14157     0.03037   5919.61833   9880.22344  4.17816         3551.86484      17.6901  0.00027  56539.15452   4.28468   8.58572   11362.33969  48.04737  18.72365     56659.28     51.0513       43.94861   49.11856  110.51675  116.0    0.02301  -20.73192   0.9692 
 -148.37315  0.48049   1.5804     14.78438  1.83352  0.81502  27.43815  0.06663     0.03096   6468.28467   9868.91262  1.76759         3409.96082     16.53844    2e-05  56510.90685   6.84794   13.1837   11478.18431  48.07473  18.18156  56605.12227    51.23348       44.08328   58.94227  120.34047   94.5    0.05003  -21.27606  0.92864 
 -189.76652  0.23559  0.72059     14.24259  1.88837    1.317  42.20239  0.29926     0.05324   8866.38205     9933.882  2.61644         3409.62887     18.87447  0.00416  56469.51348  19.79052   9.94259   29791.33625  48.35547  18.22292  56593.69042    51.17778        43.9946   83.50155  122.79921  132.0    0.01765  -20.37768  0.98526 
  -106.1065  0.30388  1.14639     14.21369  1.20208  1.28379   27.8948  0.05377     0.02185   6448.96559   9987.74339  1.69041         3732.27686     17.70849  0.00028   56553.1735   6.92039   8.47668   54830.47657   47.4911  17.90872  56587.97449    51.39973         44.332   39.29485  106.75174   78.0    0.07949   -21.2742  0.92829 
  -66.46244  0.25412  0.71279     14.88867  1.68778  0.61365    26.776  0.03898     0.03656   7339.82427   9840.95083  1.28226         2051.88871     19.13801  0.00763  56592.81756   8.60487    6.8043    1329.58828  49.66652  18.15505   56610.8382    51.22437       44.14196    44.2067  112.97268   46.0    0.14119  -21.46093  0.99809 
 -180.51676  0.47728  1.51495     14.96678  1.38066  0.96078  40.59596  0.07678     0.01326   5066.08474    9981.7249  0.20935         2481.93059      17.7322   0.0003  56478.76324    6.2152  19.37571    3428.83295  48.51299  18.14718  56587.97449    51.21999       44.07534   58.94227  120.34047  116.0    0.02804  -20.93984   0.9632 
 -166.59319  0.38175  2.22015     14.26579  1.77808  1.31877  31.83217  0.13948     0.01025   4059.43708   9957.49853  4.20305         2516.35057     18.61108  0.00227  56492.68681   3.12914  12.15204  239309.36212  46.44707  18.24003  56625.12801    51.18726        44.0671   58.94227  112.97268  124.0    0.01837  -20.65448  0.76958 
 -162.52126  0.39039  0.88717     14.91821  1.76473  1.23098  35.78649  0.06111     0.03689   7406.29159   9861.29383  3.69099         3166.86867     18.57952  0.00211  56496.75874  11.70976  13.97082    1879.69814  49.34542  18.64641  56642.27579    50.93059       43.82718   54.03041  111.23396  111.5    0.04172  -21.15697  0.99692 
 -159.15302  0.38634  1.07393     14.47716  1.59828  0.91577  30.57347  0.20577     0.04934   8433.03559   9929.90676  2.30328         3448.74419     18.65263   0.0025  56500.12698  12.96999  11.81185   19015.24897  48.13144  18.69105   56665.1395    51.00937       43.90202   49.11856  111.19368  119.5    0.02486  -20.81401  0.95532 
  -126.0686  0.46871  0.87273     14.32123  1.67698  0.61074  22.94106  0.02737     0.04512   8568.78564   9505.77644  0.04165         3285.19346      16.0647    1e-05   56533.2114  10.04799  10.75259   27017.04821  48.17998  18.38359  56582.25856    51.23843       43.99676   95.78119  139.98789   69.0    0.18965  -21.78422  0.96163 
 -159.20005  0.45762   1.4335     14.28113  1.50974  1.11064  26.29734  0.17202     0.02169   5460.42211   9886.07801  3.66615          2880.7144     19.55111  0.01976  56500.07995   4.67726  12.03425   78930.83382  47.23771  18.75217  56642.27579    51.00352       43.82856   81.04562  122.79639  120.0    0.01896  -20.83757  0.87366 
  -123.2114  0.46635  0.90575     14.47688  1.51743  0.80848  25.08597  0.14675     0.04981   9059.61121   9877.08232  2.27054         2174.53238      19.4939  0.01732   56536.0686  12.28223   11.6989   12858.36368  48.42676  18.62326  56619.41209    51.11962       43.90058   83.50155  135.07603   99.0    0.06627  -21.29176  0.97047 
 -102.91856  0.28698  1.98489     14.33144  2.07535  1.10865  28.36833  0.02481     0.01038   4164.60094   9956.07783  0.15713         2341.70729     16.49572    2e-05  56556.36144     2.935   8.14113  165007.74733  46.77296  18.48091  56605.12227    51.09265       43.88942    88.4134  127.70825   88.0    0.06741  -20.89349  0.88767 
 -154.36706  0.37521  1.28253     14.78977   1.3379  0.57119  27.65133  0.22799     0.03317   6911.17259    9507.1062  3.91606         3568.25733     16.51659    2e-05  56504.91294   7.87856  10.37513    5380.50705  48.44831  18.66517  56619.41209    51.07528       43.84575   93.32526  132.62011  122.0    0.01709  -20.61225  0.95263 
 -179.23628   0.4236  1.26983     14.21923  1.82339  1.32912  20.93514  0.28943     0.02016   4442.19231   9841.27369  3.51998         3472.83091      16.2957    1e-05  56480.04372   2.46432   8.86822   99478.96759   47.3245   18.3083  56573.68467    51.24685       43.99191    88.4134  147.35567  128.0    0.01547  -20.45989  0.93927 
 -100.48956  0.40465  1.02192     14.30159  1.07297  0.80295  22.25431  0.10461     0.04306   7828.48756   9891.49919  1.91805         2441.54394     17.17814    8e-05  56558.79044   8.13574   9.00524   25945.35585  47.86654  18.72553  56619.41209    51.09569       43.83224  130.16418  139.98789   78.0    0.05793  -21.15347  0.93478 
 -132.94899  0.35544  1.11875     14.48647  1.94321  1.15315  25.39541  0.17314     0.02772   6407.17626   9996.19114  1.39712         3641.35857     16.34312    1e-05  56526.33101   6.21893   9.02645   24035.87995  48.07904   18.3098  56596.54838    51.22926       44.01362   90.86933  132.62011  105.5    0.04186  -21.10854  0.97106 
  -169.5871  0.39162  1.01675      14.8907  1.95968  1.55215  42.00779  0.12203       0.043   9079.49007   9973.53803  3.60037         2055.95872     18.87444  0.00416   56489.6929   20.6576  16.45119    3111.97936  49.05357  17.83664   56579.4006    51.36305       44.25373   49.11856  110.51675  116.0    0.02522  -20.88603  0.99373 
  -103.6645  0.38529  0.70025     14.98855  1.37652  0.20732  28.94027  0.01517     0.07814  13328.95901   9812.50946  0.19718          2424.9505     16.89934    4e-05   56555.6155   30.6706  11.15043      660.7125  49.89711  18.06214  56559.39486    51.28127       44.11247   63.85412  125.25232   61.5    0.36011  -21.70486  0.98675 
 -198.85921  0.29992  0.78024     14.96891  1.92869  0.70768  61.67185  0.08574     0.01732   5679.05664   9994.07469  1.92491         2023.35241     17.16284    8e-05  56460.42079  11.86497  18.49641      1258.082  49.66994  18.64715  56647.99172    50.93469       43.87115   41.75077   105.6049  125.5    0.02454  -20.66673  0.99596 
 -142.78597  0.22047  0.84087     15.15057  1.88514   0.4796  50.08328  0.08493     0.02617   7798.26852   9783.30349  1.22114          3523.2589     18.48352  0.00169  56516.49403  18.16838  11.04201     618.69578  49.90325  18.66396  56627.98598    51.07056        43.8615   98.23712  127.70825  118.5    0.02377  -20.75712   0.9972 
  -144.2519  0.21813  0.84266     14.40433  1.87384  0.78074  30.25927  0.24686     0.02891   5556.68053   9972.71566  0.67622         2731.33043     16.22854    1e-05   56515.0281   5.57335   6.60037    19195.0524  48.40708  18.57234   56610.8382    51.16698       43.92943  115.42861  132.26072  131.0    0.02733  -20.82193    0.985 
 -155.10637  0.37728  1.10607     14.76863  1.49058  0.36498   31.1279  0.10825     0.01627   4784.45135   9874.69672  1.65463         3143.39722     16.77221    3e-05  56504.17363   4.25051  11.74402    4914.48369  48.66315  18.46293  56602.26431    51.13871       43.91344  108.06083  130.16418  119.5     0.0262  -20.82811  0.94172 
 -151.23196  0.41651  2.94358     14.24662  1.88697  0.91359  16.79385  0.26698     0.01606   3410.04227   9916.68728  2.18796         2699.29762     16.45023    2e-05  56508.04804   1.16492   6.99479  487619.22675  45.91878  17.61465   56579.4006    51.41741       44.53723   24.55928   56.48634  122.0    0.03267  -20.61315  0.78001 
  -65.26483  0.27287  1.18269     14.57187  1.97444  1.39816  18.44105  0.21574     0.07598   8437.94439   9962.06779  3.23346         2325.13575      18.2474  0.00098  56594.01517   7.83224   5.03203   18418.43076  48.15329  17.52795   56610.8382    51.30418       44.47397   22.10335   51.57449   98.0    0.04454  -20.68548   0.9865 
