 texplosion  fnickel     Pspin  log(Bfield)      Mns  thetaPB   mejecta    kappa  kappagamma      vejecta  temperature    alpha  cutoff_wavelength  log(nhhost)      A_V         MJD0  kenergy  mnickel            TSD   log(L0)  Peak_mag     Peak_MJD  log(E_rad)  log(Peak_lum)  Rise_Time    E_fold  tau_1  delta_m15     r_peak     frac 
    -6.2919  0.00641  19.16304     15.16206  2.03369  0.93617   1.67379   0.0881     0.38254     7714.706   4374.07585  4.89965         2099.67589     17.98481  0.00054  56797.14804  0.59425  0.01073   328779.67058   44.4953  17.23643  56814.84844    49.69161       43.30464   10.66729  17.06767   19.0    1.03581  -18.87057  0.98394 
   -6.21095  0.00154  20.40287     14.96497    1.649    0.902   5.28962  0.01864     0.01091   5812.25713   6643.61798  2.71138         5268.17344     17.21399    9e-05  56797.22899  1.06596  0.00813   748998.44154   43.9922  16.78216  56812.63455     49.6555       43.25844   10.66729   18.3283   18.5    1.04269  -19.33769  0.98098 
   -5.90655   0.0176  11.08702     15.03707  1.40321   0.9684   4.60407  0.04439     0.06923    8140.8224   3254.71705  1.09441         2767.95775     18.55972  0.00202  56797.53339  1.82014  0.08101     135031.951   45.1959  16.32613  56810.42066    49.65621       43.17855   10.66729  21.33458   18.5    1.04893  -18.90435  0.93466 
   -6.23391  0.00144    18.447     15.09529  1.68649  0.73584   5.21111  0.03142     0.16919   8122.17545   5838.80109  1.38444         5721.07563     18.18196  0.00084  56797.20603   2.0507  0.00751   343616.85652   44.4279  17.10104  56814.52002     49.6366        43.1662   14.93421  19.20112   17.5    1.10938  -19.29053  0.98614 
   -6.18008   0.0225   16.5692     15.08254   1.7677  1.08087   7.21493  0.01287     0.28233   6988.40124   7161.61558  0.57787          4194.0184     20.21307  0.09074  56797.25986  2.10192   0.1623     308140.246   44.5889  16.48914  56812.63455      49.659       43.15029   12.80075  21.33458   22.0    1.04087  -18.99444  0.81505 
   -4.58215  0.00123  14.40032     15.04613  1.60049  1.16322   3.24959  0.03887     0.03242   5389.65397   8238.60185  2.72421         4043.30989     19.91969  0.04618  56798.85779  0.56309  0.00399   249201.10235   44.7598  17.19598  56814.84844     49.7788       43.42637   10.66729  14.93421   17.5    1.01854  -19.02954  0.99516 
   -5.24206  0.00479  18.90043     14.79231   1.5173   1.5656   2.84382  0.01923     0.02517   6123.43212   6186.34197  2.64677         3040.18985     18.38802  0.00136  56798.19788  0.63609  0.01363  1309843.30672  43.77975  16.62419  56812.63455    49.59151       43.13962   12.80075  21.33458   24.0    0.97949  -18.84702  0.96943 
    -5.8962  0.00338  13.72768     15.08351  1.67185  1.10666   6.94537  0.02365     0.10445   5415.14751   6326.12367  1.72766         5817.03458      20.0856  0.06766  56797.54374  1.21491  0.02349   199154.80294  44.91766  17.01349  56814.84844    49.62476       43.25535   12.80075   18.3283   19.0    0.90493  -19.22775  0.97636 
   -4.65508  0.00264  13.49656     15.08043  1.66638   1.3554   9.24707  0.01959     0.32247   6811.11251   7347.32387  2.71385         3173.53604     17.52409  0.00019  56798.78486  2.55898  0.02445   194618.03319  44.94099  16.83497  56812.63455     49.5896       43.16181   12.80075  16.31036   18.0    0.95471   -18.8562  0.97632 
   -5.97406   0.0018  22.41366     14.89336   1.6168  1.13607   1.41827  0.03891     0.08216   4149.96515   3354.44887   4.3337         4517.80135     17.88628  0.00043  56797.46588   0.1457  0.00255  1232446.12339  43.68571  17.05253  56814.55981    49.62648        43.2115   12.80075  17.06767   19.5    0.98266  -19.13047  0.99249 
   -5.51811  0.02439  21.20597     15.13601  1.54811  0.76438   4.68612  0.01636     0.01334   4817.50722   9403.46367  3.94261         3847.76697     18.08258  0.00067  56797.92183  0.64876  0.11429   345545.58388  44.26722  16.76263  56812.63455    49.63565       43.16113   12.80075  21.33458   19.5    0.94008  -18.92718  0.75682 
   -6.18263  0.00602  15.87864     14.99177  1.56804   0.8527   5.70328  0.01225     0.16143    5132.5377   7503.03977  1.27766         3752.70192     19.83783  0.03824  56797.25731  0.89622  0.03436   381300.81854  44.48131  16.82253  56812.63455    49.62552       43.20004   12.80075  16.27201   22.0    0.91749  -18.86104  0.94962 
   -2.99195  0.00875  10.58343     15.16882  1.57709  1.23831   3.85881  0.05139     0.29176   5875.58868   5116.11563  3.75141         5814.46904     18.81812  0.00365    56800.448  0.79466  0.03376    75385.55443  45.54016  17.16754  56814.84844    49.65467       43.29183   12.80075  18.40547   18.0    0.95736  -19.57918  0.98021 
   -6.04403  0.00248  16.94331     15.06282  1.84025  1.17451   2.88554  0.05621     0.01683   7062.91103    5537.8687  1.38834         4625.19992     20.11918   0.0731  56797.39591  0.85866  0.00717   367321.03131  44.51068  17.07608  56814.43994    49.59617       43.15489   14.93421  17.06767   18.0     1.0257  -19.10979  0.99023 
   -5.86856  0.02097  23.77164     15.13293  1.79171  0.96583   5.86484  0.02593     0.23277   7751.09123   6689.13571  4.10648          4432.3917     17.38075  0.00013  56797.57138  2.10189  0.12297   509728.65109  44.06266  16.74497  56812.63455    49.73005       43.25215   10.66729  19.20112   19.5    1.04182  -19.21605   0.7411 
   -5.66204  0.00488  21.84738     15.05379  1.82586   0.9012   3.11341   0.0319     0.16115   5581.55744   7152.06805  4.65258         5602.88548     20.10713   0.0711   56797.7779  0.57859  0.01519   631686.27527  44.05101  16.67432  56812.63455    49.60803       43.21611   10.66729   18.3283   17.0    1.12688  -19.74653  0.96567 
    -5.7167  0.00411  24.22736     15.03119  1.76471  0.76997   1.88032  0.02848     0.01554   5592.96371   9037.07781  4.25869         3815.09113     18.62237  0.00233  56797.72324  0.35087  0.00772   833156.31362  43.82618  16.50922  56812.63455    49.55741       43.14419   10.66729  17.06767   20.0    0.98635  -18.98412    0.977 
    -6.0447  0.00512  23.60502     15.02745  1.92075  1.20829   3.51851  0.03416     0.02128   7024.21116   9932.15122  2.68402          5414.5885     16.37974    1e-05  56797.39524  1.03557  0.01801   875766.85936  43.86392  16.74709  56812.63455    49.81392        43.3197   10.66729   18.3283   17.5    0.89413  -19.36206  0.95639 
   -6.29014  0.00972  18.93069     14.97761  1.70236  1.40992   5.75704  0.02562     0.12486   7654.73323    6225.6468  2.51416         3014.78539     18.07715  0.00066   56797.1498  2.01227  0.05594    628043.4115  44.14758  17.01272  56812.63455    49.65656       43.21531   12.80075  18.36689   19.5     1.0041  -18.89627  0.90199 
   -5.89812  0.02946  25.37304     15.06342  1.57593  0.75847   5.82662   0.0164     0.01816   8062.76652   6214.91411  3.08501         4194.95524     17.48093  0.00017  56797.54182   2.2595  0.17167   703501.60886  43.81037  17.56354  56812.63455    49.71933       43.34913   10.66729  14.93421   22.0    1.09869  -19.13635  0.59604 
    -5.0877  0.00261  13.42719     15.16274  2.07779  1.17669   3.90722  0.04149     0.02277   6965.93857   6290.81076  1.66465         4720.23033     20.80789  0.35696  56798.35224  1.13098  0.01019    164402.1853  45.11457  17.14817  56814.43994     49.6092       43.15295   12.80075  19.20112   17.5    1.05396  -19.44242  0.99283 
   -6.35105  0.00115  21.88716     15.13421  1.78535  0.57441   1.11363  0.06424     0.08273   5388.49139    3464.9998   1.9196         5808.86869     17.06407    6e-05  56797.08889  0.19289  0.00128   428049.03148   44.2087  17.18681  56814.84844    49.68117       43.37663    8.53383  17.06767   20.0    1.02182   -19.2831  0.99689 
   -5.94419  0.00139   19.5592     14.96923  1.75737  1.06646   1.47109  0.05224     0.12067   6339.33172   4895.07104  1.22354         4122.36803     16.04935    1e-05  56797.49575  0.35266  0.00204   719303.16366  44.07409  17.21382  56814.84844    49.76975       43.40823   10.66729  14.93421   21.0    1.04045  -18.94702  0.99596 
   -5.97348  0.00359  21.76471     15.00591  1.69031  0.90054   3.68108  0.01691     0.14483    3847.8936   3510.91462  3.39508         5521.79009       17.045    6e-05  56797.46646  0.32512   0.0132   723564.76752  43.96183  16.89977  56812.63455    49.63732       43.13476   12.80075  19.20112   18.5    0.97852  -19.41457  0.96667 
   -6.18137   0.0048  21.92634     15.04367  1.68778  0.71654    6.6531  0.01424     0.39258    5553.4058   3496.20828  4.41094         5937.32217     18.53925  0.00192  56797.25857  1.22397  0.03192   616212.69299   44.0245  17.37905  56814.43994    49.77461       43.40196    8.53383  14.93421   18.0    1.07313  -19.70972   0.9217 
   -5.76314  0.00107  18.61453     14.89798  1.50866  1.04976   4.46734  0.03267     0.49066   7442.86243   5057.08002  3.54935         4000.98375     17.32817  0.00012   56797.6768  1.47624  0.00477   776526.55637  44.01757  17.33318  56814.84844    49.78859       43.45205   10.66729  14.93421   19.0    1.07007  -19.10199  0.98932 
   -6.05841  0.03011  23.22713     14.97833  1.63389   0.8068   3.16896  0.02503     0.01676   7274.67465   4579.97165  1.99373         5172.12903     17.34289  0.00012  56797.38153  1.00039  0.09543   904402.81543  43.79372  16.81346  56812.63455    49.57917       43.16984   14.93421  19.20112   20.5    1.07484  -19.24858  0.76939 
   -5.98585  0.01313  20.40884     14.91355  1.65315   1.4094   2.37378   0.0456     0.02179   6479.47046    8551.4848  2.29459         4217.25835      17.3135  0.00011  56797.45409  0.59449  0.03118   952038.66361  43.88887  17.09658  56814.84844     49.6658       43.27362   12.80075  17.06767   19.0    0.93561  -19.02117  0.93128 
   -6.11599  0.00868  17.03934     15.00689  1.67322  1.31399   3.05227  0.07054     0.03824   8681.60712   7276.88382  1.35624         5412.62227     16.38695    1e-05  56797.32395  1.37231  0.02648   437018.09886  44.38899  16.80736  56812.63455    49.58268       43.13957   14.93421  19.20112   17.5    1.01546  -19.20365  0.95913 
   -5.15883   0.0045  21.51267     15.17363  1.85246  0.57129   0.78872  0.03166     0.08059   3832.72283   4892.15284  1.63992         4874.16545     18.45188  0.00157  56798.28111  0.06911  0.00355   357840.71976  44.31752  16.66348  56814.43994    49.61379       43.17946   14.93421  21.33458   25.0    0.90826  -18.97421  0.99217 
   -5.99849  0.01477  23.57936      15.1648  2.01084   0.8897   5.19434  0.01587     0.15821   6564.97783   8756.69395  1.23974         5790.55729     16.18536    1e-05  56797.44145  1.33544  0.07672   486027.97955   44.1405  16.44191  56812.63455    49.64652       43.19582   12.80075  17.06767   18.0     1.0286    -19.191  0.84706 
   -5.45303  0.00311  21.85563     15.09925  1.94145  1.39641   3.81116  0.02386       0.055   4146.08045   9392.90181  4.17752         4322.89199     17.02825    6e-05  56797.98692  0.39081  0.01187   545223.89141  44.14127  16.48863  56812.63455    49.82319        43.3991   12.80075  19.20112   18.5    0.95305   -19.0377  0.97545 
   -4.34749  0.00787  17.71717     15.00279  1.47308  1.21808  11.05261  0.01263     0.05905   6621.68242   4797.40291  4.39574         4792.00484     19.00841  0.00566  56799.09245  2.89087  0.08696   423895.41175  44.31303  17.03942  56812.63455    49.61463       43.22727   12.80075   18.3283   17.5    1.10867  -19.37527  0.84529 
   -5.56446  0.01229  16.83705     15.04948  1.61241  1.11109   7.33165  0.01748     0.09311   6588.04793   5914.36261  3.17028         3244.68557     20.24013  0.09657  56797.87549   1.8982  0.09009   337960.69569  44.49492  16.95614  56812.63455     49.6466       43.16239   12.80075  19.20112   20.0    0.97818  -18.94082  0.87008 
   -5.26409  0.03441  24.27862      15.0862  1.66266  1.08743   4.45185  0.01829     0.47784   5491.47693   7786.25118  4.10453         4148.34421     17.36949  0.00013  56798.17585  0.80084  0.15319   611894.21601  43.93253  17.19854  56814.84844    49.64893       43.21576   12.80075  19.20112   20.5    1.00629  -19.07975  0.66324 
   -4.93471  0.00757  16.64129     15.14557  1.57337  0.79164   2.76839  0.06189     0.37741   7865.25999   6931.57869  3.67735         3342.96708     18.04683  0.00062  56798.50524   1.0216  0.02096   206955.15288  44.70743  17.41957  56812.63455    49.72132       43.33523   10.66729   18.3283   17.5    1.09681  -18.94232  0.96602 
    -6.2639  0.00464   12.7564     15.07265  1.69892  1.11163   6.45722  0.02431     0.01334   7006.48301   3739.12237  0.61491         3635.00226      18.4984  0.00175  56797.17604  1.89092  0.02995   183712.07124  45.02342  16.56937  56812.63455    49.55048       43.13736   12.80075  19.20112   18.0    1.08967  -18.90122  0.97468 
   -5.97875  0.06202  18.90381     15.02915   1.5928  1.29892   3.73793  0.04675      0.1531   9071.90911   7406.66011  2.12462         5409.79837     20.57491  0.20876  56797.46119  1.83508  0.23183   462148.99249  44.25312  16.97147  56812.63455    49.63878       43.15439   14.93421  19.20112   19.5    1.01205  -19.51814  0.66918 
   -5.18049  0.00586  19.11431      15.1136  1.79043  0.98639  10.42968  0.01161     0.01474   5229.44516   5244.51904   4.9563         5902.82185      20.3324  0.11944  56798.25945  1.70141  0.06107   359996.47114  44.40279  16.70587  56812.63455    49.59824       43.20741   10.66729  17.06767   17.0    1.02829   -19.8763  0.89933 
   -6.57973  0.01638  21.87415     15.06306  1.98849  1.03635   2.53401  0.03794     0.12958   6358.09719   3721.07199  2.83776         2872.61788     18.23267  0.00095  56796.86021  0.61107  0.04151   660807.59008  44.06743  17.04889  56814.43994    49.79711       43.35292    8.53383  17.06767   23.5    0.92906  -18.84322  0.92118 
   -5.78239  0.08433  16.18332     15.15394   1.6236  1.04689   3.05433  0.02329     0.03483   6549.07713    9838.5839  0.63441         4600.60872     16.07119    1e-05  56797.65756  0.78145  0.25756   194331.17709  44.77265  17.13317  56812.63455    49.57079       43.16206   12.80075  17.06767   19.0     0.9623  -18.91955  0.72145 
   -5.89246   0.0068  21.08723     14.71898  1.42622  1.51113   5.26984  0.01133     0.41221   5703.05164   6531.96017  3.71903          4010.5362     18.98445  0.00536  56797.54748  1.02244  0.03585  2148246.54719  43.44291  16.75535  56812.63455    49.61159       43.13246   12.80075  19.20112   23.0    0.98583  -18.99117  0.89765 
   -5.96082  0.00409  23.71806     15.07141  1.86555  0.84964    4.7129  0.02175     0.07982   5962.04364   4612.28414  4.84103         5447.28838     17.11188    7e-05  56797.47912  0.99932  0.01928   701398.03177  43.94353  16.38821  56812.63455    49.62551       43.16753   12.80075  19.20112   17.0    1.10463  -19.60901  0.95095 
   -5.19362   0.0079  20.55749     15.06414  1.71629  1.07571   8.71508  0.01233     0.05154   4969.44178    8862.4434  4.51679         5599.94595     19.68836  0.02711  56798.24632  1.28385  0.06885    501265.4272  44.17743  17.15174  56812.63455    49.67032       43.21632   10.66729  17.06767   18.0    0.99792  -19.64759  0.86524 
   -7.30971  0.01633  16.72992     15.03968  1.48994  0.65827   4.92545  0.02203     0.34879   7790.36488   5290.56517  0.24274         5226.72769     16.47311    2e-05  56796.13023  1.78315  0.08044   322552.69553  44.48642  16.62057  56812.63455     49.6968       43.13302   12.80075  21.33458   21.5    1.02424  -18.94609   0.8701 
   -5.83294  0.00708  22.85107     15.05109  1.94364  1.20667   3.48953  0.04664     0.13699    8459.3907      5617.15  2.84578         4535.64961     17.28134  0.00011    56797.607  1.48961   0.0247   744842.68834  43.96758  17.24325  56814.43994    49.84103       43.38391   10.66729  17.06767   17.5    1.14521  -19.21891  0.94564 
   -5.27729  0.01251  21.65872     14.99853  1.85662  1.43293   3.25313  0.05348     0.01985   9401.55391   6755.41989   4.1074         4902.73191     20.26776  0.10292  56798.16265  1.71525  0.04071   814208.35069  43.95557   17.0564  56812.63455    49.70481       43.24486   10.66729  18.44382   17.0    1.24416  -19.53706  0.91653 
   -7.54694  0.09329   21.7331     15.16097  1.80058  1.10098   2.16975  0.10767     0.27178   9365.99469   5461.28662  1.76462         4874.35785     19.92203  0.04643    56795.893  1.13539  0.20243   376289.92493  44.27449   16.8431  56812.63455    49.62236       43.15107   14.93421  19.20112   20.5    0.95591  -19.11662  0.67809 
   -5.84388  0.00447  15.09709     14.91035  1.50046   1.1287   5.58533  0.01657     0.01498   5503.62941   9939.10191  3.34159         2525.76977     18.20509  0.00089  56797.59606  1.00919  0.02498   479867.74506  44.40616  16.87707  56814.43994    49.62747        43.2608   10.66729  17.06767   17.5    0.88602  -18.76083  0.96414 
   -4.76619  0.00445  16.28811     15.09063  1.71843  1.45815   9.43716  0.01495     0.08902   5645.28601   3859.67203  3.11848         3665.69766     17.64132  0.00024  56798.67376  1.79407  0.04197   278885.69593  44.63481  17.06823  56814.84844    49.58507       43.20914   14.93421  17.06767   19.5    0.91438  -18.85889   0.9445 
   -6.33222  0.01776  18.82227     14.95478  1.58033  1.55786   6.92329   0.0148     0.02663   5456.61109   5442.35691  1.76094         5953.30331     19.79643  0.03477  56797.10772  1.22966  0.12293   640258.71544   44.1119  17.23853  56814.43994    49.61666       43.25111   10.66729   18.3283   19.5    0.97099  -19.27674  0.79129 
    -4.2888   0.0017  17.33691     15.09093  1.72823  1.50342    3.7618  0.02619     0.35045   3908.15401   7397.68738  4.33602         4762.84094     18.86896  0.00411  56799.15114  0.34274  0.00641   317317.09173  44.52701   16.9101  56812.63455    49.75783       43.41749    8.53383  17.06767   17.5    0.98107   -19.2245  0.99002 
   -6.92354  0.00522  19.55283     15.12213  1.36593  0.35104   4.39306  0.02347     0.09081   8258.31444   4663.36801  3.22172         4041.94096     17.99349  0.00055   56796.5164  1.78722  0.02292   276309.80278  44.38046  17.49297  56814.43994    49.79063       43.48514    8.53383  14.93421   21.0    1.03112  -19.07486  0.93721 
   -6.60091   0.0174  19.35726     14.98963  1.70192  1.20089   5.30615  0.02892     0.12424   8629.39777    3067.6272  0.77591          5774.5143     17.66996  0.00026  56796.83903  2.35704  0.09232   621126.04555  44.13292  17.16686  56814.55981    49.68072       43.20809   12.80075  19.20112   18.0    1.13509  -19.16163  0.84196 
     -5.495   0.0013  16.49006     15.06765  1.59473  0.88872   2.79898   0.0136     0.39901   1807.14005   3345.04273  2.87694         5318.73992     19.02004  0.00582  56797.94494  0.05453  0.00364   294877.20295  44.56745  16.97472  56814.43994    49.61144       43.14365   14.93421  21.33458   19.0      0.863  -19.15275  0.99414 
   -4.89393  0.00317  14.89306     15.00452  1.71582  1.41482   7.29525  0.01204     0.04766   5265.42399   4536.61176  3.16732         2766.75898     20.24749  0.09822  56798.54601  1.20652   0.0231   346109.72848  44.61813  17.16451  56814.84844    49.69437       43.34871   10.66729  17.06767   20.5    0.94174  -18.84695  0.97347 
   -5.22277  0.02017  18.29746     15.05641  1.53408  0.95963   3.97966   0.0371      0.0205   6087.03245    3324.4961  4.77635         5675.66275     17.46382  0.00016  56798.21717   0.8796  0.08028   367818.16534  44.36428  16.62929  56812.63455    49.60679       43.19238   10.66729  18.40547   17.5    1.05075  -19.66324  0.85483 
   -6.73331  0.01313  21.96094     14.91551  1.64646  0.92707    4.0775  0.02819     0.10609   8909.89523    5703.3455  2.30977         3709.52704     17.39069  0.00014  56796.70663  1.93093  0.05354   1088051.5479  43.76544   16.9138  56812.63455     49.6288       43.20309   10.66729   18.3283   21.0    1.05413  -19.04346  0.87063 
