 texplosion  fnickel    Pspin  log(Bfield)      Mns  thetaPB  mejecta    kappa  kappagamma     vejecta  temperature    alpha  cutoff_wavelength  log(nhhost)      A_V         MJD0  kenergy  mnickel            TSD   log(L0)  Peak_mag     Peak_MJD  log(E_rad)  log(Peak_lum)  Rise_Time    E_fold  tau_1  delta_m15     r_peak     frac 
   -9.59698  0.01137  5.17802     13.99945  1.85887  1.06139  3.07205  0.12083     0.06451  9288.05476   3756.58198  0.10021         4025.50878     18.66512  0.00257  58769.91302   1.5809  0.03493  4639746.89728  44.44327   18.7761  58818.65104    50.90425       44.16723   28.27282  44.71652   53.0    0.20093  -20.98541  0.99536 
    -9.4537  0.00261  3.98317     13.74031    1.315  1.07441    3.141  0.10538     0.04249  8667.82508   3954.20714  0.37778         4365.70502     16.09695    1e-05   58770.0563  1.40772  0.00819  6405750.48977  44.38074  18.77292  58817.19324    50.90158       44.18346   26.69202  43.91924   52.0    0.19667  -21.00048  0.99891 
   -7.87432   0.0074  5.46551     14.10638  2.14442  0.95252  4.25391    0.052     0.03355   9291.3058   3613.57761  0.02839         5063.29439     19.59702  0.02197  58771.63568  2.19063   0.0315  3644475.63078  44.56326  18.76814  58817.19324    50.91903       44.21705   24.24077   42.3355   51.0    0.17976  -21.00483  0.99624 
   -8.37383  0.28894  5.26227     13.97397  1.69085  0.90293  4.42819  0.06288     0.02629  8469.49723   4055.54115  0.36194         4702.70802     18.41645  0.00145  58771.13617  1.89482  1.27947   4901391.0489  44.36429  18.76316  58817.19324    50.91872       44.20698   26.69202   42.3786   54.0     0.1822  -20.95301  0.82944 
   -8.05812  0.03863  4.57578      13.9522  1.63946   0.8927  6.52383  0.02972     0.01882  8797.55386   3417.57641  0.04715         4681.46005     18.00323  0.00056  58771.45188  3.01199  0.25201  3972353.03477  44.56357  18.77804  58817.19324    50.91145       44.19819   23.33153  44.92688   52.0    0.16688  -20.93998  0.96926 
   -7.70754  0.00546  5.00081     13.91005  1.78816  1.48146  3.17835  0.06788     0.03573  7944.95454   3904.39806  0.44759         5494.03821     18.88729  0.00429  58771.80246  1.19677  0.01735   6283626.7147  44.32496  18.79264  58816.50107    50.90819       44.19322   24.24077  44.01765   55.0    0.18495  -21.02278  0.99771 
    -7.9552  0.00107  4.89067     13.93183  1.77653  1.10489  1.81703  0.10748      0.0674  8481.79746   3893.22648  0.24583         4854.84979     19.28371  0.01068   58771.5548  0.77977  0.00195  5400939.83953  44.40721  18.70418  58816.50107    50.91487       44.21828   26.69202  39.90525   54.0    0.17287  -20.96226  0.99975 
   -9.37898  0.34849  5.32759     14.04077  1.82393  0.74909  3.90489  0.06278     0.02342  8195.35282   4282.25676    0.319         4925.82791     18.38513  0.00135  58770.13102  1.56449  1.36083  3984242.77831  44.47645   18.7426  58817.19324    50.89607       44.16652   28.27282  44.71652   53.0      0.171  -20.96256  0.83226 
  -10.23588  0.02601  4.07856     14.10707  1.43669  0.50621  4.58354   0.0643     0.02233  7565.87769   3697.92441   0.2541         5397.27502     19.27723  0.01052  58769.27412  1.56512  0.11924  1355378.01235  45.07313  18.74021  58817.19324    50.91137        44.1982   28.27282  41.61386   53.0    0.18819  -20.97467   0.9858 
   -7.27521  0.00418  4.80266     13.86308  1.66342  1.37373   3.3404  0.06263     0.03643  8280.58683   4202.83561  0.41078         4925.82866     19.01194  0.00571  58772.23479  1.36631  0.01395  6693102.32757  44.30126  18.73789  58816.50107    50.90289       44.20216   25.06375  41.56248   54.5    0.18723  -20.97371   0.9981 
   -7.55662   0.0725  4.23471     13.87159  1.65994  0.57269  6.34322  0.02884      0.0148  9624.69826   3576.18116  0.25541         4264.56322     19.38306  0.01342  58771.95338  3.50519  0.45987  4993073.74405  44.53692  18.78856  58818.65104    50.92633       44.22394   25.86903  41.57767   50.5    0.16408   -21.0084  0.95014 
   -8.49443  0.00633  4.98329      13.9291  1.80562  1.00419  3.35881   0.0694      0.0476  9657.83441    3278.6652  0.00021         3759.78817     16.05234    1e-05  58771.01557  1.86884  0.02127  5771329.71539  44.36916  18.76722  58817.19324     50.8988       44.18658   26.44951  42.62111   52.0    0.16952  -20.96163  0.99722 
   -9.15867  0.03583  4.65943     13.89428  1.64369  1.12804  5.01828  0.05219     0.02828  8821.68122   3805.08363  0.07456         5231.61114     17.47162  0.00016  58770.35133  2.32962  0.17978  5391768.81548  44.41627  18.73447  58817.19324    50.88301       44.16116   26.71276  43.09469   53.0    0.18609  -20.95549  0.97715 
   -8.20565   0.0249    5.008     13.90772  1.80778  1.33024  2.53422  0.08265     0.04602   8209.3285   3402.21113  0.30185         4829.33016      18.8876  0.00429  58771.30435  1.01879   0.0631  6439459.65412  44.31781  18.72831  58817.19324    50.87798       44.15921   26.64455  43.16289   54.5    0.16829  -20.95179  0.99181 
     -8.298  0.04073  3.88938     13.92056  1.28536  0.59811  2.04976  0.11159     0.06199  8635.29914   3675.48876  0.24393         4880.04661     17.00256    6e-05    58771.212  0.91177  0.08348  2603054.33695  44.78263  18.80091  58817.19324    50.90611       44.19307   22.49732  44.94504   53.0     0.1824  -20.97129  0.98913 
    -8.6023  0.44722  5.25476     14.02902  1.73785   0.9272  2.80774  0.09445     0.03867   8183.9503   4365.51135  0.36285         5039.05408     19.13562  0.00759   58770.9077  1.12179  1.25568  3898451.87293  44.47686  18.74614  58816.50107    50.91215       44.20662   26.44951   41.7467   53.5    0.18703  -20.98714  0.83994 
   -8.15901  0.00808  5.19565     14.17757  1.96571  0.58074  3.75733   0.0585     0.02824  8448.33376   3164.25928  0.25119         4948.36673     19.57699  0.02098  58771.35099  1.59974  0.03038  2175112.34955   44.7936   18.7537  58817.19324    50.88702       44.14479   29.11392  45.66123   52.0    0.16955  -20.98561  0.99622 
   -9.56177  0.07086  5.10711     14.00616  1.87392  0.95985  3.73933  0.07823     0.04041  9214.46286   3109.96631  0.01232         5408.38891     18.34523  0.00123  58769.94823  1.89392  0.26498  4411557.90046  44.48065  18.78689  58816.50107    50.94348       44.27022   22.49732  39.55578   52.0    0.18724  -20.98255  0.96701 
   -8.42806  0.00171  5.12574     14.04598  1.86549  0.81983  2.74534  0.10273     0.05883  9232.29391    3576.6206  0.44385         2915.04061     18.32614  0.00118  58771.08194  1.39586  0.00469  3682625.27475  44.55397  18.72434  58816.50107    50.91049       44.21537   26.69202  40.69639   54.0    0.18104  -20.98506  0.99939 
   -9.67003  0.07007  3.44803     13.66868  1.05475  0.86957  5.01221  0.07049     0.02135  8026.39448   3026.12359  0.49888         4656.40361     18.15319  0.00079  58769.83997  1.92618  0.35119  5354776.23744  44.48811  18.74792  58816.50107     50.9453       44.25579   24.82124  40.08947   51.5     0.1999  -20.99826  0.95335 
   -7.96774  0.19621  4.86998     13.91081   1.6407  0.94804  3.83112  0.05599     0.02205  7807.89765   3626.59051  0.50579         5027.45008     17.40807  0.00014  58771.54226  1.39323   0.7517  5448453.56626  44.37255  18.76888  58816.50107    50.89376       44.17517   26.69202  43.32867   53.5    0.18046   -20.9785   0.9022 
   -9.14043  0.00682  4.62056     14.05614  1.65948  0.67368  4.34104  0.06739     0.03937  9320.62952   3212.49586  0.03075         4410.53224     18.26135  0.00101  58770.36957  2.24963  0.02962  2540324.71039  44.75454  18.75111  58816.50107    50.91192       44.20201   25.03729  42.37175   52.5    0.18729  -20.99483  0.99628 
    -7.7754   0.0399  4.74519     14.03803  1.72513  0.65582  2.76751  0.07669     0.05232  9450.10314   3468.05009  0.18492         4649.49927     19.74524   0.0309   58771.7346  1.47431  0.11042  3027540.32331  44.67207  18.77637  58818.65104    50.90236       44.16721   25.86903   47.1203   52.5    0.16356  -21.02312  0.98616 
   -9.12969  0.04548  4.93411     14.02518  1.80932  0.71018  3.39927  0.07857     0.03627  9048.63322   4104.01543  0.20542         3960.67067     16.65818    3e-05  58770.38031  1.66027   0.1546  3642425.89692  44.57855  18.76255  58817.19324    50.90955        44.1906   24.24077  45.56668   51.5    0.17598  -20.98189  0.98052 
   -8.59188  0.00711  4.18488     13.80155  1.43196  0.93974  5.07684  0.04248     0.02153  8390.25933   4023.74907  0.28802         5265.50541     16.06238    1e-05  58770.91812  2.13192  0.03608  5807714.40099  44.41741  18.79293  58817.19324    50.90111       44.18202   25.86903  44.76721   53.0    0.17167  -20.97322  0.99531 
   -9.65606  0.00363  4.54944     13.83316  1.68331  1.31509  1.81641  0.13469      0.0541  7953.45205   3660.35412  0.31704         5255.81332     19.88494  0.04263  58769.85394  0.68541  0.00659  6975602.91236  44.33551  18.77872  58816.50107     50.9103       44.20759   23.33153  43.23641   53.5    0.17961  -21.01506  0.99921 
    -8.6768   0.0021  4.16338     13.80783  1.44854  0.91303  4.72177  0.04939     0.02511  8723.90136   4136.58739  0.25555         4326.54978     19.64712  0.02465   58770.8332  2.14365  0.00991  5649140.40091   44.4389  18.80458  58816.50107    50.96299        44.3049   21.70618  37.24427   52.5    0.17218  -20.97345  0.99874 
   -8.77663   0.0203   5.1525     13.98788  1.90109  1.05039  4.45585  0.04886     0.02793  8486.85489   3673.29023  0.16118         5481.45709     19.62597  0.02348  58770.73337  1.91448  0.09044  4955569.37284  44.42872  18.76593  58816.50107    50.89836       44.17351   26.69202  44.74369   53.5     0.1741  -20.95789  0.98853 
   -7.12779  0.04796   5.4409     14.10294  2.04367   0.7107  2.59765  0.07571     0.04863  9267.62601   3726.82601  0.26692         3721.37087     16.23733    1e-05  58772.38221   1.3309  0.12459  3496858.32294  44.56424    18.758  58816.50107    50.90043       44.17091   24.24077  45.56668   52.0    0.16426  -20.97052  0.98402 
   -7.95016  0.00241  4.56445     13.97344  1.63964  0.89789  2.28105  0.10191     0.05691   8428.0153   3019.19377  0.18427         5512.27774     18.66143  0.00255  58771.55984  0.96652   0.0055  3584825.40202  44.61035  18.74686  58816.50107    50.90909       44.22122   24.24077  40.91499   53.5    0.18734  -20.98337  0.99932 
   -7.82007  0.13409  4.50567     13.84975  1.51645  1.06752  3.10909  0.07481      0.0546   9414.3571   3322.92132  0.09434         4613.79744     19.22439  0.00931  58771.68993  1.64377  0.41691   5710412.9501  44.38549  18.82406  58818.65104    50.90801       44.18518   23.33153  45.77638   53.5    0.17952   -20.9713  0.94568 
   -8.06117  0.01529  5.22091      14.0597   1.8881  0.91492  4.16356  0.06217      0.0473  9376.63859   3635.22331  0.05269         5674.85902     16.72617    3e-05  58771.44883  2.18367  0.06366  3630151.33969  44.54945   18.8011  58816.50107    50.93919       44.25776   19.95725  42.38008   54.5    0.19372  -20.97575  0.99165 
   -8.74022  0.03897  4.36953     13.98572  1.43113  0.68248  7.57995  0.03739     0.01643  8052.08741   3839.22126  0.33352         5209.39875     18.45676  0.00159  58770.76978  2.93164   0.2954  2709732.86366  44.71073  18.77816  58817.19324    50.93103       44.22066   26.44951  42.62111   54.5    0.19018  -20.95997  0.96015 
   -7.97172  0.00292  4.95882     14.03424  1.74895  0.85695  4.16185  0.06003     0.03178  8132.19043   3301.49201    0.417         4637.77533     18.25438    0.001  58771.53828  1.64183  0.01216  3410835.01152    44.588  18.78158  58816.50107    50.91407       44.20502   24.24077  43.20159   55.5    0.20056   -20.9737  0.99838 
   -7.36609  0.00112  5.09947     13.92997  1.84614   1.4522  1.83577  0.12496     0.09094  9249.79054   3925.06476  0.18415         4540.48176     18.93809  0.00482  58772.14391  0.93693  0.00206  6154433.81651  44.33087  18.76319  58817.19324    50.88658       44.15269   28.27282  44.71652   54.0    0.18531  -20.99166  0.99973 
   -8.32847  0.04043  4.82037     13.94834  1.68813  0.83526  3.81887   0.0547     0.03072  8668.96056      3139.83  0.22639          4803.7016     17.04824    6e-05  58771.18153  1.71197   0.1544   4620550.7026   44.4654  18.76743  58817.19324    50.90553       44.17877   24.82124   44.9862   52.5    0.16644   -20.9351  0.97949 
   -9.39454  0.01116  4.64176     13.94858  1.62285  0.97092  5.49396   0.0623     0.02762  8622.23984    4236.4889    0.234         3861.92278     17.50091  0.00018  58770.11546  2.43642  0.06133  4114384.03641  44.53145  18.78339  58816.50107    50.87154       44.13381   26.71276  46.43413   53.0    0.19219  -20.96544  0.99203 
   -8.58332  0.01196  4.92562     14.11056  1.81616  0.57624  1.87287  0.10383       0.061  8797.91101   4090.23336   0.1454         4471.99334     18.27446  0.00105  58770.92668  0.86476   0.0224  2459068.07981  44.75231  18.76286  58816.50107    50.95442       44.28168   23.33153  38.72157   51.5    0.15548  -20.94075  0.99716 
   -9.44198  0.06323  4.61685     14.01496  1.64627  0.54002  3.70661  0.07064     0.02719  8664.70129   4019.18145   0.5387         4220.43136     18.45689  0.00159  58770.06802  1.66001  0.23436  3041456.70265  44.67357  18.74569  58816.50107    50.90048       44.18173   25.03729   43.9457   52.5    0.17894  -20.98946  0.96998 
   -8.88944  0.02868  4.92359     14.01533  1.76696  0.74637  6.13416  0.03998     0.01792  8537.51207    3164.6659  0.28995         4803.49496     18.62997  0.00237  58770.62056  2.66714  0.17593  3706420.53034  44.56255  18.74974  58816.50107    50.91148       44.20302   26.44951   41.7467   52.5    0.18119   -20.9771  0.97731 
   -9.11966  0.00587  4.67912     13.89058  1.67013  1.07164  4.08735  0.06166     0.03161  8620.41969   3222.96096  0.18391         5007.10779     17.79981  0.00035  58770.39034  1.81187  0.02398  5619963.31721  44.40154  18.80087  58816.50107     50.9323        44.2485   22.39738  41.68887   53.5    0.18261  -20.96981  0.99692 
   -8.69535  0.00178  5.62627     13.95802  2.13608  1.23594   2.5935  0.10393     0.04933  9210.56301    4283.9562  0.35528         3948.66817     17.08233    7e-05  58770.81465  1.31246  0.00461  7617731.65687  44.21619  18.73831  58816.50107    50.94676       44.25202   25.06375  40.09201   52.0    0.17587  -20.99235   0.9994 
   -9.33774  0.02558   4.6154     13.90921   1.5765  0.99993  7.61295  0.03574      0.0171  8160.63555   3832.96138  0.25454          5513.5434     16.67782    3e-05  58770.17226  3.02432  0.19473   4737123.4177  44.46261  18.74288  58817.19324    50.89486       44.17288   25.06375  44.74369   55.0    0.18173  -20.96045  0.97424 
   -8.19561  0.07545  5.12117     14.08174   1.8711  0.74493  3.71237  0.06576     0.02989  8411.62905   3881.94921  0.23301         5507.76997     19.41133  0.01432  58771.31439  1.56689  0.28011  3127277.88908  44.62704  18.73625  58817.19324    50.89487       44.17166   26.64455  43.16289   52.5    0.18325   -20.9951  0.96487 
   -8.60729  0.00185   4.0363     14.00392  1.38439  0.62265  4.03635  0.07994     0.04114  8856.58191   3080.95778  0.09695         3394.54472     16.26295    1e-05  58770.90271  1.88863  0.00746  2056858.23916  44.88493  18.79369  58816.50107    50.87267       44.10354   26.64455  50.92183   53.0    0.19677  -20.96961  0.99907 
   -8.68319  0.00176  5.10122       13.929  1.87112  1.32236  2.38899  0.09749     0.05158  8571.68362   3893.31818  0.15837         5087.90304     17.95432   0.0005  58770.82681  1.04706   0.0042  6269864.16181  44.32834  18.73211  58816.50107    50.93002       44.23159   26.44951   40.9389   52.5    0.17222  -20.95065  0.99946 
    -9.2242  0.00755   4.4429     14.07187  1.54474  0.56185  1.31328  0.21694     0.10065  8546.17931   3316.93351  0.27068         4681.39122     18.03792  0.00061   58770.2858  0.57218  0.00992  2033637.55754   44.8541  18.77231  58817.19324    50.91005       44.19067   24.24077  45.56668   53.0    0.19116  -20.98611  0.99871 
   -9.77716  0.07838  5.22071     14.10795  1.89316  0.72494  4.48945  0.06422     0.03315  8943.16202   3849.55956  0.12026         5574.58924     17.90335  0.00044  58769.73284  2.14192  0.35187    2914530.118  44.64601  18.73735  58816.50107    50.93934        44.2618   24.24077  39.84549   53.5    0.17852  -20.99543  0.95542 
   -8.74648  0.06101  5.00714     13.92946  1.73385   1.0274  5.29473  0.05705     0.02802  8968.89982   3761.44769  0.32994         4504.25847     19.38432  0.01346  58770.76352  2.54067  0.32303  5585943.99892  44.36158  18.73053  58816.50107    50.92692       44.23196   24.82124   40.9389   53.5    0.18502  -21.00051  0.95676 
  -10.34699  0.00179  4.69306     13.86414  1.71109  1.15352  2.71882  0.11012     0.04138  8485.46756   4183.35741  0.16208         4689.01385      17.7599  0.00032  58769.16301  1.16778  0.00486  6542133.11918  44.34349  18.81619  58816.50107    50.92423       44.23198   23.33153  40.79637   51.5    0.18478  -20.96533  0.99939 
    -8.0662  0.00118  4.73595     13.96023  1.70339  0.91935   2.5782  0.08931     0.04939  8569.61856   3340.17331  0.23392         4960.75225     19.41675   0.0145   58771.4438  1.12945  0.00305  4260667.47745  44.51987  18.73844  58816.50107    50.92049       44.23122   24.82124  40.14776   53.5    0.17906  -20.98318  0.99961 
   -9.54656   0.0584  5.49332     13.98775  2.12917  1.03735  2.67463  0.09051     0.04358  9042.11947    3534.7827  0.18754         3864.74707     19.43203  0.01502  58769.96344  1.30446  0.15621  6312416.97626  44.31719  18.74322  58817.19324    50.91381       44.18926   28.27282  41.74787   51.5    0.16686  -20.97828  0.98078 
     -7.516  0.04969  4.88593     13.96893  1.69251  0.95494   5.4892  0.03794     0.02234   8390.9468   4209.57015  0.25987         5270.35456     16.67953    3e-05    58771.994  2.30546  0.27275  4328949.52239   44.4831   18.7941  58817.19324    50.90025       44.16762   25.86903   47.1203   54.0    0.17871  -20.95379  0.96402 
   -7.41806  0.01964  5.42091     14.00814  2.04004  1.26006  2.19084  0.11087     0.07145  9166.96954   4052.53367  0.20284         4311.46083     19.72996  0.02983  58772.09194  1.09822  0.04304   5361964.0518  44.38102  18.76522  58814.54197    50.90517       44.20988   23.33153  42.48691   53.5     0.1848  -21.00995  0.99455 
   -8.76497  0.04685  4.69039     14.01351  1.64306  0.75781  6.74491  0.03726     0.02012  8528.66176   3451.04779  0.22095         4770.23518     19.54679  0.01957  58770.74503  2.92661  0.31597  3154009.29714  44.64322  18.74183  58816.50107    50.95213       44.26218   24.24077  39.88713   54.5    0.17935   -20.9739  0.95998 
   -7.82021     0.03  4.94558      13.9152  1.73805  1.08302  6.28703  0.03722     0.02156  8873.22155   3775.28802  0.24428         4898.86531     18.98826  0.00541  58771.68979  2.95281  0.18862  5833227.54316  44.35456  18.79648  58817.19324    50.93187       44.23152   22.49732  44.07062   53.0     0.1747  -20.97667  0.97502 
  -11.43509  0.05824  4.95727     13.99036  1.84272   1.0156  3.75804  0.09353     0.02872  7901.21488    3350.7681  0.20749         5345.93026     19.57637  0.02095  58768.07491  1.39951  0.21888  4395888.49256  44.50077  18.78165  58817.19324    50.91651       44.20265   25.86903  44.01765   52.5    0.18506  -20.98745  0.97361 
   -8.04242  0.01687  4.85919     14.11223  1.74853  0.67118  7.45342  0.03315     0.01782  8596.74083   4054.06301  0.12058           4852.603      18.7389  0.00305  58771.46758  3.28587  0.12576  2286378.50457  44.77924  18.77223  58816.50107    50.93087        44.2211   22.49732  44.91173   53.0    0.18064  -20.94833  0.98411 
   -9.17943  0.02928  4.45492     13.96013  1.54253  0.89514  2.68686  0.11807      0.0516  8054.05171   3438.70734  0.29396         4841.62909     17.86211   0.0004  58770.33057  1.03968  0.07868  3415628.44685  44.62593  18.81192  58818.65104    50.91767       44.20495   26.71014  43.16828   54.0    0.20286  -20.97334  0.98991 
