 log(Bfield)      Mns     Pspin  cutoff_power  cutoff_wavelength  fnickel    kappa  kappagamma   mejecta  log(nhhost)  temperature  texplosion  thetaPB      vejecta      A_V        MJD_0   log(KE)      M_Ni  Peak_mag     Peak_MJD 
    14.79735  1.42854    2.9031        4.4037         4230.50021  0.33358  0.01422     0.02681  17.69949     20.65481   6507.30324     -2.5639  0.36534   2443.81053  0.25092   55397.8371  51.42657  25.00383  18.20697  55430.49383 
    13.80609  1.51891   3.78291       2.39335         2435.41714  0.02136  0.01378     0.06589  54.72429     19.52359    6588.2762   -25.69923  0.89953   8805.70186  0.01855  55374.70177  52.62554   1.95006   17.8917  55423.94947 
    14.91108  1.82141   6.15423       4.98178         4333.88088  0.17392  0.02767     0.16288  13.83319     19.40775   5988.29047    -11.9834  0.15202   4202.30107  0.01421   55388.4176  51.87626  12.41682  18.01303     55430.18 
    13.93016  2.08318   4.84755       3.59456         4037.73537  0.09569   0.1926     0.45947   3.78772     19.13736   5896.30338   -17.56919  1.19229   5804.14071  0.00762  55382.83181  52.02458    5.0392   18.0763     55431.29 
    14.63163  1.69081   3.63152       0.24242         5841.71303  0.08538  0.01343      0.1494   68.8269     16.51224   5381.67117   -17.66776  0.32335   9032.71762    2e-05  55382.73324  52.66314   8.07705  18.05933     55436.32 
    14.35127  1.56702   1.91983       3.00482         4946.84567  0.08515  0.01296     0.07989  34.89227     18.06635   8119.52559    -2.73403  1.06017   2099.36854  0.00065  55397.66697  51.34806   7.21819  18.18096  55437.03818 
    14.07092  1.65323  10.32134       3.72703         3662.19308  0.27981  0.03355     0.04578  33.92912     16.94276   8161.29725   -10.66927  1.20975  18397.53386    5e-05  55389.73173  53.23132  23.60743  17.84328     55434.29 
     14.6825  1.35935   4.77148       4.94936         2383.15966  0.26722  0.06496     0.41784  27.98154      19.9857   7262.35074   -10.78874  0.20035  21057.35639  0.05376  55389.61226  53.33402  21.79969  18.14095     55431.29 
     14.1642  1.64781   6.80052       2.88727          2694.3508  0.21786  0.04925       0.199  28.97455     16.21215   3213.09926    -10.2717  0.98633   19621.7037    1e-05   55390.1293  53.27537  17.88332   18.0298    55431.246 
    13.94013  1.44749   7.82936       2.21749         5039.17725  0.11036  0.01919     0.08094  80.82025     16.36426   6863.36948   -17.87588  1.49523  14942.89322    1e-05  55382.52512  53.11091  10.69603   18.0005    55430.242 
    14.00467  1.68488   4.89574        4.4239         4532.45441  0.36073  0.09562     0.26486   3.69249     20.33244   5829.55657   -17.42545  0.62946    5923.8014  0.11945  55382.97555  52.03926  18.86336  18.02573     55431.29 
    14.00135  1.53621   4.96258       4.04036         5065.83804  0.18597  0.01205     0.02534  30.12143     20.93558   6538.55245   -18.35474  1.13832   2705.91497  0.47897  55382.04626  51.55748  15.36998  18.21168     55431.29 
    13.88344  1.98565   5.23627       3.64524         4731.06114  0.04971  0.03937     0.07933  15.89978     18.66062   6585.56823   -14.42605  1.10586   9225.65619  0.00254  55385.97495  52.57136   3.64925   18.0337     55433.16 
    13.99457  1.42008   5.43055       0.84689         4058.50846   0.4713  0.12984     0.29513  19.99303     20.50566    6231.8789   -15.46785  0.63946  24255.27251  0.17799  55384.93315  53.43014  36.15793   18.0103    55427.261 
    14.50292  1.67763   5.16291       2.71013         2489.08581   0.3274  0.11577     0.46421  15.00346      18.6847   3792.41505   -18.49323  0.24162  18104.88767  0.00269  55381.90777  53.15196  23.75856  17.97791     55436.32 
    14.16105  1.81709   7.73182         2.879         3921.96041  0.33474  0.05697     0.29424  19.00285     17.01819   7096.57668    -9.62745  1.56717  14292.41543    6e-05  55390.77355  52.96656  25.43495   18.0749    55435.296 
    13.84517  1.23147   3.80685       4.67212         3520.47638  0.09207   0.0296     0.08156   29.3966     16.21382   4916.06876    -7.58689  0.83176  13717.25037    1e-05  55392.81411  52.96553   7.57646  18.08808     55433.16 
    13.84504  1.58183   3.69722        4.3929         2896.66142  0.03212  0.04207     0.29228  16.69391     17.15979   5909.03218   -16.25579  1.01727   9326.14023    8e-05  55384.14521  52.58491   2.38063  18.07414  55433.76601 
    14.25558  1.99452   5.82683        4.9423         5011.99286  0.01591   0.0161     0.06397  22.43285     18.99425    7938.3911   -17.18475  0.45147   4087.23596  0.00548  55383.21625  51.89272   1.24674  18.11219    55435.252 
    14.00174  1.36737   3.70391       3.31911          2646.9212   0.1087  0.04194     0.46248  28.24135     19.39523   3337.18064   -19.96515  0.63589  14927.42491   0.0138  55380.43585   53.0359   8.88243  18.15237    55430.242 
    14.05426   1.7593   5.61296       1.24793         2222.27742  0.37159  0.07686     0.29193  12.46736     17.90833   3994.69674    -6.87308  1.44829  18640.36188  0.00045  55393.52792  53.16095  25.97047  18.22392  55437.03818 
    14.28709  1.51325   5.85774       4.33146         3011.30701  0.22647   0.0376     0.30727  21.98908     18.27199    3201.7355   -10.54184  0.53074    17151.877  0.00104  55389.85916  53.13688  17.68619  18.01786  55437.03818 
    13.78402  1.62625   4.56848       4.78481         4256.13308  0.48239  0.26471     0.35645  12.36698      18.3424   4597.60028    -17.2745   0.9442  25991.35528  0.00122   55383.1265  53.44897  33.65719  18.01985    55430.242 
    13.98385  1.52826   4.79571       1.06308         3809.24851  0.08252  0.01718     0.10484  80.71494      16.2144   5436.49152    -9.17073  1.31651  17358.11051    1e-05  55391.23027  53.24096   7.99643  17.98606  55430.49383 
    14.71906  1.54984   5.18097       1.22154         2753.72795  0.16022  0.03506      0.0878  65.85499     16.75305   5686.20252    -6.52072  1.06321  22264.41089    3e-05  55393.88028  53.44379  15.05366  18.13742     55431.29 
    14.85279  1.98003    3.1762       0.75811          4728.5042  0.42929    0.094     0.40205   23.7153     18.36283   3733.33164    -7.51524  1.32692  21370.26383  0.00128  55392.88576  53.33391  33.99492  17.98576    55435.296 
    14.00148  1.60788   7.34115       4.67444         4911.21134  0.18407  0.01819     0.17206   23.9106     17.17466   8867.72482     -7.8384  1.46575   7554.56477    8e-05   55392.5626  52.43136  14.59785  18.12501  55443.58254 
    14.87669  2.01809   2.14746       2.16291         5646.76374  0.38622  0.06196     0.41687  13.27333     16.83205   6974.95835    -5.64448  0.42246   4855.51402    4e-05  55394.75652   51.9981  27.34224  18.00196     55434.29 
    14.50588  1.83756   4.37051       0.48895         3486.84878  0.06434  0.10393     0.16064   7.41887     18.77503   6653.23602   -15.38834  0.19768  13161.60596  0.00331  55385.01266  52.80931    4.0139  18.01837    55435.296 
    13.69318  1.32398   9.47382       4.73061          4179.5161  0.26163   0.0612     0.23703  44.99581     17.32235    3072.9508   -10.87766  0.55347  22025.56044  0.00012  55389.52334  53.40818   23.1416  18.03572     55434.29 
    14.51393  1.71582   4.87086       0.46091         4346.57197  0.30123  0.14974     0.40298  12.05475     17.89965   3898.99451   -13.24275  0.22689  22409.40708  0.00044  55387.15825  53.31786  20.90632    18.229  55437.03818 
    13.71214   1.4647   4.39088       2.51728         3590.32859  0.23562  0.10067     0.16601  25.73701     19.14358    4562.6179   -11.64581  1.29799  22428.19238  0.00773  55388.75519  53.38232  18.93717  18.09737    55431.246 
    14.34493  1.55809    2.6847       1.43175          4806.2603   0.0586  0.01098     0.19934   32.4103     20.16966   7625.96394   -17.72371  0.40586   2796.28118  0.08211  55382.67729  51.59154   4.90527  17.85454    55428.257 
    13.75023  1.35216   3.62716       0.52407         3082.15616  0.04517  0.01691     0.07702  55.19821     19.53321   6832.87636   -10.46885  1.34171  13355.88818  0.01896  55389.93215  52.98795   4.12907  18.20836     55433.16 
    13.98497  1.68734   3.64937       3.36984         2445.48931    0.031  0.01876     0.20782  22.78869      17.2138   6247.53757   -11.31857  0.91294   6133.83237    9e-05  55389.08243  52.24658    2.4369  18.06475  55440.31036 
    14.26644  1.62631   6.14191       3.94026         3700.72221  0.16497  0.01717     0.11187   37.7309     18.16152   7336.03158    -9.59943  0.94615   9256.26452  0.00081  55390.80157  52.64251  14.17158  18.06486  55433.76601 
    14.61497  1.87565   7.48692       2.50451         3730.31923  0.40592  0.06469     0.13917  27.33704      18.8236   5443.01148    -8.43073    1.552  18072.18052   0.0037  55391.97027  53.19944  32.97825   17.9154  55430.49383 
    14.51465  1.87411   5.57131       0.17193          5761.5287  0.25235  0.04431     0.12312  32.53463     17.34146   4696.21387   -10.60986  1.48038  17359.85688  0.00012  55389.79114  53.17776  21.13698  18.06735     55433.16 
    14.95247  1.44993   7.27192       1.58661         3548.57854  0.38809  0.08775     0.29777  29.99961     16.30389   3788.91836    -9.85243  0.77185  32375.90832    1e-05  55390.54857  53.71299  32.05116  18.05318     55431.29 
    14.35981  1.44003   4.18239       1.37961         3533.59847  0.19792  0.12259      0.2968   14.8227     19.95972   4178.26279    -13.3051  0.24382  18577.12093  0.05063   55387.0959  53.17327  14.32755  17.84267    55427.261 
    14.49331  1.57811   5.65995       0.71717         4107.55252   0.4846  0.10848     0.45806  13.40742     16.49675    6955.8067   -12.57015  0.25269  14474.93944    2e-05  55387.83085  52.94776  34.37801  18.11333     55434.29 
    13.88951  1.77992    4.2645       2.30579         3630.63612  0.06337  0.08674     0.39315   3.81784     17.88428    3626.4693   -15.18523  1.31603   5959.59828  0.00043  55385.21577  52.04849    3.3444  18.19492  55437.03818 
    14.32118  1.86096   5.06462       3.24227         4128.56093  0.03906   0.0166     0.09389  31.92373     18.70274    6133.6999   -19.38749  0.36852   6651.45894   0.0028  55381.01351  52.34308   3.26136  18.00768    55427.261 
    14.14343  1.68244   6.21509       0.21533         4075.51907  0.13418  0.01861     0.38025  56.19678     17.12012   5459.79277    -10.5102  1.33946  12331.74866    7e-05   55389.8908  52.91988  12.29935  18.06842    55427.211 
    14.82915   2.0621   1.69427       1.04825         4942.24473   0.1394   0.0155     0.09732  60.14599     20.26759   6953.61796    -3.22078  1.15679  12147.76377  0.10288  55397.18022  52.91145  12.91463  18.09543    55436.268 
    14.49651  1.34539   5.22057       0.01819         3247.65132  0.45557  0.08209     0.18615  24.03241     16.37329   4631.09292    -5.46655  1.10695  27652.39295    1e-05  55394.93445  53.55881   36.1631  18.00177    55430.242 
    14.44872  1.54131   7.84762       1.09316         5209.21125  0.15909  0.02909     0.19692  49.59518      17.1079   5683.12082   -11.10511   0.4749  16298.64166    7e-05  55389.29589  53.15349   14.2955  18.16457     55433.16 
    13.72435  1.65045   4.72453       4.99178          4172.9095  0.05514  0.03265     0.04685   13.6145     17.08678   5428.93057   -20.83461  1.36596   5697.16656    7e-05  55379.56639  52.13919   3.92385  18.00927     55433.16 
    14.59404   1.2926   1.72522       1.21116         4677.47629  0.12822  0.01713     0.06032  27.58477     16.28247   8874.24473   -15.88445  0.26139   3058.40271    1e-05  55384.51655   51.6571  10.43416  17.99591    55428.257 
    13.82332  1.71966   1.67061       0.74398         4755.53106  0.07791  0.01096     0.23311  68.68017     21.32933    5522.1442    -9.85587  1.55518  11114.28475  1.18592  55390.54513  52.84313   7.36772  18.23982    55428.257 
    14.17699  1.75787    6.5203       4.00038         3870.04877  0.08229   0.0121     0.06148  53.70897     19.24901   4777.66302    -9.17447  1.04046  14478.09056  0.00986  55391.22653  53.05614   7.48963  17.87067  55430.49383 
    14.71546  1.44484   0.97454       3.91962         4740.67957  0.11341  0.01063     0.01458  49.39988      19.2236   7303.30177    -2.13248  1.22197    4777.2356   0.0093  55398.26852  52.08726  10.18394   18.0112  55440.31036 
    15.02268  1.49223   5.08496       2.33067         3451.45385  0.25615  0.09913     0.23657  25.50776     19.56254   5505.70042    -13.2745  0.06421  22810.00547  0.02029   55387.1265  53.39628  20.55375  18.02923     55430.18 
    14.92843   1.9568   1.38904       2.10519            2708.13  0.48887  0.14547      0.4232  19.01757     19.06067   3006.59898    -2.47954  0.71604  24367.05704  0.00639  55397.92146  53.43002  37.15199  18.16637     55430.18 
    14.22407  1.64178   5.10347       3.48885         4342.23675  0.16747  0.02298      0.0289    9.1341     17.10514   6988.83412   -11.54707    0.466   3930.03632    7e-05  55388.85393  51.77993  10.95083  17.97378     55430.18 
    14.22389  1.86189   4.91711       1.72804         2556.75136  0.17754  0.02221     0.07367  37.25978     17.25384   6708.35424   -14.99714  1.40503   9787.96733   0.0001  55385.40386  52.69011  15.21872  17.94827  55430.49383 
    14.74477  1.89303   4.28207       2.19667         2561.78124  0.14194  0.02248     0.09218  62.15308     18.04644   6969.35138    -4.02816  1.01997  15482.49774  0.00062  55396.37284  53.12436  13.21797  18.10801    55434.247 
    13.59864  1.60842   1.70362       2.56267         3672.15659  0.05576  0.03639      0.1553  30.17982     21.47919   3580.09685   -13.15793  1.02315  12519.26198  1.67461  55387.24307  52.88816    4.6102  18.30446  55433.76601 
    13.56211  1.69478   9.42006        0.4246         4739.27489  0.22961  0.06178      0.1938  73.43114     19.16972   3767.96662   -27.69596   1.4023  27284.69433  0.00821  55372.70504  53.62762  21.93571  18.10988     55430.18 
    13.92499  1.71354   3.07689       4.27302         2940.94293  0.02077  0.02301     0.49803  14.67823     16.87163   6247.19349   -10.02185  1.52205   3438.62452    4e-05  55390.37915  51.70724   1.50082  18.21232  55433.76601 
    14.58427  1.67604   5.62142       4.18238         2430.74473   0.2607  0.02862     0.17241  25.59522     16.34798   5282.73027    -6.85826  0.78091  14967.81881    1e-05  55393.54274  53.03061  20.93241  18.05674     55430.18 
    13.96521  1.74456   4.66106       1.40904         3694.38617  0.03237  0.01494     0.05862   39.0789     18.82804   4596.00883    -8.39213  1.12775  11355.36034  0.00374  55392.00887   52.8226   2.79751  18.23736  55430.49383 
    13.95287  1.62323   5.50849       2.86364         3704.95061  0.30151  0.09407     0.40962  22.24099       17.103   3890.35475   -13.28896  1.09432  19259.53359    7e-05  55387.11204  53.23846  23.59657   18.1967     55433.16 
    14.22318  1.86084   2.60115       2.68465           4679.719  0.16499   0.0135     0.03606  41.39532     21.02893   6103.75568    -6.60014  1.15569   3593.02145  0.59382  55393.80086  51.82728  14.39479  18.09077     55431.29 
    14.84222  1.78074   2.04737       2.07324         2408.60832  0.11294  0.01945     0.11495  76.98798     16.57018   4002.79676    -7.05831  0.78215  17322.76564    2e-05  55393.34269  53.23612   10.8665  18.18711     55430.18 
    13.96345   1.7604   5.34994       0.15014         3824.11079  0.09061  0.02688     0.05789  52.91099     17.73364   4579.92447   -10.20143  1.48741  16772.35723   0.0003  55390.19957  53.18287   8.22724  18.18046     55433.16 
    14.01853  1.61394   5.72722       2.14062         4882.38191  0.16997  0.03615     0.02869  46.38405     17.42029   6318.13085   -11.12991  0.40683   18900.8876  0.00015  55389.27109  53.27744  15.10891  18.07455  55430.49383 
    14.93148   1.8074   2.31794       2.82331         3030.24165  0.10058  0.01129     0.02219  95.02531     19.37715   3189.51125    -6.29183   1.0637  17200.80821  0.01324  55394.10917  53.24351   9.98386  18.01078    55433.207 
    14.43147  1.70823   4.02261       2.43931         2600.70604   0.0815  0.01039     0.05535  90.74149     17.99796   6466.75398    -7.55614    1.055   9957.15935  0.00055  55392.84486  52.76575   8.03533  18.00577    55431.246 
    14.01459  2.01198   4.98448       3.66412         5559.57782  0.02121  0.03006     0.49466  15.30251      20.6121   6799.46046    -16.1093  0.92591   3728.99858  0.22742   55384.2917  51.78126   1.54536  18.00117  55423.94947 
    14.17989  1.77577    4.7528       4.82763         4798.39392  0.03841   0.0649     0.15121   9.31869     17.97898   6194.79197   -17.46047  0.35494   7042.43019  0.00053  55382.94053   52.2885    2.5226  18.20902     55433.16 
    13.70291  1.73037   4.45561       3.97527         5036.49998  0.48987  0.15374     0.34782   3.47286     20.83312   5322.13983   -12.30422  1.48972   8547.46855  0.37831  55388.09678  52.35031   25.1819  18.05409  55437.03818 
    14.36758  1.61893   8.92452       4.63752         4955.13872  0.42659  0.01948     0.15229   12.0808     20.14338   9191.24541    -9.27153  1.11062    3838.5418  0.07729  55391.12947  51.78553  29.61958  17.95243     55433.16 
     13.7417  1.64374   3.91903        0.2438         5971.51036  0.09137  0.15267     0.39196  12.33077     19.53686   4494.35617   -14.90203  1.19901  19363.30588  0.01912  55385.49897  53.19301   6.37133  18.05974    55431.246 
    13.98645   1.7069   4.16589       3.11567         5636.31256  0.01848  0.02544     0.03167  21.82043     16.38211   6457.77859   -29.41811   0.9145   2809.36561    1e-05  55370.98289  51.56485   1.44153  18.13643     55431.29 
    14.07154  1.77815   5.76949       3.18042         4693.55199  0.17293  0.02803     0.10868  12.88615     17.10091   7773.87785   -10.89096  0.81019    6081.0787    7e-05  55389.51004  52.19096  12.16826  18.08703  55437.03818 
    14.60449  1.82089   2.67138       3.74882         2178.01584  0.13123  0.02232      0.1189  62.62269     17.40268   3965.58885    -5.41581  1.09847  16575.27983  0.00014  55394.98519  53.18411  12.23463  18.03543     55433.16 
    14.16564  1.77933   2.89259       0.83286         5007.86918  0.08311  0.01007     0.28422  64.32895     16.15339   5303.32768    -28.7968  1.04877   3780.11948    1e-05   55371.6042  51.90201    7.7804  18.06502     55425.29 
    14.33894  1.53611    5.8232       4.69088         2875.35689   0.2262  0.04163     0.13562  26.06237     19.02857   4867.74969   -10.33867  0.37168  13728.71042  0.00593  55390.06233  52.95697    18.221  18.08729    55435.252 
    13.72202  1.63606   4.25137       2.08929         4884.85052  0.05375  0.03896     0.30125  20.73573     17.25219   7469.22422   -14.38158   1.3625   9424.38596   0.0001  55386.01942  52.61201   4.15234  17.86812     55434.29 
    14.04899  1.47493   4.98602        3.9752          4192.9707  0.10088  0.02385     0.27789  33.03959     16.92557   5715.52525   -13.06878  0.63682  10941.52195    5e-05  55387.33222  52.77798    8.4725  18.20948    55435.296 
    14.16829   1.8229   8.28024       2.32186         5171.40658  0.46148  0.09819     0.32087  18.60502     18.84729   3624.83526   -12.91028  1.54449  19279.63031  0.00391  55387.49072   53.2248  34.92426  18.08709     55431.29 
     14.8369  1.57672  13.84176       2.93912          4443.0835  0.15976  0.03423      0.1009   69.8396     17.72502   3920.31051   -10.32093  1.27807  23086.19659  0.00029  55390.08007  53.47918  15.14682  17.97672     55430.18 
    14.43312   1.8508   5.17728       3.21189         5439.11919  0.30975  0.10457     0.16558   7.84813     16.65654   6572.84231    -11.1555  0.24787   10532.2179    3e-05   55389.2455  52.62135  19.57458  17.89922     55433.16 
      14.679  1.88095    4.5494       3.97619         3128.61697  0.08707  0.07612     0.24005  22.02022     17.34686   5677.02513   -11.68952   0.1333  15021.02236  0.00012  55388.71148  53.02177   6.80166  18.13823     55433.16 
