 log(Bfield)      Mns     Pspin  cutoff_power  cutoff_wavelength  fnickel    kappa  kappagamma   mejecta  log(nhhost)  temperature  texplosion  thetaPB     vejecta      A_V        MJD_0   log(KE)      M_Ni  Peak_mag     Peak_MJD 
    13.98683  1.54687  26.74226       0.57446          2346.8957  0.20447  0.07303     0.03863  41.58921     19.11388    6007.7189    -9.72134  0.63798  6689.60098  0.00722  59050.69866   52.3675   17.8525  19.81859     59155.16 
    14.80581  1.79531   29.2608       3.15089         2995.64067  0.13062  0.04923     0.04004  64.32666     18.82031   5650.30598   -11.18007  0.48641  6283.28765  0.00367  59049.23993  52.34337  12.22825  19.82771  59155.44891 
    14.47616  1.59439  14.50998       4.80092         2017.34719  0.16938   0.0671     0.02593  46.06348     18.48456   5865.20392    -8.56508  0.76409  6567.65823   0.0017  59051.85492  52.35881  15.03914  19.82953     59156.11 
    14.13014  1.15573  12.02473        2.2795         3033.29517  0.14843  0.05944     0.01722  51.11496     16.38023    6424.5772    -9.27181  1.49206    6271.752    1e-05  59051.14819  52.32607  13.40276   19.8164     59158.33 
    13.97479   1.4196  14.73178       0.05873         5022.73632  0.19504  0.06844     0.07039  39.60603     18.89305   5971.16329    -8.02797  0.90961  6468.48877  0.00434  59052.39203  52.33478  16.89191  19.83898     59156.11 
    13.22909   1.4966  27.94444       1.84467         2960.82984  0.17019  0.05552     0.21541  53.48286     20.25542   6233.67658    -10.1617  0.76927  6395.22132  0.10003   59050.2583  52.34614  15.47869  19.81381  59155.44891 
    14.71449  1.65856  25.10765       0.31702         4005.32115  0.27946  0.10197     0.02665  29.71333     17.15153   6296.96279    -7.02262   0.3966  6595.12138    8e-05  59053.39738  52.33026  23.04106  19.82038     59156.11 
    13.46717     1.48   10.3963       1.42019         2664.47564  0.23063  0.07727     0.01834  35.70513     19.94463    5653.9881   -12.41258  1.52038  6165.33612  0.04891  59048.00742   52.2855  19.62784  19.82713     59153.36 
    14.02514  1.63196  18.26948       0.01804         2993.08727  0.14351  0.05445     0.03088  59.13258      18.5275   5544.75541   -10.68796  1.17246  6625.70201  0.00187  59049.73204  52.38377  13.26029  19.82283  59155.44891 
    15.02476  1.39425  15.91443        3.7788         2459.78781  0.12857  0.04766     0.02444  61.04552     18.69128   6344.92711     -8.5296  0.23897   6310.0355  0.00273   59051.8904  52.34353  11.93953  19.81611     59156.25 
    14.42812  1.72495  27.25272       0.72456         2905.78087  0.25188   0.0903       0.027  32.24324     18.04345   6547.49916    -8.54575   0.6022  6757.99611  0.00061  59051.87425  52.35763  21.06479  19.80942     59158.14 
    14.51278  1.70394  16.53205       4.97265         2079.20994  0.16832  0.06355     0.01498  46.44707     18.71514   6441.28775    -9.10504  0.63867  6442.23455  0.00288  59051.31496  52.34265  14.96499  19.82146  59155.44891 
    15.15096   1.4277  29.37513        1.7017         2284.79843  0.24949  0.09063     0.01369  33.73932      17.0413   6619.52577    -9.17079  0.66124  6546.74111    6e-05  59051.24921  52.33344  21.02869  19.81499     59157.35 
    14.58459  1.53588  25.36476       1.17741         2143.31775  0.18315  0.06796     0.01679  46.65892     18.69373    5945.5313   -11.67103  1.55926  6267.46829  0.00274  59048.74897  52.31908  16.29546  19.82121     59154.18 
    14.45812  1.42815  26.63136       0.77717         2408.76613  0.12696  0.04396     0.40354  65.74039     19.45978   5794.31207   -10.44476   1.3963  6334.14265  0.01601  59049.97524  52.35182  11.92602   19.8234     59154.21 
     14.4167  1.58003  14.10872       0.40847         2319.33986  0.24704  0.09844     0.10247  31.28106     18.34355   6299.27714    -9.41095  0.82714  6382.33489  0.00123  59051.00905  52.30567   20.5519  19.82721  59155.44891 
    14.61252  1.90781  29.89952       0.99214         2699.63381  0.16573  0.06018      0.0906  48.86887     16.46543   5896.40123    -9.56926  0.87468  6538.94598    2e-05  59050.85074  52.35917  14.85642   19.8279     59154.18 
    12.94824  1.27766  24.66964       4.25805         3456.43163  0.29497  0.10868     0.03781  27.60506     16.75621   7748.06695    -8.98191  1.37416  6033.88209    3e-05  59051.43809  52.24736  24.00577  19.80897     59156.11 
    13.67515  1.36052  29.54719       2.12719         3382.29264  0.18339  0.06641     0.02014  44.58267      18.6688   5887.86687     -7.8453  0.99823   6429.6374  0.00259   59052.5747  52.33805  16.19619  19.82966     59156.11 
     14.8774   1.7354  14.02879       0.48618         2758.36969  0.22917  0.08305     0.02459  35.29065     18.42859   6313.37708   -10.90457  0.08017  6397.40745  0.00149  59049.51543  52.31673  19.46518  19.81732     59156.25 
    14.00959  1.98454  10.09035       4.29635          3192.8678  0.21606  0.08442     0.01426  36.02015     16.53277    6197.2762     -8.4242  0.34859  6479.44861    2e-05   59051.9958  52.32931  18.41544  19.80824     59157.21 
    14.05168  1.54917  22.67767       0.18918         4271.51687   0.3234  0.11244     0.09401  25.54542     17.78091   6007.70785   -11.96505  0.98437  6015.60814  0.00034  59048.45495   52.2387  25.95739  19.82735     59153.08 
    14.77732  1.47814  29.33505       3.59453         2459.22669  0.28734   0.1009     0.01205   29.3042     19.59133   6406.87834    -8.52099  1.14017  6396.69494  0.02168  59051.89901  52.30267   23.6334  19.81917     59154.21 
    13.67931  1.95178   14.6337       4.44159          3667.5459  0.12355  0.04288     0.05525  60.10643     18.08599   6616.28684    -5.98713  1.20853  5829.67762  0.00068  59054.43287  52.27371  11.44566  19.84634     59155.09 
     14.1621  1.41759  24.71163       4.01126         2866.22702  0.18673  0.06709     0.02586  43.61358     17.99894    6481.3924    -7.16474  0.84614   6542.3418  0.00055  59053.25526  52.35157  16.43253  19.81947     59154.18 
    15.09591  1.70144  28.15616       2.24676         3462.28507  0.28206  0.10661     0.03692  28.64494     16.12726   5841.34808    -8.78069  0.79101  6307.75963    1e-05  59051.63931  52.28877  23.10659  19.81642     59153.36 
    14.84794  1.42636  28.58382       1.59183         2800.14451  0.18276  0.06452     0.02224  45.58941     16.69586   6420.13277    -8.59205   0.2586  6392.49977    3e-05  59051.82795   52.3346  16.19964  19.83126      59155.3 
    14.74522  1.61188  15.82482       1.87366         2889.16777  0.15707  0.06213     0.01011  50.37628     19.54578   5374.47356    -7.76536   0.3502  6828.22453  0.01952  59052.65464  52.39889   14.1498  19.82608     59157.25 
    14.23172  1.30881  20.33045       4.14313         2263.03443  0.32344  0.11329     0.12724  27.26642     20.03024   6436.32056   -11.73122  1.33988  6340.51569  0.05956  59048.68878  52.28947  26.26555  19.81565  59155.44891 
    14.42972  1.75753  12.97483       1.11726         3527.54865  0.26144  0.10379     0.01957   31.2614     20.08064   6028.60267   -11.07777  0.47673  6475.79482  0.06689  59049.34223  52.31825   21.7473  19.83293     59154.18 
    13.55223  1.46683   8.76867       1.61101         2687.24619  0.15315  0.05739     0.02154  48.96788     18.51814   6381.06999    -9.11619  1.10514  6610.30327  0.00183  59051.30381  52.36874  13.73327  19.82601     59155.09 
    14.99246  1.31526  24.32905       0.23632          4021.0103  0.13776  0.04684     0.09319  60.13508     19.66751   6494.46847    -9.40486   0.2497  6322.88203  0.02584  59051.01514  52.34428  12.76232  19.81937     59156.25 
    13.85584  1.39918   7.46066       1.52957         2597.71565   0.2682  0.11493     0.02995  26.13565     20.32019   6024.10549    -9.68773  0.97528  6938.17685  0.11612  59050.73227  52.36442  21.61554  19.82129     59157.21 
    14.21728  1.50376  25.89783       0.09602         2263.01534  0.28474  0.09191     0.02815  29.36585     19.86904   5508.45431    -9.72162  0.83589   6106.9657  0.04109  59050.69838  52.26257  23.42793  19.82387     59155.09 
    14.30453  1.25166  23.59464       3.02078         2667.84121  0.23904  0.08601     0.03293  34.30889     18.38297   5776.44851    -8.42275  0.56878  6506.20442  0.00134  59051.99725  52.32929  20.20624  19.81924     59153.36 
     13.9651  1.77294  26.95195       0.63333         2469.75283  0.30218  0.10369     0.02375  26.91507     16.33035   7215.54724    -7.81731  1.30414  6638.74151    1e-05  59052.60269  52.32838  24.48223   19.8289     59156.11 
    14.95369  1.35909  25.29168       0.49972         3748.26393  0.23873  0.08767     0.05065  35.13312     17.43754   6108.73489    -8.15146  1.27624  6437.37694  0.00015  59052.26854  52.32181   20.2614  19.82397  59158.83787 
    13.98182  1.58667   9.23531       1.67107         2998.17749  0.17255  0.07619     0.02786  40.03369     17.92425   6136.54232    -8.61023  0.80265  6797.14802  0.00047  59051.80977   52.3786  14.97053  19.83285     59156.25 
    14.89632  1.71635  20.82601       2.63032         2825.47389  0.36077  0.13036     0.12347  23.35771     20.04641   5862.12827    -7.08863  0.27745  6872.33808  0.06182  59053.33137  52.34729  28.48926  19.81979     59156.25 
    14.06144  2.11026  22.19553       3.04714          3621.2233  0.13123  0.04604      0.0101  62.95796     19.81794   5963.74029    -8.85264   0.9756  6137.35942  0.03653  59051.56736  52.32151  12.24498  19.81891     59154.21 
    14.35695  1.69822   27.1423       0.59769         2256.09197  0.22272  0.07504     0.06188  36.71341     16.79011   6072.76041   -10.06496  0.38977  6291.00604    3e-05  59050.35504  52.30508  19.04441  19.81975     59152.31 
    12.04824  1.49595    4.1584        4.4049          2236.0706  0.19982  0.07143     0.05017  42.11235      18.7109   5817.94292    -8.26874  0.74174  6745.30455  0.00286  59052.15126   52.3756  17.48276  19.82574     59154.19 
    13.62101  1.52419  12.19408       0.29895          4412.0237  0.28864  0.09786     0.38379  26.98431      16.3399   6431.91026     -9.6707  1.37172  5932.68215    1e-05   59050.7493  52.23091  23.39594  19.83327  59155.44891 
    13.05683  1.34313    4.9516       2.79578          2854.1148  0.13398  0.05125     0.01313  55.59674     18.91047   6289.58589    -7.40053   1.1372  6860.24706  0.00452  59053.01947  52.40978  12.26063  19.80871     59156.11 
    12.46957  1.37813  26.81395       0.34592         3013.37228  0.34441  0.09807     0.32521  26.67373     20.43736   6362.65673    -7.34192  1.48931  6599.75257  0.15208  59053.07808  52.32257   27.8592  19.81669     59156.11 
    14.15388  1.82452  29.89398       1.30779         3291.96874  0.21505  0.07184     0.01186  42.58468     20.29193    6645.5573    -9.94553   1.1562  6563.26188  0.10881  59050.47447  52.35264  18.84985   19.8044     59157.35 
    13.85713   1.4827  17.08502       1.54404         3493.31025  0.24731  0.09226     0.09266  33.31509     18.74533   6060.25339    -10.0375  1.05233  6353.50488  0.00309   59050.3825  52.30647  20.79961  19.81798     59156.11 
    14.25595  1.43783   5.44717        3.6006         2078.19598  0.11921  0.04465     0.01596  57.54508      16.7766   6028.36076    -9.34712  0.08623  6676.86182    3e-05  59051.07288   52.3886  10.96864    19.819     59156.25 
    14.92248  1.47746  28.19657       4.28991         2419.98091  0.14649  0.05465     0.05115  57.59019     19.04201   5962.73689    -9.83222  0.93846  6486.83593  0.00612  59050.58778  52.36357  13.47961  19.82457     59155.09 
    14.94202  1.64243  20.80353       0.37301         2154.44136  0.15408  0.05055      0.0121  57.11982     20.24157   6036.34812    -11.4288  0.52843  6208.85953  0.09689   59048.9912  52.32497  14.16032  19.82676     59155.09 
    12.25516  1.44535  15.38157       0.99077         2997.24773  0.13226  0.04239     0.02641  69.45276     20.31003   6335.29333    -9.27711  1.07881  6557.02277  0.11344  59051.14289  52.38552  12.52884  19.81778     59154.18 
    13.42976  1.30881  13.52171       1.16191         2850.40557  0.20727  0.07173     0.02808  39.57588     17.77863   6710.98621   -10.13522  1.47756  6194.36247  0.00033  59050.28478  52.29711  17.94826  19.83518     59155.18 
    14.10993  1.71455  12.51579       0.50774         2281.18738  0.27544  0.10513      0.0525  26.61822     19.20205   5734.56425     -10.596  1.13882  6173.21911  0.00885    59049.824  52.26438  22.27136  19.82231     59156.11 
    12.84163  1.24828  23.57505       0.05923         2983.40547  0.25335   0.0926     0.15883  33.76329     18.89379   5313.50984    -9.59228  1.29683  6619.30927  0.00435  59050.82772  52.34307  21.35646  19.82499  59155.44891 
    14.81422  1.64659  18.58978       0.73242         2749.60724  0.14824  0.05373     0.01719  55.24266     18.42273   6254.21857    -8.84741  1.53335  6330.51846  0.00147  59051.57259  52.33954   13.5521  19.81274     59156.25 
    14.54028  1.86257  23.82642       3.55957         2440.09898  0.32772  0.12023     0.18014  26.20977     16.82249   5555.02199    -8.37481  0.14677  6833.82426    4e-05  59052.04519  52.35148  26.42576  19.81704     59154.18 
    14.59617  1.12289  22.36638       2.46529          3647.4236   0.1311  0.04665     0.02336  63.37591     18.16841   5895.18619   -11.45132  0.05886  5660.67355  0.00082  59048.96868  52.25173  12.24572  19.82599     59156.11 
    14.98232  1.26924  19.38261       0.56827         3337.06676   0.1596  0.04852     0.13255  59.40028     20.44552   5831.93879   -10.17332  0.00186  6572.69828  0.15497  59050.24668   52.3771  14.75797  19.81407     59156.11 
    13.54308  1.73576   9.18322       0.14889         2434.64347  0.30364   0.1097     0.05748  27.71688     16.55098   5824.07079    -7.79907  0.24332  6839.51434    2e-05  59052.62093  52.35653  24.72932  19.81387     59155.18 
    15.10484  1.46172  10.86586        1.8853         2090.48198  0.20935  0.07746     0.13067  38.51786     17.20265   5969.68216    -9.22791  0.67245  6519.78892    9e-05  59051.19209  52.33961  18.04635  19.82442  59155.44891 
    14.93632  1.51505  27.14614       0.29154         3117.85533  0.23907  0.08074     0.01733  34.12312      17.4192   6569.26895     -8.0302  1.31132  6113.86302  0.00015   59052.3898  52.27486  20.18975  19.82139     59157.21 
    14.67835  1.29561  14.77454       0.19454          3172.5634  0.15399  0.05684     0.05495  52.01245     18.45992   6386.29275    -9.31185  0.97286  6307.44984   0.0016  59051.10815  52.33221   13.9432  19.83331  59155.44891 
    14.49379  1.43257  20.17686       3.03852         3214.55524  0.24064  0.08951     0.01563  32.75253     16.89408   6259.90662     -9.5815  0.65434   6122.8648    4e-05   59050.8385  52.27308  20.17915  19.82385     59156.11 
    13.64614  1.19463   9.20337       3.67971         2413.63429  0.20091  0.07625     0.05142  37.42154     18.00989   6488.80621     -8.7911   1.4531  6577.87408  0.00057   59051.6289  52.34521  17.23491  19.81773  59155.44891 
    14.73097  1.74497  12.11093       0.13445         2071.63956  0.12489  0.05009     0.01416  57.79309     19.00868   6009.06722   -11.10544  0.28531  6105.30649  0.00567  59049.31456  52.31116  11.49901  19.81303     59157.21 
     13.9272  1.27188   8.58943       4.63229         3002.84046  0.14797  0.05683     0.01549  52.18892     18.83056   5880.87959     -9.1345    0.375  6449.02025  0.00376   59051.2855  52.35172  13.40541  19.82063     59156.11 
    13.98166   1.6578   6.98129       0.57265          2916.0638  0.13253  0.05782     0.11673  47.88558     16.95903   6159.59897    -7.76518  0.37735  7192.04268    5e-05  59052.65482  52.44043  11.84172  19.82865     59154.18 
    14.37649  1.63513  15.45844       0.48529         2247.50632  0.14716  0.05044     0.02757  59.90949     20.40541   5995.09662    -9.47996  1.33875   6844.0668   0.1413  59050.94004  52.41282  13.62546  19.82373  59155.44891 
    14.46932  1.32566  28.54532       0.20516         4029.05564  0.16188  0.05554      0.0269  49.17729     19.05887   6394.03801    -8.32035  1.16512  6506.82013  0.00636  59052.09965  52.35533  14.52669  19.80932  59155.44891 
      13.969  1.84101   9.43735       0.07962         3078.18532   0.1622  0.06167     0.02981  41.89307     20.27035   6015.51508    -8.56765  1.54785  6478.66671  0.10353  59051.85235   52.3402  14.17933  19.82627     59156.11 
     14.6259  1.25435  16.44345       4.02731         2123.35989  0.26043  0.08688     0.02552  30.93767     19.93232    6521.3319    -9.61551  0.38623  6181.83066  0.04754  59050.80449  52.27711  21.62415  19.83546     59155.09 
    14.56117  1.61378   13.2255       4.21766         2080.70739  0.16398  0.06802     0.01669  47.67758     18.58367   5817.38202    -9.50674  0.71402  6491.22762  0.00213  59050.91326  52.35107  14.64155  19.83624     59155.09 
    13.54814  1.65255   6.83631       4.45195         2849.36219  0.10676  0.03855     0.01359  70.13672     20.02501   6383.11378   -10.79704  0.74028   6194.9365  0.05885  59049.62296  52.33683  10.12805   19.8193     59156.25 
    13.61275   1.2763   9.87666       4.88027         3466.62684  0.21583   0.0812     0.01481  33.57334     19.18668   6471.37152     -8.3207  1.28475   6176.8942  0.00854   59052.0993  52.28256  18.17601  19.80498     59156.25 
    13.19958  1.55591   4.38449       1.99094         2320.16013  0.14235  0.04091     0.12796  55.24518      20.6091   6536.15704    -6.68841  0.86474   6734.3286  0.22586  59053.73159  52.39325  13.01309  19.81916     59155.18 
    14.46386  1.34764  20.55563       1.01679         3304.09386  0.31763  0.11234     0.06912  26.28622     18.13531   5843.68591    -8.19409  0.19498  6477.73594  0.00076  59052.22591  52.30522  25.62562  19.82356     59153.36 
    13.79139  1.37808   9.89801        1.0619         3554.61254  0.46577  0.15345     0.04463  17.87453     20.45515   5827.25597    -7.22455  1.47301  6565.86961  0.15845  59053.19545  52.28585  34.97891  19.82007     59157.21 
    13.68701  1.43672  26.81314       4.98537         2032.94529  0.26991  0.09384     0.37032  31.58399       19.164   5555.42049    -9.44786  0.80451   6438.2335   0.0081  59050.97214  52.31397  22.49247  19.82616     59156.25 
     14.6456  1.67524   15.6739       0.77885         2129.08617  0.18196  0.07171     0.01849  44.02283     18.99475   6310.75111    -8.99337  0.49164   6594.5423  0.00549  59051.42663  52.35914  16.03682  19.82092     59156.25 
    14.11405  1.54511  10.34907       4.38398         2195.90899  0.17012  0.06604     0.02406  40.09932     17.98039   6504.52352    -8.18898  0.58026  6715.57283  0.00053  59052.23102  52.36824  14.76396  19.80966  59155.44891 
    14.19903  1.24411  13.06654       1.64236         3003.47853  0.30127  0.11918     0.03136  25.82722     18.89786   6217.83545    -8.64534  1.42369   6564.7336  0.00439  59051.77466  52.31544  24.22898  19.81568     59156.11 
    14.72367  1.90753  24.19928       1.64771         2371.33591  0.22771  0.07858     0.05626  35.53174     17.35924   6706.59741    -9.80976  0.02039  6313.66597  0.00013  59050.61024  52.30579  19.36341  19.83092      59155.3 
    13.69727  1.65477   8.26139       0.74327         3268.31937  0.19109  0.06597     0.08266  40.36549     20.29561   6109.86584    -7.36633  0.84509  6953.28197  0.10973  59053.05367  52.39893   16.6022  19.80891     59157.21 
    13.85281  1.73876    6.5684       0.42092         3267.05827  0.17245  0.07291     0.03574  34.92888     16.25371     6092.512    -8.24586  0.45222  6919.49501    1e-05  59052.17414  52.38411  14.62164  19.81749     59155.09 
    14.43653   1.4961    9.1324       0.86132         3045.66269   0.2007  0.08034     0.02355  34.37907     19.77093   5963.76487   -10.48597  0.24835  6322.10435  0.03278  59049.93403  52.30451  16.97073   19.8231     59157.21 
