 log(Bfield)      Mns    Pspin  cutoff_power  cutoff_wavelength  fnickel    kappa  kappagamma   mejecta  log(nhhost)  temperature  texplosion  thetaPB      vejecta      A_V        MJD_0   log(KE)     M_Ni  Peak_mag     Peak_MJD 
     14.2969   1.6485  0.96603       0.49271         2994.71257  0.03038  0.10046     0.11777  32.54023     17.10922     3163.753    -6.63841  1.14838   8807.30219    7e-05  57905.42159  52.58837   2.5449  14.29297  57955.60473 
    14.55495  2.03716  1.55556       2.69092         2371.12733  0.00931  0.16215     0.05882  14.39629      16.3378   3296.40789      -6.355  0.67726   6517.08689    1e-05    57905.705  52.26088  0.67036  14.57046  57955.60473 
    14.27363  1.69334  1.83525       0.91933         3067.36443  0.02117  0.29627     0.19684   5.42422     19.22924   3310.52279   -10.38596  1.05021   5656.11389  0.00942  57901.67404  52.04299  1.22491  14.36665  57959.08899 
    14.39036  1.76633  0.76953       1.86231         2682.53612  0.12601  0.30077     0.37667   7.45728     19.71826   3209.64816    -6.02874  1.33692   6838.42102  0.02904  57906.03126  52.24112  7.87011   14.5767  57955.60473 
     14.3313  1.57182  1.45839       0.26602         3344.81547  0.00101  0.23482     0.11149  10.20959     18.75378   3258.22928   -10.93143  0.70886     6543.021  0.00315  57901.12857  52.23326  0.06782  14.50936  57955.60473 
    14.26837  1.94807  2.45988       2.40538         2211.45118  0.00889  0.21906     0.08204   7.97489       17.719    3771.9556   -11.06354  1.40486   6386.22594  0.00029  57900.99646  52.18839  0.56363  14.55142  57952.12046 
     14.3943  1.75943  1.60986       0.87527         3400.58027  0.00144  0.22902      0.1266   8.72396     18.34877   3481.91977    -8.63319  0.72622   5917.31078  0.00124  57903.42681  52.13095  0.09312  14.70925   57948.6362 
    14.33723   1.6035  1.44502       1.48996         2663.58778  0.01828  0.20732     0.11957   8.96203     18.66629   3260.72893   -10.02992  0.82587   5490.71602  0.00258  57902.03008  52.06857  1.19063  14.48609  57952.12046 
    14.25349  1.62322  1.34859        1.3213          2454.4661  0.03198  0.24317     0.13249   9.34002     18.70965   3499.11233    -7.62728  1.10744   6777.85508  0.00285  57904.43272  52.25546  2.10178  14.48918  57955.60473 
     14.2185  1.49757  1.54146       1.56588         2242.99696  0.01056  0.10003     0.05592  21.99567      16.4456   3320.54953   -11.31359  0.94089   6395.65451    2e-05  57900.74641  52.28005  0.82467  14.57967   57948.6362 
    14.29902  1.91738  1.61063       0.29434          3830.9478  0.00208  0.23781     0.13935   8.35485     17.42589   3124.26506   -16.08686  1.42928   5204.53853  0.00015  57895.97314  52.01525  0.13342  14.41962  57955.60473 
    14.13539  1.40372  1.41332       1.46303         2638.65476  0.01275   0.1655     0.15003  10.35317     17.44245   3244.75318    -10.1883  1.17095   5397.59132  0.00015   57901.8717  52.06741  0.85685  14.40878  57955.60473 
    14.15201   1.5617  1.80398       1.65022         2257.80911  0.00247  0.24624      0.0829   8.28643     18.67089   3314.17422   -10.98116  1.20009   6455.33768   0.0026  57901.07884  52.20152  0.15823  14.43033  57955.60473 
    14.24221  1.57416  1.97175       0.71207         3029.07694  0.07919  0.25896     0.05262   6.43253     18.61073   3333.17342   -13.76364     0.91   5895.81002  0.00227  57898.29636  52.09717  4.77644  14.51006  57955.60473 
    14.09778  1.21769  1.36865       4.89053         2106.02692  0.07202  0.15107     0.02379  13.41484     19.58742   3613.93891    -8.03079  0.93577   6849.86157  0.02149  57904.02921  52.29793  5.10945  14.40271  57955.60473 
     14.3593  1.93432   1.4163       0.88213         2711.91004  0.00237  0.31439     0.19404   5.73255     20.53184   3836.44498   -10.30025  0.92894   6062.27594  0.18905  57901.75975  52.10919  0.13892  14.45554  57955.60473 
    14.19514  1.44832   1.1707       2.08368          2507.7191  0.01687  0.07483     0.06561   26.7955     17.59105   3298.06137    -5.62903  1.20469   6479.27598  0.00022  57906.43097  52.30692  1.36542  14.45801  57952.12046 
    14.12467  1.48206  1.58181       4.02563         2122.96998  0.01481  0.21601     0.08163  10.46596     17.02551   3124.23702    -9.43966  1.31141    6596.0581    6e-05  57902.62034  52.24259  0.99759  14.36372  57959.08899 
      14.387  1.69718  1.48729       0.85801         3176.55303  0.00341  0.25606     0.14355   7.61806     16.47526   3204.46154   -10.87632  0.75048   5606.14017    2e-05  57901.18368  52.07068  0.21407  14.50494  57952.12046 
    14.13778  1.50559  2.21018       0.88369         3041.06756  0.01374  0.24053     0.02232   5.85002     17.13429   3485.23291   -17.05888  0.91038   4558.79855    8e-05  57895.00112  51.86378     0.81  14.26588  57955.60473 
    14.13093  1.52853  1.60593       1.11439         2266.16306  0.00188  0.19096     0.08866  12.15062     16.18033   3265.84289   -10.79525  1.41218     6872.468    1e-05  57901.26475  52.29194  0.13065  14.58765  57952.12046 
    14.21571  1.72767  1.97844       0.66638         2078.82259   0.0045  0.13592     0.25818  15.74245     19.41412   3149.71389   -12.99157  1.16985    6698.7966  0.01442  57899.06843   52.2925  0.32966  14.49795  57955.60473 
    14.44228  1.89007  1.96846       2.41985         2045.33824  0.06028  0.10858     0.02089  20.80601     19.99658   3348.11336    -8.47316  0.73749   7843.05646  0.05512  57903.58684  52.45275  4.65952  14.57254  57955.60473 
    14.19205  1.50638  2.03995       2.16992         2211.24083  0.00401  0.21538     0.04276   8.11248     16.98477   3286.40397   -13.40217  0.86552   5846.00415    5e-05  57898.65783  52.11331  0.25512  14.44474  57955.60473 
     14.3746  1.79795  1.69463       1.97542         2844.98746  0.00104  0.22495     0.06494   6.13443     17.11646   3317.27989    -8.22601  0.94483   4553.11473    7e-05  57903.83399  51.86773  0.06185  14.42681  57955.60473 
    14.16571  1.52413   1.7952       1.92481         2370.25597  0.03088   0.1162     0.02311  15.12252     17.68181   3788.92582   -11.51159   1.2935    5944.2281  0.00027  57900.54841  52.18524  2.24428  14.38425  57955.60473 
    14.39578  1.57121  1.09779       1.48916         2492.78217  0.03855  0.20087      0.1779  11.42512     18.64244   3382.47945    -9.77782  0.73456   6105.35614  0.00244  57902.28218  52.18354  2.64577  14.47848  57955.60473 
    14.26928  1.84762  1.96188       1.74259         2454.37621  0.00243  0.31843     0.14497   6.29199      16.1509   3213.57412     -9.1145  1.17756   6379.47761    1e-05   57902.9455  52.16335  0.14601  14.59688  57952.12046 
    14.24122  1.72774  2.24172        1.8154         2349.00899  0.04823  0.27474     0.05884   5.83515     18.42408   3531.94225   -12.64115  1.07223   5765.72958  0.00148  57899.41885  52.06752  2.84097  14.60729   57948.6362 
    14.21103  1.41615  1.83811       0.85873         2765.91673  0.07203  0.20611     0.04287   8.17503     16.88755   3272.64795   -12.57271  0.84229    6131.8234    4e-05  57899.48729  52.15553  4.59458  14.55846   57948.6362 
    14.33042  1.89366   0.9221       3.61682         2168.10952  0.01811  0.05826     0.02879  41.46666     20.64474   3108.83377    -4.68654  1.25256   7870.77838  0.24517  57907.37346  52.50852  1.58038  14.49894  57955.60473 
    14.16538  1.62681  2.04669       0.31117         3669.75958  0.00324  0.23499     0.07049   8.38238     17.27305   3383.95275   -13.08781  1.14828     6619.957   0.0001  57898.97219  52.22452   0.2078  14.42637  57955.60473 
    14.22084  1.42809  1.71476       1.10155         2564.75915  0.03936  0.19887     0.04593   9.36853     18.20255   3227.62105   -10.99593  0.82009   6199.05793  0.00089  57901.06407  52.17822  2.58817  14.38392  57955.60473 
    14.21057  1.88973   2.8099       0.52567          3420.6432  0.00475  0.26148     0.04563   5.06312     17.04909   3640.96245   -15.69373   1.3727   5207.95954    6e-05  57896.36627  51.96375  0.26991    14.395  57955.60473 
    14.33656  1.99458  1.63618       1.05395         2613.28629  0.01851  0.21694     0.10414   9.81726     19.41671   3132.17429    -8.46072  1.35963   6348.70865   0.0145  57903.59928  52.20338  1.22941  14.68415   57948.6362 
    14.39624  1.88123  2.20136       2.10459         2252.19644  0.00236  0.14881     0.15614  13.99791     19.68055   3004.83647   -10.81286  0.74486   7152.19056  0.02662  57901.24714   52.3392  0.16905  14.57654  57952.12046 
    14.40598  1.97951  1.33806       1.07424         2284.26668  0.03218  0.11943      0.0425   24.6574     17.02977   3252.96607    -6.93509  1.11821    8277.2911    6e-05  57905.12491  52.51314  2.56645   14.4853  57959.08899 
    14.37051  1.90982  1.95267       0.47834         4232.91312  0.01399  0.16864     0.02316   9.18972     19.76326   3546.97818   -13.51768  0.85817   4853.83433  0.03221  57898.54232  51.96389  0.91619  14.57814  57955.60473 
    14.18894   1.4012  1.23647        2.7608         2213.67678  0.05745  0.18487     0.19512  12.16921      19.7686   3126.91619    -8.03478  1.09105   7309.18715  0.03261  57904.02522   52.3456  3.99495   14.4539  57955.60473 
    14.19218  1.38806   1.0369       4.51164         2187.06186  0.13926  0.26617      0.1222   8.51462     19.94508   3186.43529    -5.24285  1.29005   7683.73511  0.04896  57906.81715  52.35549  8.96476  14.35284  57955.60473 
    14.19399  1.49201  1.29886       1.47545         2370.13617  0.03289  0.21308     0.04851  10.39984     19.88219   3148.34949   -10.75977   1.0166   6147.45075  0.04236  57901.30023  52.18082  2.21224  14.30151  57955.60473 
    14.00459  1.16523  1.39242       4.69862         2004.88934  0.00995  0.20299     0.05742  10.96914     19.30699   3152.43904   -10.28961  1.04953   6702.43966  0.01126  57901.77039  52.26084  0.67671   14.5562  57955.60473 
    14.21892  1.51089  1.58222       0.51356         2663.79868  0.07966  0.26268     0.08172    6.5212     16.82916   3019.60872   -17.09863  1.08421   5209.72433    4e-05  57894.96137  51.99113  4.82083  14.31911  57955.60473 
    14.25979  1.55743  1.22349       1.37644         2493.70539  0.04799  0.14594      0.1618  15.56814       18.854   3273.90782    -7.00799  1.22086    7065.9216  0.00397  57905.05201  52.33789  3.50838  14.40972  57959.08899 
    14.13947  1.46037  1.76152       3.86332         2030.03037  0.00127  0.17308     0.03513  10.65905     19.92559   3323.24462   -12.17735  1.04022    5645.9888  0.04681  57899.88265   52.1092  0.08566  14.51458  57955.60473 
    14.22296  1.68162   1.3862        1.2721         2548.06333  0.01609  0.12915     0.05051  18.93796      17.9077   3491.15956    -7.92461  1.44238   6829.58966  0.00045  57904.13539  52.32486  1.22199  14.61575  57955.60473 
    14.35619  1.72931  1.35408       1.45918         2341.34756  0.00194  0.32636     0.27404   6.00563     20.24764   3062.78295    -8.09621  0.80656   6223.62596  0.09826  57903.96379  52.13696  0.11511  14.51292  57955.60473 
    14.10576  1.49591  1.55015       0.60366         2869.25243  0.00261  0.25892     0.07456   8.19609     18.43091    3354.1968   -12.92215   1.5587   6124.15449   0.0015  57899.13785   52.1547  0.16668  14.60702  57952.12046 
    14.40224  2.01184  1.54709        2.1128          2827.5615  0.04848  0.10031     0.01213  14.43157     16.16447   4523.64679    -7.47175  1.37308   4714.82698    1e-05  57904.58825  51.97992   3.4909  14.53633  57955.60473 
    14.25686  1.56864  2.45385       0.74393         2356.63782  0.02213  0.21137     0.02453   6.61495     18.97952   3843.05603   -23.27654  0.69127   4708.93749   0.0053  57888.78346  51.90483  1.34358  14.40015  57955.60473 
    14.17938  1.40693  1.51956       3.29009         2106.83053  0.06967  0.25514     0.09715   8.04202     17.06455   3303.32391    -9.98938  1.02986    6602.3932    6e-05  57902.07062  52.21814   4.4275  14.40772  57955.60473 
    14.33147   1.3174   1.0941       3.99789         2038.14714  0.12689  0.19862     0.26781  12.68235     16.83154    3097.6221    -6.15916    0.758   9193.88293    4e-05  57905.90084  52.54857  8.89978  14.38925  57955.60473 
    14.05121  1.46214  1.93746       1.55097         2448.30976   0.0126  0.28211      0.0405   5.68598     18.99482    3074.9505    -13.8238  1.50512   5279.33884  0.00549   57898.2362   51.9882  0.73773   14.6027  57952.12046 
    14.36826  1.81871   0.9228       0.99443         3045.52421  0.09065  0.30983     0.11461   8.01063     16.88861   3296.21535    -8.08864  1.29937   6524.95123    4e-05  57903.97136   52.2075  5.75581  14.49567  57952.12046 
    14.36148  1.47261  1.28906       4.31757         2070.33088  0.08087  0.25211     0.06371  10.13951       18.846   3153.87838    -7.25225  0.67728   7473.46251   0.0039  57904.80775   52.3481   5.4103  14.48928  57952.12046 
    14.26274  1.65414  0.98021       0.68942         3108.03127  0.05282  0.28833     0.07284   7.38228      18.4479    3493.9832   -10.63005  1.52598   5544.53511  0.00156  57901.42995  52.05792  3.29113  14.65644  57952.12046 
    14.11034  1.47458  1.57965       2.73558         2246.28803  0.00299  0.18672     0.12703  11.09344      16.1194   3441.27561    -9.03512  1.37132   6394.30506    1e-05  57903.02488    52.221  0.20417  14.36288  57952.12046 
    14.33139  1.84174  2.18841       2.11286         2445.29191  0.09371  0.17337     0.07082   7.98163     17.89455   3961.67558    -9.38726  1.41023   5960.61795  0.00044  57902.67274  52.12857  5.94484  14.58725  57952.12046 
    14.28886   1.8766  1.79152        2.4196         2217.88744  0.04249  0.20162      0.0539  11.24626     17.42532   3530.49309    -9.82724  1.33742   6886.46564  0.00015  57902.23276  52.28667  2.90657  14.68338  57952.12046 
    14.25811  1.73404  1.48801       2.99112         2164.96881  0.00149  0.26365     0.10136   9.59493     18.25972   3271.41333   -10.03661  1.09146   6538.65649  0.00101  57902.02339  52.22682  0.09876  14.45191  57955.60473 
    14.30541  1.97301  1.39424       1.56383         2361.37806   0.0278  0.31151     0.14306    7.0305     20.28654   3148.20726   -10.62637  1.49478   6180.99777  0.10746  57901.43363  52.14736  1.71286   14.4224  57959.08899 
    14.12232  1.54851  2.20083       1.98049         2290.54663  0.02227  0.23576     0.02882   5.89052      17.1827   3522.16204   -17.47543  1.21195   4644.37047    8e-05  57894.58457  51.88067  1.31523  14.65159  57955.60473 
    14.18156  1.44961  1.65839       1.16486         2893.49273  0.00121  0.20244     0.09968   8.25072     17.06643   3467.00106   -12.34588   0.9653    5471.0605    6e-05  57899.71412   52.0574  0.07763   14.4707  57955.60473 
    14.06316  1.48259  2.34989       1.16261         2654.63801  0.01257  0.14107     0.02135   9.22116     18.14079   3317.95291   -18.30115   1.2413   4939.75457  0.00077  57893.75885  51.97946  0.82345  14.46687  57955.60473 
    14.16478  1.53593  1.78538       1.08632         2098.71702  0.01867  0.17409     0.11649  10.16106     16.57967   3535.20143   -13.14739  1.35108   6013.99855    2e-05  57898.91261  52.15958  1.24965  14.37568  57955.60473 
    14.53307  1.75539  1.26256       1.99171         2616.23424  0.09505  0.27281     0.09002    7.3733     18.08656   3426.47555    -6.07698  0.64389   6562.25054  0.00068  57905.98302  52.20417   5.9212  14.57495  57955.60473 
    14.30867  1.84499  2.34317       3.23014         2078.81153  0.12381  0.26959     0.05038   6.48048     17.09369   3953.97986    -10.7678  1.11679   6414.59922    7e-05   57901.2922  52.17119  7.48127  14.49393  57955.60473 
    14.24404  1.78716  2.00238       0.84408         2257.39896  0.00111  0.21286     0.10998  10.46569     19.21607   3571.62431   -10.85017  1.06382   7221.85189  0.00914  57901.20983  52.32132  0.07506  14.48063  57955.60473 
    14.42165  1.99729   0.8858       1.50008         2650.47473   0.0338     0.14     0.18326  19.29009     16.45889   3325.65873    -5.62362  1.48015    7063.3052    2e-05  57906.43638  52.35561  2.57576   14.4575  57952.12046 
    14.49043  1.59255  1.09668       0.31197         3328.28799  0.03036  0.22184     0.07541  13.37796     18.40938   3064.82993     -9.9311  0.53097   7402.41381  0.00143   57902.1289  52.36507   2.1525  14.54509  57952.12046 
    14.22502  1.64021  1.83674       2.19576         2133.26653  0.08159  0.21274     0.28355   9.97989      18.0318   3452.61371    -8.51958  1.34553   7987.26951   0.0006  57903.54042  52.40436  5.43973   14.3371  57955.60473 
    14.23242  1.79255   1.9167       2.94858          2089.4593   0.0267  0.13074     0.04498  17.09552     19.97468   3600.76317     -9.5587  1.39199   7249.78173  0.05241   57902.5013  52.36817  1.98819  14.46012  57955.60473 
    14.37695  1.93137  1.96311       1.59805         2031.54709  0.00134  0.25411     0.17897   9.93998     19.59343   3039.53278   -10.85089  0.83622   7328.78715  0.02178  57901.20911  52.32925  0.08906  14.57511  57955.60473 
    14.15973  1.63859   1.4748       1.09039          2305.1471  0.00114  0.20395     0.19274   12.4301     19.94989   3338.14952    -10.3795  1.52202   7210.94877   0.0495   57901.6805  52.33575  0.07951  14.46201  57952.12046 
    14.40273  1.66137  1.02775       0.08732         3441.91868  0.04395   0.1131     0.03782  28.56685     18.79982   3097.16028    -9.04354  0.82376   8815.03707   0.0035  57903.01646  52.57925   3.5985  14.33568  57955.60473 
    14.01783  1.28021  1.45275       1.51879         2674.40851  0.00111  0.08304     0.03706  22.33877     16.83474   3356.25472    -9.11074  1.39205   6177.35126    4e-05  57902.94926  52.25112  0.08665  14.39711  57955.60473 
    14.23411  1.46344  1.34745        1.5536         2535.22258  0.04535  0.19481     0.07841  11.01892     18.03031   3042.05425    -9.15526  0.96597   6604.29472   0.0006  57902.90474  52.24845  3.08845   14.4603  57955.60473 
    14.35165  1.58395  0.75296       3.94708         2076.26158  0.06617  0.17161     0.07529  21.99554     18.67937   3102.63965    -3.33862  0.99036  10123.21398  0.00266  57908.72138  52.67891  5.16796  14.48335  57955.60473 
    14.29059  1.59659  1.35696       1.25093         2258.57614  0.03392  0.06903     0.02183  28.00648     16.14449   3608.99853   -10.09786  1.19037   6498.10703    1e-05  57901.96214  52.31286  2.76784  14.37584  57955.60473 
    14.30409  1.73376  1.26765       0.49474         3310.72041  0.01728  0.21616     0.08303  10.50841     19.72363   3223.52463   -11.39847   1.0417   6063.06035   0.0294  57900.66153  52.16978  1.16506  14.54587  57955.60473 
    14.19823  1.59598  1.89643       0.99979          2463.2588   0.0065  0.23437     0.04552   8.06145     19.26862   3580.13861   -14.89249  1.00134    5653.1394  0.01031  57897.16751  52.08355  0.41301  14.66748  57952.12046 
    14.29615  1.79449  1.86871       3.68711         2102.41579  0.00268  0.07737     0.04072  29.87583     18.47749   3414.40952     -9.4656  0.98199   6736.02947  0.00167   57902.5944  52.34904  0.22077  14.58013  57952.12046 
    14.35335  1.69665   1.0074       0.66502         3173.32024  0.11557  0.11076     0.01165  21.36231     17.90561   3256.23054    -8.17116  1.23906   7236.14885  0.00045  57903.88884  52.38494  8.97707  14.55975  57955.60473 
    14.34935  1.67354  0.84618       1.47127         2740.37044  0.05015  0.16077     0.20164   16.4443     16.35011   3220.13474    -4.90363  1.10583   7492.44508    1e-05  57907.15637  52.39348  3.70553   14.4512  57955.60473 
    14.42779  1.76976  0.76969        4.3829         2280.75033  0.10107  0.31506     0.18278   8.74413     16.26051   3282.25939    -4.04172  1.06834     7303.293    1e-05  57908.01828  52.31397  6.54519  14.56173  57952.12046 
    14.23016  1.51218  1.99425       4.92753         2072.63823  0.00601  0.20373     0.05136   8.28996     18.27164   3507.14962   -11.88306   0.8413   5653.74315  0.00104  57900.17694   52.0864  0.38427  14.54027  57952.12046 
