 texplosion  fnickel    Pspin  log(Bfield)      Mns  thetaPB   mejecta    kappa  kappagamma      vejecta  temperature    alpha  cutoff_wavelength  log(nhhost)      A_V         MJD0   kenergy  mnickel           TSD   log(L0)  Peak_mag     Peak_MJD  log(E_rad)  log(Peak_lum)  Rise_Time    E_fold  tau_1  delta_m15     r_peak     frac 
  -10.13137  0.01965  1.20311     14.52673  2.11134  0.88685  36.09096  0.09936     0.02271   9025.60123   3064.49357  1.59079         2785.86369     16.29423    1e-05  57901.92863  17.53791  0.70925   25091.87267  48.03326  14.47561  57956.65514    51.03017       44.15388   27.37636  65.70327   53.0    0.09593  -21.06941  0.99704 
   -7.72817  0.00482   1.2207     14.24879  1.69145   1.0993  19.22461  0.26052     0.03487  10944.16095   3035.28277  3.46255          2273.9559     18.58772  0.00215  57904.33183  13.73566  0.09273    74425.5628  47.45216  14.20677  57962.29862    51.07215       44.18118   35.58927  65.70327   52.5    0.10038  -21.34942  0.99932 
   -8.93613  0.01523  1.36476     14.26289  1.81015  1.42082  13.24342  0.27408     0.04673       9078.7   3009.09241  2.87237         2485.39051     19.13064  0.00751  57903.12387   6.51141  0.20168   93298.13169  47.28657   14.4487  57959.47688    51.06746        44.2044   24.63873  65.70327   54.0    0.10653  -21.24225  0.99831 
  -10.52033  0.00366  1.21011     14.08919  1.46971  1.33647  14.78193  0.27912     0.02993   9270.67776   3075.87715   1.4172         2735.68337     18.41495  0.00144  57901.53967   7.57847  0.05406  132530.39379  47.14811  14.45055  57956.65514    51.04954       44.17823   35.58927  62.96564   53.5    0.10319  -21.22368  0.99949 
  -10.94603  0.00414  1.27252     14.42501  1.55145  0.51893   26.6003  0.14878     0.01646   9043.94732   3019.01354  1.46246         2794.84339     16.68766    3e-05  57901.11397  12.97866  0.11018   32951.42816  47.73238   14.4018  57959.47688    51.04334       44.17097   27.37636  65.70327   52.0    0.09787  -21.16792  0.99895 
   -6.69981  0.03666  0.94201     14.47628  1.60096  0.61267  33.17892  0.10753     0.01235   9338.45594   3105.90528  2.13995         2708.54706     19.06481  0.00645  57905.36019  17.25995  1.21648   14714.39209  48.35737  14.40956  57962.29862    51.06204       44.20126   35.58927    60.228   53.5      0.116  -21.30786  0.99545 
   -8.93212  0.00117  0.99883     14.61633  1.73049  0.44627    20.353  0.17813     0.02417   8227.22248   3103.58247  2.21563         2751.36091     16.10755    1e-05  57903.12788   8.21792  0.02378    9382.05905  48.53573  14.56962  57962.29862    51.01722       44.13256   32.85164  65.70327   55.0    0.08925   -21.1988   0.9999 
   -7.54643  0.00117   0.7482     14.32837  1.74149   0.8442   31.1278  0.22152     0.01007  10970.12222   3109.06981  1.39068         2892.08147     18.59404  0.00218  57904.51357  22.34594  0.03648   19953.77355  48.46171  14.43737  57959.47688    51.07249       44.20677   27.37636  68.44091   48.5    0.08145    -21.409  0.99993 
  -10.70199  0.00748  1.18816     14.21837  1.65554  1.04367  22.42958   0.1775        0.02   8824.54215    3018.6158  2.88516         2358.74693     20.11671  0.07268  57901.35801  10.41916  0.16787   79389.12704  47.43827  14.27763  57962.29862    51.19048       44.32609   27.37636  65.70327   54.5    0.09164   -21.2021  0.99877 
  -10.33845  0.09727    1.246     14.46391   1.8126  0.66763  20.45177  0.19969      0.0116   9299.83047   3016.41094  1.57549         2734.78028      19.2776  0.01053  57901.72155  10.55135  1.98944   30855.44256  47.84678  14.32525  57965.12035    51.05684       44.15458   32.85164  71.17854   51.5    0.09929  -21.22797  0.98673 
    -6.2686   0.0366  0.83326     14.41538  1.81697  1.00345  19.89236  0.18434      0.0269   9159.35264   3004.13067  2.23839         2774.34186     18.76223  0.00321   57905.7914   9.95504  0.72799   17296.70745  48.44866  14.53938  57959.47688    51.02665       44.15285     30.114  62.96564   53.0    0.10151  -21.28299  0.99871 
  -10.75963  0.00155  1.34582     14.21938  1.76446  1.55921  16.67273  0.22671     0.02424   8840.31333   3191.55744  1.37052         2868.13441     16.25966    1e-05  57901.30037   7.77265  0.02578  108054.27222  47.22384  14.42842  57962.29862    51.05421       44.16439   35.58927  68.44091   52.5    0.10573  -21.14042  0.99978 
   -10.2834   0.0059  1.03837     14.05908   1.3162  1.18313  15.45076  0.22244      0.0237   8059.51277    3028.3664  1.28813         3141.53381     17.45845  0.00016   57901.7766    5.9868  0.09114  100387.19542  47.35378  14.53207  57959.47688     51.0231       44.14009     30.114  65.70327   54.0     0.0954  -21.16857  0.99928 
  -10.99547  0.01746  1.22043     14.32707  1.45022  0.66321  19.55013  0.15779     0.03794   8220.20303   3041.64157  1.59067         2940.32804     19.63696  0.02408  57901.06453   7.88029  0.34144   44477.42793  47.60912   14.3913  57965.12035    51.06867       44.18094   38.32691  65.70327   54.5    0.10301  -21.07335  0.99677 
   -8.38538   0.0012  0.77368     14.50475  1.68622  0.54439  41.21173  0.13439      0.0172   11156.9972   3139.65312  1.31776         2702.58946     19.93365  0.04768  57903.67462  30.60149  0.04949    9169.75759  48.75628  14.41357  57959.47688    51.23434       44.39455   27.37636    60.228   52.0    0.10242  -21.42714   0.9999 
   -8.81859  0.00772  1.06426     14.29665  1.84799  1.35428  16.92786  0.28125     0.04217   9985.81042   3042.83394  2.16943         2434.47768     16.39749    1e-05  57903.24141  10.06922  0.13061   49579.30824  47.78615  14.45316  57959.47688    51.07595       44.21503   24.63873  65.70327   53.5    0.08429   -21.2825  0.99945 
   -8.24142  0.00133  1.22756     14.36975   1.6993  0.73924   23.8337  0.17382      0.0276   9797.63759   3079.10928  1.66733         2693.95572     17.14544    8e-05  57903.81858  13.64776  0.03178   43319.03788  47.68435  14.41034  57962.29862    51.03937       44.16945   27.37636  68.44091   52.5    0.09541  -21.33932  0.99976 
   -9.55277  0.00389  1.32915     14.34318  1.89071  0.93606  28.40578  0.15266     0.01284   9221.59123   3044.82101  2.37072         2530.82812     16.05934    1e-05  57902.50723  14.40939  0.11041   63860.72274  47.49309  14.58381  57959.47688    51.00916       44.15552   27.37636  62.96564   53.0    0.09468  -21.28581  0.99917 
   -7.97852  0.06198  0.82425     14.40985  1.68682   0.6532  18.19858   0.3279     0.01486  10484.24672   3084.36533  1.43613          2936.2107     18.42012  0.00146  57904.08148  11.93271  1.12795   16117.50872   48.4565  14.32122  57962.29862     51.1535       44.29105   27.37636  65.70327   50.0    0.09121  -21.41082    0.997 
   -9.77631  0.00503  1.17707     14.18912  1.50614  0.88657  24.18307  0.18055     0.01482   9459.62627   3031.15785  1.14647         3056.72869     17.63452  0.00024  57902.28369  12.90882  0.12154   81105.92691  47.39605  14.35542  57959.47688    51.18082       44.33365   24.63873  65.70327   51.0    0.09269  -21.34939  0.99897 
   -8.80915  0.00286  0.88822     14.29951  1.71124  1.10856  35.01993  0.13016     0.02172   9708.66804   3147.14998  1.63999         2833.66234     17.45758  0.00016  57903.25085  19.69073  0.10011   31560.33098  48.10597  14.31024  57962.29862    51.09207       44.20664   32.85164  65.70327   54.5    0.08265  -21.30236  0.99971 
   -7.90927  0.04296  1.05562     14.31527  1.60708  1.06759  16.98485  0.16122     0.04093   7925.22487   3019.00324  1.94401         2925.52629     17.54525  0.00019  57904.15073   6.36373  0.72964   38933.88431  47.83754  14.51868  57959.47688    51.02669       44.14901   27.37636  68.44091   54.0    0.10344  -21.12876  0.99639 
   -9.77608  0.00165  1.33115     14.41613  1.76039  0.65865  17.34601  0.23612     0.02706   9520.45528   3128.93729  1.30398         2874.35819     18.21929  0.00092  57902.28392   9.37869   0.0287   42619.82939  47.63639  14.44784  57962.29862    51.04971       44.16575   38.32691  65.70327   52.5    0.10217  -21.30357  0.99976 
  -16.05316  0.00762  1.85687     14.13511  1.72099  1.16136  12.22144  0.31773     0.02473   8784.80959   3035.37084  0.75546         2784.68852     18.97443  0.00524  57896.00684   5.62619  0.09314  295759.84053  46.49612  14.41473  57959.47688    51.05726       44.17932   32.85164  65.70327   51.0    0.10324  -21.10645   0.9983 
   -9.19726  0.00154  1.15733     14.21107  1.76348  1.31912  17.97872  0.29105     0.02219  10053.64305   3126.56482  2.86733          2360.1764     19.33876  0.01212  57902.86274  10.84009  0.02774   82978.26643  47.46934  14.52296  57959.47688    51.01949       44.15793   27.37636  65.70327   52.0    0.08891  -21.36006  0.99983 
   -8.56089  0.00274  1.36954     14.24534  1.66004  1.00261  15.35933  0.23593     0.04176   9075.17562   3013.66758  1.87803         2829.53376     17.55377   0.0002  57903.49911   7.54587  0.04202   93410.54779  47.24542  14.40483  57962.29862    51.09078       44.21016   27.37636  68.44091   53.5    0.10577  -21.30206  0.99958 
  -14.90376  0.00103  1.66301     14.29717  1.50923  0.61803  13.97489  0.24419      0.0343   8312.80056   3011.11868  2.61677         2320.47694     17.06802    6e-05  57897.15624   5.76063  0.01446     98631.241   47.0118  14.42714  57959.47688    51.08481       44.20042     30.114  68.44091   54.0    0.09907  -20.99752  0.99975 
  -15.01274   0.1817  2.02973     14.36082  1.84589  0.67513  10.30898  0.28423     0.01384   7609.55883   3133.36189  3.28428         2218.29274     20.21669   0.0915  57897.04726   3.56092  1.87319  134045.81306  46.79292  14.49197  57959.47688    51.12089       44.25644   27.37636  65.70327   51.0     0.1082  -21.11842  0.96456 
  -15.99868  0.05935  1.45967     14.18162  1.64015  0.97849  13.88642  0.33405     0.01217   8397.49837   3221.47822  2.70558         2215.16682     17.00915    6e-05  57896.06132   5.84141  0.82419  140590.76526  47.00726  14.46115  57959.47688    51.03485       44.14724     30.114  68.44091   51.0    0.10677  -20.94062  0.99029 
   -8.75871  0.12961  0.75575     14.17939  1.71263  1.24873  16.45589   0.3299     0.01179  10179.99967   3019.14569  2.48165         2312.12854     20.50683  0.17847  57903.30129  10.17288  2.13282   39760.77175   48.1463  14.23056  57962.29862    51.07846       44.19597   35.58927  62.96564   50.0    0.09051   -21.5948  0.99531 
  -10.00506  0.00529  0.92648     14.26226  1.78699  1.06116  19.08859  0.28082      0.0107   9071.23731    3377.1624  2.49904         2505.55423     19.66873  0.02591  57902.05494   9.36988  0.10089   42568.24335  47.95821  14.42434  57959.47688    51.18559        44.3387   27.37636  62.96564   51.5    0.08297  -21.23314  0.99965 
   -8.73322  0.00102  1.27463     14.24905  1.80182  0.87394  18.53069  0.31826     0.01083   10111.0595   3040.43887  2.20747         2506.05643     19.39112  0.01367  57903.32678  11.30087  0.01898   86337.46482  47.37759  14.36027  57962.29862    51.05077        44.1561   35.58927  65.70327   49.5    0.10912  -21.45818  0.99985 
   -7.00444  0.00586  1.02286     14.23326  1.63258  1.25291  26.07437  0.13743      0.0194   8742.82561    3059.4844  1.95951         2915.22124     17.77323  0.00033  57905.05556  11.88898  0.15271   54175.82006  47.72828  14.23121  57965.12035    51.08974       44.19259   32.85164  68.44091   53.0    0.09879  -21.25806  0.99926 
   -6.78111   0.0118  0.87174     14.31782   1.8514  1.17932   29.9455  0.18751     0.02054   11257.1413   3022.87462  1.76689         2643.80175       18.096  0.00069  57905.27889   22.6368  0.35348   30230.29927  48.17513  14.17278  57962.29862     51.0881        44.1971     30.114  68.44091   53.0    0.07233    -21.442  0.99916 
   -9.79599  0.01363  1.38117     14.17153  1.70248   1.4729   24.5072  0.15575     0.01417    8665.8901   3018.05206  2.01387         2609.29537     18.26006  0.00101  57902.26401  10.97861  0.33394  136876.67275   47.0831   14.4982  57962.29862    51.03652       44.15224     30.114  68.44091   54.5    0.08905  -21.25565  0.99673 
   -8.53017  0.00778  1.31515     14.25476  1.80112   1.3024   25.0918  0.16446     0.01846   9356.66978   3199.49043  3.27511         2414.47271     16.20798    1e-05  57903.52983  13.10393  0.19513   89491.42434  47.33466  14.49013  57959.47688     51.1387       44.27798   32.85164    60.228   54.5    0.10191  -21.26753  0.99847 
  -11.09937  0.00171  1.39917     14.22506  1.84509  1.53715  25.40465  0.17044     0.01738   9350.26615    3090.2884  1.28989         2770.74698     17.69855  0.00028  57900.96063  13.24916  0.04334   118972.3662  47.16768   14.4917  57959.47688    51.02056       44.15897   27.37636  65.70327   53.5    0.10318  -21.17926  0.99962 
   -12.1181  0.00322  1.23964     14.41604  1.75896  0.63555   13.0828  0.29345     0.02314   8358.39872   3200.52953  1.91623         2446.48379     20.12077  0.07337   57899.9419   5.45223  0.04217   36947.87295  47.75992  14.50126  57959.47688    51.03254       44.16779     30.114  65.70327   52.0    0.08974  -21.07724  0.99969 
   -7.63459  0.11404  0.70491     14.11771  1.43189  1.23078  17.96014  0.26764     0.01465  10305.41211   3033.69041  3.08259         2287.75507     20.39544  0.13809  57904.42541  11.37804  2.04825   38422.00903  48.14391  14.32506  57962.29862    51.05656       44.16073     30.114  71.17854   51.0    0.10277  -21.55283  0.99514 
   -9.12238  0.01097  1.07508     14.21266  1.57599  1.27408  33.46154   0.1129     0.01679   9114.49615   3090.95608  2.17195         2651.24612      18.4089  0.00142  57902.93762  16.58206  0.36703   63522.46366  47.60059  14.48182  57959.47688    51.06433       44.19726     30.114  62.96564   54.0    0.09347  -21.24845  0.99784 
   -5.83113  0.00103  0.71098     14.30135  1.67021  1.15741  17.00848  0.21967     0.31574   8723.36448   3143.42613  2.20687         2895.86036     19.72772  0.02968  57906.22887   7.72077  0.01759    19570.7904  48.49629  14.22132  57962.29862    51.08029       44.18772   38.32691  65.70327   56.0    0.10722  -21.29214  0.99998 
   -8.51284  0.00275  0.97337     14.21852  1.70994  1.46356  29.26706  0.18394     0.01847  10479.42972    3175.5072  2.96676          2310.9702     17.31135  0.00011  57903.54716  19.17262  0.08042   54995.20684  47.78494  14.40619  57962.29862    51.05196       44.17692   38.32691  62.96564   52.0    0.09631  -21.31413  0.99968 
   -8.93639  0.01191  1.06913     14.42616  1.81018  0.72462  26.14163  0.16975     0.01044   9019.01995   3144.95885   1.9717         2777.24662      18.5037  0.00177  57903.12361  12.68465  0.31125   26994.90189  48.03722  14.41064  57959.47688    51.03185       44.16633   24.63873  65.70327   50.5     0.0783   -21.2923  0.99855 
  -12.87686  0.00647  2.02876     14.29808  1.97664  1.16359  13.69045   0.2128     0.03096   8001.10494   3115.02453  1.52261         2784.80172      16.9924    5e-05  57899.18314   5.22811  0.08863  191444.75642  46.66827  14.53467  57959.47688    51.05595       44.19979   24.63873  65.70327   54.0    0.10345  -21.04284  0.99845 
   -8.98927  0.00276  1.73796      14.3934  2.15055  0.94105  15.11232  0.29634     0.03582  10697.57341   3005.57656  1.56236         2690.81063     17.87583  0.00042  57903.07073  10.31641  0.04168   98549.86049  47.12766  14.43635  57959.47688    51.03068       44.16382     30.114  62.96564   51.0    0.10508  -21.43986  0.99954 
   -7.80356  0.05178  0.87502     14.22098  1.58707  1.18072   18.8033  0.20297     0.01091   8196.27736   3171.37834  1.52704         3172.74227     17.53307  0.00019  57904.25644    7.5352  0.97366   40784.58634  47.97491  14.40968  57962.29862    51.05398       44.16931   32.85164  65.70327   52.5    0.10719  -21.29565  0.99672 
   -9.58242  0.01118  1.12572     14.44899   2.0183  0.98613  13.52719  0.27517     0.06183   8858.46163   3140.94213  1.94517         2738.95335     19.25193  0.00992  57902.47758   6.33215  0.15128   30039.21042  47.99328   14.3204  57959.47688    51.04967       44.16655     30.114  68.44091   54.5    0.10231  -21.15682  0.99941 
   -8.07099  0.00118   0.9936     14.15323  1.61349  1.41047  19.09621  0.24665     0.01779   9419.82364   3082.65339  2.21292         2601.63955       19.844  0.03879  57903.98901  10.10787  0.02244   73037.33175  47.61864   14.3701  57962.29862    51.11639       44.24904     30.114  65.70327   53.5    0.08566  -21.34094  0.99989 
   -8.32809  0.00264  1.03988     14.12446  1.56172  1.38591  18.05904  0.30651      0.0277    10758.656   3002.67713  1.91031         2550.08088     17.18779    9e-05  57903.73191  12.46918  0.04768   88400.53095  47.48203  14.39611  57959.47688    51.05944       44.18232     30.114  65.70327   52.0    0.11052  -21.41325  0.99972 
  -10.75086   0.0013  1.43365     14.31233  1.70536   0.9196  14.54306  0.24194     0.07441   8949.93325   3006.78412  1.69113         2654.08762     16.09103    1e-05  57901.30914     6.949  0.01897     77241.053  47.29993  14.43293  57959.47688    51.03992       44.16807   27.37636  65.70327   52.0    0.10114  -21.10126   0.9998 
   -9.18837   0.0019  1.38583      14.2353   1.7374  1.19955  17.69684  0.21454     0.03604   9485.20119   3029.92658  1.62989          2727.4245      19.1227  0.00737  57902.87163   9.49765  0.03356  104839.97769   47.2048  14.38807  57962.29862    51.05375       44.15964   32.85164  68.44091   53.5    0.10633  -21.31826  0.99968 
   -7.32976  0.02889  1.03069     14.35766  1.65179    0.857  29.81278  0.13025     0.01579   9780.70926   3053.82269  2.82327         2464.64743     18.06854  0.00065  57904.73024  17.01259  0.86139   31384.14448  47.96383   14.4636  57959.47688    51.03616       44.15828   27.37636  68.44091   52.0    0.10079  -21.29866  0.99596 
  -12.20693  0.00269  1.84986     14.17455  1.76085  1.27674   14.5548  0.20959     0.02091   7871.52037   3026.71422  1.71198          2669.1164     18.66188  0.00255  57899.85307   5.37961  0.03908  250448.78133  46.58157  14.37489  57962.29862     51.1462       44.28415   32.85164  62.96564   53.5    0.10036  -21.11992  0.99932 
    -8.9576  0.04593  1.44061     14.29662  1.97351  1.41846  20.11351  0.22354     0.01935  10146.20263   3019.56735  1.96805         2437.21386     16.67195    3e-05   57903.1024  12.35157  0.92383   97030.72854  47.26008  14.40147  57959.47688    51.05559       44.18589   32.85164  62.96564   50.0    0.08726  -21.33836  0.99238 
   -6.16501  0.03048  0.84973     14.51847  1.73224  0.65126  13.42347    0.272     0.04903    8912.7183   3015.71121   2.0824          2809.6759     18.17208  0.00083  57905.89499   6.36081  0.40919   10667.20093  48.62084  14.49047  57956.65514     51.1311       44.28742   27.37636    60.228   52.5    0.10254  -21.29483   0.9991 
  -11.08427   0.0026  1.15083     14.18092  1.61282  1.53096  15.87411  0.20499     0.04936   8011.27739   3046.34537   1.6661         2677.70084     19.90794  0.04494  57900.97573   6.07743  0.04134   86215.48398  47.41882  14.40123  57962.29862    51.05174       44.18456   32.85164  62.96564   55.0    0.10393  -21.02855  0.99972 
   -8.35431  0.02676  1.06923     14.26349  1.83832  1.42482  30.96859  0.16358     0.01558  10545.66867   3037.15887  1.29041         2789.01438     17.91648  0.00046  57903.70569  20.54456  0.82859   57996.18484  47.71172  14.33746  57962.29862    51.05423       44.17027   27.37636  71.17854   52.5    0.08701  -21.40048  0.99628 
   -7.94124   0.0037  1.38856     14.43428  1.75897  0.64635  17.13326  0.22079     0.03722   9652.39551   3055.07295  2.09213         2664.79781     17.92317  0.00047  57904.11876    9.5222  0.06337    42624.1724  47.59932  14.43474  57959.47688    51.04161       44.16552   27.37636  65.70327   53.5    0.11215  -21.33738  0.99941 
