 texplosion  fnickel    Pspin  log(Bfield)      Mns  thetaPB   mejecta    kappa  kappagamma      vejecta  temperature    alpha  cutoff_wavelength  log(nhhost)      A_V         MJD0   kenergy   mnickel            TSD   log(L0)  Peak_mag     Peak_MJD  log(E_rad)  log(Peak_lum)  Rise_Time    E_fold  tau_1  delta_m15     r_peak     frac 
   -3.04983  0.45764   0.7832     14.87904  1.75885  1.20579  26.64976  0.01791     0.46052  13399.20963   9256.68053  4.15179         3125.38166     18.93307  0.00476  59142.38902  28.54164  12.19599     1748.63511  49.48363  18.90293  59169.26109    51.32046       44.50025   14.49974   40.6672   81.5    0.32794  -21.83432  0.99801 
   -6.90156  0.48867  1.19773     14.67448  1.92508  1.00108  22.64931   0.0124     0.37697   8602.17981    6657.0574  1.18777         4306.36228     17.49108  0.00017  59138.53729   9.99768  11.06811     11481.9534  48.33656   18.8983  59164.36743    51.37922       44.67765   12.68727  30.81194   98.0    0.35786  -21.80302  0.97275 
   -9.11931  0.49497  1.01177     14.77134  1.62613  0.96716  23.18232  0.01625     0.21266   8441.71902   8578.41043  2.60612         3705.99253     18.12512  0.00074  59136.31954   9.85475  11.47452     4430.55061  48.82338   18.7373  59164.36743    51.20945       44.36894   16.28207  44.20032  103.0    0.24049   -21.6185  0.98924 
   -4.64607  0.49796  0.86874     14.79545  2.19105  0.76227  19.87149  0.01076     0.48223   6890.57637    6210.5683  1.42502         3927.08138     17.84339  0.00039  59140.79278   5.62819   9.89515     3938.62088  49.13637  18.93053  59171.70792    51.27207       44.45005    16.3122  41.68674   99.5    0.40164  -21.70702  0.99368 
  -12.20522  0.49896  3.79806      14.3451  1.95877  1.14203   11.0293  0.03372     0.35833   5160.18833   5142.38047  3.78302         3799.95604     19.33657  0.01206  59133.23363   1.75189   5.50316   535459.33338  45.67298  18.98005  59166.81426    51.56776       44.91168   11.79858  29.59105   61.0    0.23729  -21.74065  0.74143 
   -3.87386  0.48746  1.07646     14.81298  1.64295  0.82189  21.71943  0.01739     0.04365  10328.79689   6422.82965  2.28661         3658.13083     17.99948  0.00055  59141.56499  13.82213  10.58733      4182.7825  48.79901  18.74069  59163.42093    51.34481       44.66658   14.49974  26.87961   85.0    0.34631  -21.87267  0.98687 
   -6.80476  0.49889  2.31057     14.64575  1.70406  0.93488  18.46677   0.0103     0.20014   5805.55322   5986.30691  2.78976         3818.18692     19.20751  0.00896  59138.63409   3.71283   9.21296    43175.86482  47.13765  18.85016  59166.81426    51.29285        44.4816   18.12467  39.87428   81.5    0.39284  -21.79595  0.81789 
    -6.8856  0.49149  1.20574     14.44826  1.42771  1.05841  21.77682  0.01028     0.32103   8025.53018   4607.97243  1.42368         5026.52069     18.44117  0.00153  59138.55325   8.36699  10.70313    24458.69412  47.87255  18.80173  59166.81426    51.35522       44.66268   14.49974  28.99947   79.0    0.43735  -22.06805  0.94027 
   -4.96994  0.41764  2.17082     14.83175  1.79224  0.47813  16.03813  0.01662      0.1951   4037.96441    8656.3045  4.34572         3515.62317     18.90126  0.00443  59140.46891   1.55993   6.69824    17019.72714  47.61804  18.92943  59171.70792    51.29367       44.43317   25.37454  48.93661   59.0    0.25845   -21.6346  0.87754 
  -10.60514  0.46859  4.13501     14.74811   1.9069  0.31835  14.69532  0.01258     0.26501   4199.00119   7261.02176   2.3284         4430.87306     18.64126  0.00243  59134.83371    1.5456   6.88615    96576.55313  46.33135   18.9832   59161.9206    51.77879       45.34032   11.35337   17.6461   74.0    0.28418  -21.79758  0.64909 
   -7.83219  0.45658  0.72958      14.8584  2.06974  0.81574  32.40271  0.01548     0.38238  14877.94887   8883.39253  0.53561         4885.14966     18.07456  0.00066  59137.60666  42.78531  14.79432     1963.66575  49.56555  18.94389  59166.81426    51.27748       44.43746   17.75795  43.86593   70.0    0.38604  -22.17214  0.99673 
   -6.20358  0.46324  2.70502     14.50968  1.99463  1.46749  14.45278  0.01329     0.03613   3496.67374   9014.85788  2.94616          4196.2516     17.63024  0.00024  59139.23527   1.05412   6.69504   129613.66656  46.59171  18.90571  59166.81426    51.44396       44.88061   12.68727  24.24545   53.5    0.30056  -21.76381   0.8338 
   -2.37198  0.47783  1.27053      14.4877  1.60185  1.45783  14.59086  0.01676     0.45464   4827.84128   8142.40305  3.04293         4040.89213     18.64919  0.00248  59143.06687   2.02868   6.97199    25409.56056   47.8605  19.09291  59171.70792    51.46325       44.77428    16.3122  30.16096   41.0     0.3329  -21.94105  0.96652 
   -24.0661  0.25441  0.83918     14.46672   1.9061  0.83781  43.88999  0.02899     0.41463   5979.12755   8745.73879  0.94423         5382.30248     16.63845    2e-05  59121.37275   9.35984  11.16593    14528.79572  48.53905  18.95695  59171.70792    51.50302       44.83359   14.49974  30.83412   96.0    0.07619  -21.41735  0.98033 
   -7.24325  0.47457  1.51502     14.89982  1.62478  0.84549  22.41563   0.0112     0.09342   6135.48846   6665.71984  3.20742         4105.22228     17.84241  0.00039   59138.1956   5.03357  10.63781     5492.92519    48.379   19.1511  59169.37454    51.23158       44.25261   25.37454  83.37348  105.5    0.28762  -21.69275  0.96784 
   -8.66535  0.46903  1.22695     14.73973  1.99489  1.55959  23.96721  0.02508     0.44585   9641.46115   9068.34943  3.20777         3516.47222     16.82892    4e-05   59136.7735  13.29017  11.24129     9245.40617  48.42519  18.90613  59169.37454    51.42542       44.91198   12.99058  21.44629   85.5    0.22304  -21.74718  0.98268 
  -10.46035  0.49947  0.81535     15.12672  1.78629  0.25624  23.02638  0.01002     0.24674   8903.92369   9518.04885  0.78496         5745.42386     16.79248    3e-05   59134.9785  10.88969  11.50098      615.19018   49.9091   18.9825  59166.81426    51.54176       45.00079    10.8748  23.11673   98.0    0.28668   -21.6677  0.99086 
  -13.39607  0.49941  0.93231     14.83228  1.94877  0.26727  22.57109  0.01227     0.03245   6942.92548   3601.18694  0.84068         5756.94371     20.44661  0.15536  59132.04278    6.4903  11.27234     3405.12137  49.08735  18.88239  59166.81426    51.43141       44.80937    10.8748  26.05792   98.0    0.26269  -21.95395  0.96763 
   -6.76098  0.48348  2.39355     14.65459  2.07552  1.05856  15.58172   0.0201     0.47271   5509.26839   4893.69318  2.71134         3854.95371     16.17509    1e-05  59138.67787   2.82118    7.5335    54182.41476  47.09403  18.82362  59166.81426    51.23469       44.43826   18.12467  38.06181   74.5    0.28296  -21.67623  0.86838 
   -7.36581  0.49946  3.43029     14.33428  2.04188   0.5816   3.99111  0.04516     0.43767    7686.8815   7022.63891  4.49334         2168.25473     18.48343  0.00169  59138.07304   1.40676    1.9934   478576.08062  45.82826  18.91944  59166.81426    51.57816       45.01669    10.8748   21.7496   74.0    0.34824  -21.69257  0.91092 
  -12.45804  0.49972  2.06978       14.225  1.89491  1.27424   16.6061  0.01218     0.24286   4688.17309   5327.75706  1.41628         5462.34541     19.08609  0.00677  59132.98081   2.17722   8.29847   267459.22469  46.48733  18.91672  59163.42093    51.32259       44.69816    10.8748  27.18701   78.0    0.28346  -22.02217   0.8604 
  -17.38382  0.46033  1.97166     14.12117  1.22238  1.41266  18.43674  0.01154     0.32778   2751.81216   7030.71342  2.82213         4487.64545     19.02971  0.00595  59128.05503   0.83282   8.48691   252547.25332  46.36404  18.89488  59166.81426    51.25207       44.43462    16.3122  41.68674  106.5    0.16551  -21.45148  0.77667 
   -7.10446  0.49996  2.05876     14.67395  2.09762  1.06224  18.26347  0.01486     0.09562   3812.49437   9570.91094  2.80073         4399.99623     17.10466    7e-05  59138.33439   1.58354   9.13105     37056.0841   47.3945  18.92048  59166.81426    51.39337       44.68967   11.84909  28.04518   79.0    0.23793  -21.78205  0.89307 
  -10.64597  0.43587   4.1894     14.47179  1.71839  0.88988  17.79664  0.01031      0.4304   3402.70121   7023.79384  3.54847         4329.77769     17.07566    7e-05  59134.79288   1.22917    7.7571   318902.09832    45.756  18.92611  59166.81426    51.28803       44.45753    16.3122  43.49921   71.0    0.27278  -21.79287  0.57943 
   -6.79074  0.49937  1.82749     14.85069   1.5828   0.6707  20.32319  0.01274      0.4232   6189.47883   7070.88983  3.51757          3970.5323     16.85708    4e-05  59138.64811   4.64437  10.14884     9762.80223  47.95498  18.94059  59166.81426    51.22392       44.32916   19.93714  59.89555   81.5    0.35255  -21.92102  0.90544 
   -4.48937  0.48043  0.72071     14.72204  1.33802  0.80583  24.25237    0.018     0.48529  11976.70109   9263.05953  2.31028         3839.75412     20.08212  0.06712  59140.94948   20.7518  11.65157     2321.26476  49.31406  18.82477  59166.81426    51.28002       44.41379   17.42356   50.2574   74.5    0.36768  -21.93254  0.99532 
   -5.74297   0.4136  1.96929     14.86767  1.58328  0.41403   22.1526  0.01277     0.38348    5118.1405   4596.41023  3.55503          3616.7846     18.90271  0.00444  59139.69588    3.4616   9.16235    10486.87851  47.85914  18.78707  59166.81426    51.26261       44.49357    21.7496  36.24934   92.0    0.27094  -21.67362  0.85023 
   -5.25794  0.41625  1.18972     14.87541  1.36717  0.76299  26.11995  0.01216     0.43211   6834.24661   7711.96514  4.40515         3783.73186     17.75769  0.00032  59140.18091   7.27748  10.87233     3189.35309  48.75008  18.75658  59166.81426    51.35234       44.66968   14.49974  28.99947  103.0    0.24255  -21.68095  0.98294 
   -6.18281  0.48738  3.21408      14.8059  1.96046  0.64125  16.87978  0.01639     0.15402   4839.51528   9746.04886  3.32746         4233.08188     19.02223  0.00585  59139.25604   2.35829   8.22689    45971.99258   46.8846  18.72477  59164.36743    51.21918        44.4342    16.3122  36.24934   68.0     0.2813  -21.81371  0.73857 
   -9.15268  0.49619  1.65437     14.68476  2.09446  0.29752   9.92153  0.02849     0.06074  10530.81329   9825.39044  0.05912         3814.67406     17.01571    6e-05  59136.28617   6.56341   4.92298    22731.46099  47.79602   18.8155  59164.36743    51.43177       44.81918   12.68727  23.56207   53.0    0.30292   -21.8006   0.9498 
   -8.11104  0.49861  1.48596     14.93628  1.71605  0.73643  21.54294   0.0112     0.41547   6449.45792   6163.87239  2.79116         4016.44768     17.83201  0.00038  59137.32781   5.34538  10.74157     4718.51843  48.48556  18.84731  59169.26109    51.23298       44.46007    21.7496  38.06181  105.0    0.30209  -21.68575  0.96866 
   -7.28518  0.46065  1.29938     14.84146  1.79102   0.6674  26.59029  0.01342      0.4608   8671.03242   7311.96016  1.87112          3947.5763     17.43568  0.00015  59138.15367  11.92592  12.24892      5827.3106  48.52901  18.64865  59166.81426    51.39548        44.6991   12.68727  28.01356   87.0    0.32855  -21.99078  0.96388 
   -6.81337  0.49497  1.08984     14.77246  2.13733   1.5047  22.77799  0.01776       0.043  11202.67794   9527.69267  1.44795         3754.19644     18.70334  0.00281  59138.62548  17.05243  11.27446      6722.0851  48.69648    18.793  59163.42093    51.26575       44.49412   14.80305  36.92727   57.0    0.44114  -22.02362  0.99042 
   -6.12215   0.3586  0.93283     14.73047  1.79574  1.55526  25.96438  0.02115     0.49142   7317.60413   9396.36781  3.45177         4105.53775     18.65156  0.00249   59139.3167    8.2936   9.31091     5020.32341  48.88275  18.83455  59164.36743    51.30751       44.52628   15.94548   34.8036   82.0    0.21326  -21.69156  0.99478 
  -13.76697  0.49744  2.54452     14.35565  1.88866  0.81009  14.03306  0.01724     0.47169   5053.12141   6609.91882  1.23513         5142.41065       17.902  0.00044  59131.67188   2.13746   6.98056   220743.26148   46.3899  18.93198  59164.36743    51.46821       44.87011   14.49974  26.05792   87.5    0.24689  -21.69437  0.82737 
  -10.19846  0.36566  0.85106     14.51383  1.38506  0.78687  24.86282  0.02219     0.34401   5768.03113   3496.97794  2.49415         4435.80328     16.88477    4e-05  59135.24039   4.93438   9.09126     8740.80265  48.60884  18.88451  59164.36743    51.35117       44.56911   12.99058  35.45428   95.0    0.15303  -21.59084  0.98265 
   -9.07755  0.49739  2.29928     14.93534  1.82121  0.64297  20.86808  0.01055     0.29616   5792.40993   5284.30903  3.13094          4190.7774     17.91491  0.00046   59136.3613   4.17665  10.37957    12041.35395  47.72535  18.92944  59163.42093    51.28508       44.54513   12.68727  29.82602   94.5    0.31823  -21.80679  0.85389 
   -5.53446  0.43383  1.07991     14.90944  1.69243   1.5354  26.41523  0.01335     0.34698    8833.2254   5760.93655   4.3812          3535.6035     18.11514  0.00072  59139.90439  12.29477  11.45961     2781.18285  48.98635  18.81427   59161.9206    51.39761       44.62528   19.93714  38.06181  102.5    0.27303  -21.71739  0.99488 
  -11.28778  0.41644  1.27028      14.6532  2.07286   1.0582  23.57262  0.02032     0.49843   5952.30549   8431.72731  2.10419         4304.42881     18.26506  0.00102  59134.15107   4.98202   9.81652    15338.91349  48.19182  18.90844  59166.81426    51.21938        44.3514   19.23602  51.45019   99.5    0.17148  -21.54732  0.97036 
   -7.41425  0.44062   2.5309     14.31978  1.70799  0.80844  14.31089  0.01546     0.33706   4060.14716   5322.04485    1.774         4719.99404     18.01052  0.00057   59138.0246   1.40727   6.30563   232970.10681  46.32748  18.82938  59166.81426    51.44319       44.85312   12.68727  23.56207   66.0    0.26596  -21.81646   0.8218 
    -6.8647  0.48861  2.69304     14.75386   1.9051   0.7571   19.5567  0.01061     0.04077   5046.18595   9294.20918  2.66411         4051.42948     18.54123  0.00193  59138.57415   2.97063   9.55558    39856.49287  47.08778  18.97886   59161.9206     51.3074        44.5408   14.49974  30.81194   81.0    0.32215  -21.75826  0.77878 
   -4.51546  0.43578  2.59346     14.74142  1.96572  0.95018   21.6512  0.01104     0.10573   3967.27901   4530.26273  3.64437         4274.73671     18.27487  0.00105  59140.92339    2.0328   9.43508     40387.6903  47.12836  18.90285  59164.36743    51.53478       44.92898    9.06234   23.4913   80.5    0.23313   -21.8592  0.81254 
   -3.50168  0.46996  1.58011     14.28378  1.76313  1.32852  15.26987  0.01684      0.2898   4824.44382   7514.24732  2.86268         2983.93379     20.39441  0.13776  59141.93717    2.1201   7.17621   110640.76499  47.07384  18.94399  59171.70792    51.47545       44.83476   14.49974  30.81194   58.5    0.30498  -21.77274  0.92065 
   -4.41636  0.41756  1.32922      14.6834  1.82811  1.10968  23.72065  0.01216     0.38611   4667.22325   9370.00708  3.41974         3444.35156     16.01184    1e-05  59141.02249   3.08227   9.90477    12888.55515  48.17345  18.98961  59169.37454    51.35911       44.70226   17.75795  27.55373   92.0    0.23347   -21.5656  0.96856 
   -15.5123  0.48278  1.44523     14.19458  1.62157  1.29193  17.36798  0.01232     0.45077   3806.40648   6926.55682  1.59155         4091.49716     16.74497    3e-05  59129.92655   1.50109   8.38483   128371.98378  47.05043   18.9317  59171.70792    51.26677       44.44056    21.7496  45.31168  117.5    0.20673  -21.37156  0.91173 
   -3.89679  0.41218  1.68502     14.56295  1.76108  1.41896  21.60836  0.01511     0.06838   6705.54624   3918.42714  3.00175         3831.24259     18.08043  0.00067  59141.54206   5.79585   8.90656    34745.78203  47.52051  18.80193  59161.42552    51.35458       44.56602   14.49974  34.43687   70.5    0.33067  -21.89507  0.92174 
   -9.82308  0.47678   1.8335      14.3175  1.40209  0.56322  16.87431  0.01064     0.38109   4002.57348   5226.94886  1.39959         4986.38077     17.00414    6e-05  59135.61577   1.61262   8.04536   101425.94022  46.88291  18.81049  59164.36743    51.35711       44.58259   14.49974  34.43687   90.0    0.26453  -21.74701  0.83742 
   -7.97256  0.48475  0.92222     14.74757  1.98099  1.28784  22.06776  0.01596     0.41549   11340.8542   9663.11636  1.24392         4254.59102      18.2824  0.00106  59137.46629  16.93078  10.69728     5003.06989  48.93682  18.82563  59169.26109    51.42847       44.77122    16.3122  28.99947   67.5    0.41916  -21.85549  0.99428 
   -8.70291  0.49808  3.07178     14.61123  1.83793  1.46251  19.57368  0.01131     0.48139   3389.79377   9150.07752  3.95247          4126.4515     18.54563  0.00195  59136.73594   1.34167   9.74921    96488.24087  46.57392  19.02899  59166.81426    51.37442       44.68004   12.68727  30.81194   92.5    0.21844  -21.70413  0.71093 
    -15.918  0.49701  2.44664        13.93  1.36456  0.62768   7.32827  0.03218     0.31837   6581.44027   8798.49304  0.99936         4631.92148     19.27683  0.01051  59129.52085   1.89352   3.64222  1047025.56693  45.60674  18.89524  59171.70792    51.22858       44.29842   20.69215  68.78971   81.0    0.19818   -21.8166  0.85638 
  -12.64024  0.48793  0.85068      14.6792  2.00058   1.3276  24.52301  0.02514     0.49986  13624.40239   9997.64151  1.28363         3566.00238     16.60525    2e-05  59132.79861  27.15413  11.96543     5889.73853  48.94037  19.00118  59169.26109    51.32193       44.73378   14.49974  29.82602   72.5    0.25087  -21.71213  0.99382 
   -2.51029  0.38224  1.34127     14.56426  2.03451  0.87781  12.81443  0.02759     0.05674   4968.85795   9254.28061  1.98923         4263.19923     16.79704    3e-05  59142.92856   1.88729   4.89814    25280.26842  47.91949  18.88274  59171.70792    51.37858       44.67473   14.49974  32.62441   43.5    0.30309  -21.84034  0.97375 
  -12.50375  0.45472   1.9958     14.50369  1.28571  0.26334  10.84372  0.01907     0.37631   3838.67885   5929.41845  1.56556          4414.3212     17.93696  0.00048   59132.9351   0.95317    4.9309    46754.17796  47.10794  18.82645  59166.81426    51.34991       44.61682   12.99058   32.3211   77.0      0.244  -21.55873  0.86058 
   -9.56708  0.40647  1.96246     14.48884  1.66621  1.01479  18.70954  0.02107     0.10181   4549.07462    9752.2874  3.23634         4197.50834      18.8582  0.00401  59135.87177    2.3096   7.60488    62729.53744   47.1075  18.77341  59166.81426    51.33011       44.72337   14.80305  28.04518   71.0    0.20117  -21.68342  0.87283 
   -5.89728  0.49437   0.7158     14.79187  2.06705  1.36447  20.71984  0.02152     0.18158   9946.83926   8687.63389  1.90639         3618.19522      16.2209    1e-05  59139.54157   12.2288  10.24331     2564.49967  49.46561  18.91821  59166.81426    51.51617       44.92137    10.8748  23.56207   74.0    0.34801  -21.80076  0.99841 
   -3.47557  0.46014  0.70462     14.99114  2.17317   1.3004  24.07013  0.03308     0.38122  18905.99995   9385.72372  4.48909         3108.00365     19.79346  0.03453  59141.96328  51.32215  11.07565     1043.59827  49.89149  18.84739  59166.81426    51.23793       44.41863   18.12467  41.68674   58.5    0.36153  -21.94683  0.99933 
   -2.11731  0.32165  1.40537     14.62344  1.76332  1.08832  24.67573  0.02164     0.44298   5976.75831   6512.35524  4.53618         3688.93288     17.08146    7e-05  59143.32154    5.2581   7.93703    18316.73282  47.95674  19.01587  59166.81426    51.25083       44.29992   22.58157  76.12362   78.0      0.175  -21.68356  0.96122 
   -5.62644  0.48193  4.55699     14.91723  2.05357  0.51313  15.90684  0.01291     0.16766   4410.55007   8165.66184  4.17389         4007.76686     16.37993    1e-05  59139.81241   1.84585   7.66592    57972.45315  46.50078   19.0472  59171.70792    51.46998       44.78734    16.3122  34.43687   65.5    0.32096  -21.79196  0.60924 
