 texplosion  fnickel    Pspin  log(Bfield)      Mns  thetaPB   mejecta    kappa  kappagamma      vejecta  temperature    alpha  cutoff_wavelength  log(nhhost)      A_V         MJD0   kenergy  mnickel            TSD   log(L0)  Peak_mag     Peak_MJD  log(E_rad)  log(Peak_lum)  Rise_Time    E_fold  tau_1  delta_m15     r_peak     frac 
    -75.046  0.18015   4.3263     13.71982  1.27827  1.55623   2.50453   0.0719     0.47246   2605.27143   9790.48322   2.8501         5202.83189     17.60325  0.00022    56248.554   0.10141  0.45118  8073102.85557  44.19619  22.68267  56314.94975    50.93101       44.00822   34.34945  59.79348   75.0    0.16828  -21.19234  0.93106 
  -80.58164  0.04459  4.02647     14.16192  1.14484  0.38965   5.92374  0.04327     0.04557   2653.70319   8251.06903  2.99634         4700.06603     16.56486    2e-05  56243.01836   0.24884  0.26411   817654.68385  45.20517   22.6713  56314.94975    50.90049       44.09167   33.11065  47.66454   66.0    0.15808  -20.97714   0.9583 
 -119.47371  0.01894  3.62566     13.72053  1.45775  0.96566   7.00227  0.10883     0.01385   5551.17633   9136.99516  1.53002         5369.80501     19.22845   0.0094  56204.12629   1.28717  0.13264  6444872.11988  44.50454  22.51527   56276.6005     51.0635       44.10548   43.25486  72.51009   58.0    0.13216  -21.35411  0.98744 
  -91.91781  0.01869  4.23442     13.93575  1.54205  0.65992   4.92761  0.09415     0.40369   4532.18519   7583.26026  2.16481         5781.34616     16.97325    5e-05  56231.68219   0.60378  0.09212  3451432.25824  44.66536  22.54638  56307.75927    50.94831       44.10249   35.62165  49.61587   78.0    0.13458  -21.44879  0.98905 
  -71.11206  0.01325  5.47667     14.19821  2.08032  1.19557   3.63345  0.25632     0.41874   6658.86955    9879.3839   2.2145         5495.01039     16.65565    3e-05  56252.48794   0.96105  0.04814  2325697.99251  44.74339  22.48804  56300.56878     50.9241        44.0695   39.43825  53.43247   49.0    0.18232  -21.42034  0.99412 
 -123.45123  0.04205  3.07279     14.05623   1.7439   1.2132   8.24634  0.18605      0.4626   5627.58328   9972.48542  1.83251         5655.75745     18.70499  0.00282  56200.14877   1.55787  0.34677  1180155.28785  45.46336  22.42058  56288.58464    50.96145       44.06037   44.52706  62.33788   58.5    0.12077  -21.31423  0.98305 
  -108.6007  0.00322  3.21215     14.18973  1.43929  0.51639   4.66648  0.32228     0.49876   6151.36872   9109.89642  1.62782         5081.29825     19.96313  0.05103   56214.9993   1.05332  0.01501   575568.95818   45.6533   22.6481  56310.15609    50.91098       44.02812   39.43825  52.57613   56.0    0.12013  -21.33236  0.99891 
  -67.49266  0.05195  6.06296     14.32226  1.98015  0.50798   1.77721  0.18092     0.39949   6443.78546    9059.2463  2.30087         4802.90263     19.19674  0.00874  56256.10734    0.4402  0.09233  1532365.79367  44.81481  22.32918  56262.21953    51.10109       44.12574   44.52706  76.10765   60.5    0.21985  -21.22106   0.9848 
 -114.96348  0.03252  3.35409     13.96462  1.56589  1.50231   7.67293  0.16628       0.476   5386.92198   9790.63419  1.80059         5092.14664     16.50603    2e-05  56208.63652   1.32822  0.24949  1925273.70589  45.12797  22.43447  56288.58464     51.0054       44.06232   44.52706  62.96437   55.5    0.12245  -21.23915  0.98286 
 -122.74942  0.01366  2.30659      14.1087  1.76948  1.38561    7.3105  0.30289     0.30731    6514.3798   9710.42882  1.47721         5835.30812      19.0505  0.00624  56200.85058   1.85063  0.09989   529911.89274  46.06655  21.70388  56214.28297    51.30431       44.33467   38.16605  78.03115   59.0    0.08142   -21.1397  0.99729 
 -116.95302  0.00208   4.1079     14.03038  1.99087  1.24679   6.84586  0.13498     0.49799   4569.54617   9671.29248  1.89803         5343.68093     20.17259  0.08267  56206.64698   0.85271  0.01421  2712356.84103   44.9073  22.47174  56288.58464    51.00179        44.0713   44.52706    63.175   61.5    0.11606  -21.41049  0.99895 
 -103.59332  0.00172  1.58103      14.3556  1.58901  0.66626   6.57849  0.30291      0.4709   4833.18193   9879.07755  2.05741         5865.64295     18.64936  0.00248  56220.00668   0.91668  0.01129    71717.15611  47.21647  22.30491  56278.99733    50.99529       44.11875   41.98266  59.02982   59.0    0.10226  -21.55949  0.99984 
  -167.0122  0.00435  1.00135     14.23321  2.01148  1.32755  12.80645  0.23605      0.4685    4045.6611   7435.97137  1.48157         5014.30095     17.88185  0.00042   56156.5878   1.25036  0.05575    63986.00859   47.7651  22.59247  56302.96561    50.95458       44.04161   41.98266  58.99358   99.5    0.04319   -19.5676   0.9998 
 -133.82319  0.37323  3.41134     14.23273    1.693  0.60185   8.36947  0.08505     0.01424   3097.13314   8640.98916  2.60058         5568.91952     19.80128  0.03516  56189.77681    0.4789  3.12373   626424.90006  45.63478  22.46093  56283.79098    51.15382       44.06482   55.97688  92.87073   78.5      0.099  -21.36684  0.83258 
  -97.21046  0.21742  1.31216     14.53153  1.67322  0.66229  10.40559  0.33331     0.05311    8927.3813   7361.55629  0.75661         4744.47648     16.87016    4e-05  56226.38954     4.947  2.26236    23135.86322  47.89214  22.29852  56267.01319    51.09351       44.12422   44.52706  74.62482   60.5    0.10873  -21.13525  0.98269 
 -103.98167  0.06567  2.29358     13.92436  1.05108   0.7706   6.06161  0.30057     0.42612   6421.04561    8373.5735  1.65396         5139.48078     16.44923    2e-05  56219.61833   1.49082  0.39808   727363.21158   45.7077   22.6467  56319.74341    50.86093        44.0234   33.64144  49.05167   56.5     0.1163  -21.34543  0.97702 
 -111.31413  0.00225  4.26737     14.04919   1.9026  1.49178   6.16037  0.19699     0.15523   6816.11431   9841.59085  1.67031         4985.82026     18.75105  0.00313  56212.28587   1.70729  0.01388  2565050.73194  44.87878  22.62835  56298.17195    51.00614       44.05588   47.07146  63.61009   51.0    0.14743  -21.37007  0.99882 
  -89.52062  0.00429  4.12547     14.19355   1.7001  0.80766   6.36739  0.22779     0.48971   8115.30767   9805.94074  1.79491         5044.41804     17.45102  0.00016  56234.07938   2.50149  0.02732  1101889.16168  45.22624  22.63981  56322.14023    50.80029       43.97865   25.47744  48.72611   46.5    0.16261  -21.38705  0.99745 
 -152.12747  0.12002  2.33529     14.02349  1.52976  0.83086   7.05922  0.32041     0.48936   7260.65576   9273.45211  1.39806         5664.29409     18.15113  0.00079  56171.47253   2.21991  0.84725    695252.1939  45.87465  22.56138  56295.77513    50.98995       44.03605   44.52706  63.34097   74.5    0.08446  -20.88861  0.97128 
  -74.21243  0.30205  4.85154     14.01417  1.50322  1.26216    4.1427  0.25793     0.32775   9943.84542   9399.91843  1.78365         4926.56307     17.65281  0.00025  56249.38757   2.44354  1.25131  3077978.81622  44.58584  22.48462   56293.3783    51.04655       44.08544   47.07146  67.42669   46.0    0.19516  -21.33429  0.83566 
 -108.87011  0.00151  2.02516     14.37917  1.94203  0.90365   8.49085  0.27062     0.40721   5081.56692   8003.41701   1.9513         4867.85917     16.33916    1e-05  56214.72989    1.3079  0.01285   129017.07611  46.83353  22.43107  56281.39416    50.99589       44.06728   39.43825  68.69889   63.0    0.08298  -20.96883  0.99977 
 -180.85059  0.03648  0.83241     14.07626  1.59212  0.92368  10.06319  0.31927     0.44061   4970.33505   9136.68606  1.32727          5813.5437      20.3637  0.12836  56142.74941   1.48298  0.36714    72101.95759   47.7722  22.69744  56310.15609    50.82512       43.96535   39.43825  55.70776  101.5    0.04807  -19.88287  0.99859 
 -149.34864  0.00166  3.31447     14.53763  2.05066  0.34183  12.35024  0.11162      0.3778    3343.0183   8430.91535   1.9828         5266.70556     19.43703   0.0152  56174.25136   0.82334  0.02047   175907.22134  46.29463   22.1124  56262.21953     51.1182       44.20827   33.07724  63.61009   81.5    0.08288  -20.73491  0.99907 
  -110.4847  0.00138   2.9391     14.52005  1.97771  0.49765   8.88046  0.25929     0.49989    6638.0798   7784.76713   1.5072         4949.78521     19.51284   0.0181   56213.1153   2.33425  0.01229   144646.05197  46.46827  21.82923  56257.42588    51.20425       44.30979   40.71046  58.52128   59.0    0.10212  -21.19477  0.99954 
  -79.75745  0.13187  5.03631     14.24377  2.05583  1.15205   4.50402  0.26168     0.29574   7735.81024   9839.71033  2.04147          5270.0763     19.12825  0.00746  56243.84255   1.60783  0.59394  1575778.14389  44.98011  22.40244  56274.20367    51.06228       44.07899   50.88807  73.78229   46.0    0.17338  -21.46721  0.94132 
 -138.65304  0.08372  1.65874     14.18961  1.84789  1.56522   13.7096  0.20568     0.05111   6924.56406   8682.67647  1.48807         5133.34621      16.9333    5e-05  56184.94696   3.92136  1.14773   197161.56524  46.80114  22.29722  56281.39416    51.01431       44.12715   24.17183  62.33788   76.5    0.06685  -20.47205  0.98545 
 -104.71072  0.01338  5.03824      14.1049  2.10822  1.21473   3.89044  0.30102      0.4915   8229.95974   9779.64449  1.40296         4950.95274     18.38354  0.00134  56218.88928   1.57189  0.05204  3065386.20111  44.70172  22.63473  56312.55292    50.85286       44.06234   36.89385  47.90858   49.5    0.16153  -21.39082  0.99469 
 -145.20267  0.06057  1.98827       13.778  1.29618  0.92268   6.83989  0.29255     0.49031   5222.15881   7570.62226  1.59836         5602.03308     20.72821  0.29713  56178.39733    1.1127  0.41428  1322584.12556  45.66314  22.44034  56281.39416    51.00949       44.07422   45.79926  63.61009   78.5    0.09261  -21.30523  0.98667 
 -174.37353  0.02646  1.15838      14.0354  1.96035  1.23851  16.45064  0.15727     0.49985   4381.11543   9137.36799  1.40331         5132.67461     20.92544  0.46792  56149.22647   1.88356  0.43534   207511.85566  47.11643  22.35815  56271.80684    51.16102       44.13239   54.70467  78.87651   95.5    0.05233  -20.43762  0.99749 
   -75.1157  0.39721  6.01477     14.21321  1.98146  0.86933   3.44323  0.22564     0.07861   8806.32032   9552.93537  1.56655         5170.16806     19.61191  0.02273   56248.4843   1.59288   1.3677   2493593.7057  44.61057  22.45982  56290.98147    51.12666       44.08206   50.88807  87.78192   48.5    0.20379  -21.34763  0.81918 
 -103.18883  0.08071  3.19313     14.27303  2.07598  1.41642  10.08915  0.23895     0.48049   6693.04471   8088.08361  1.48951         5244.45487     18.52981  0.00188  56220.41117   2.69606   0.8143   558999.57776  45.83022  22.67814  56310.15609    50.92723       44.02699   41.98266  57.08949   60.0    0.10385  -21.30342  0.96768 
  -91.32777  0.01431  3.66503     13.76283  1.36187   1.2821   7.96924  0.09166      0.4994   5301.32316    9751.8213  2.05307         5507.63321     20.08205  0.06711  56232.27223   1.33602  0.11403  5063374.58223  44.57038  22.64651  56310.15609    50.84352       44.04121   40.71046  48.34367   59.0    0.14166  -21.49749  0.98812 
  -98.81033  0.01152  4.05881     14.26254  1.72133   0.7593   6.27541  0.13903     0.49526   3594.58345   9723.97639   2.2511         4584.31045     17.42131  0.00015  56224.78967   0.48369  0.07231   785967.14108  45.39251  22.63045  56310.15609    50.89342       43.97144   44.52706  58.52128   57.5    0.11027  -20.92542  0.99363 
 -166.88066  0.10383  1.02102     14.11025  1.70266  1.33027  15.21705  0.20333      0.4652    6585.5683   9724.56451  1.46841         5358.14726     18.90303  0.00444  56156.71934   3.93681     1.58    99198.25838   47.4854  22.10132  56255.02905    51.14868       44.22282   34.34945   72.5155   94.0    0.05712  -20.06352  0.99186 
 -156.05086  0.02694  1.45526      14.2355  2.05801  1.07345   12.5455  0.27028        0.15   6975.87725   8800.06463  1.43439         5769.20173     18.88917   0.0043  56167.54914   3.64177  0.33794   136816.57247  47.12027  22.49263   56293.3783    50.98878       44.08505   41.98266  57.24908   83.5    0.06028   -20.3152  0.99717 
  -65.84122  0.11854  6.62467     14.27664  2.13546  0.80399   3.80753  0.18327     0.45337   8325.49545   9938.83293   1.9294         4813.51748      16.4202    1e-05  56257.75878   1.57431  0.45133  2434173.31993  44.56966  22.54832   56293.3783    51.01073       44.11369   43.25486  62.33788   50.0    0.20148  -21.17691  0.92646 
  -86.78817  0.03958  4.91884     14.19144  2.00059   1.4432   5.42371  0.24538     0.46897   6474.09101   9643.33301  2.01449         4677.34941     16.70887    3e-05  56236.81183   1.35607  0.21469  1861330.03305  44.91646   22.6675  56314.94975    50.89224       44.01612   45.79926  58.52128   50.5     0.1421  -21.12787   0.9781 
  -75.28205  0.00106  5.10876     14.03816  1.82796  0.93236   3.67852   0.2566     0.37833   9181.89596    8048.8899  1.32736         5284.92612     19.62783  0.02358  56248.31795   1.84997   0.0039  3716101.10944  44.54409  22.60311  56302.96561    50.92433       44.02487   41.98266  58.99358   58.0    0.18324  -21.32591  0.99948 
  -83.84041  0.00454  4.04207     13.87032  1.72626  0.79181    3.2118  0.12935     0.12739   9987.81369   7358.11523  1.38388         5357.19524     20.56315  0.20318  56239.75959   1.91125   0.0146  4758770.75233  44.61525  22.10219  56255.02905    51.14526       44.21904   33.07724  68.19053   66.5    0.20784  -21.74951  0.99865 
  -84.27385  0.29879  4.72282     14.14921  1.77281  0.99372   3.06883  0.29401     0.43657   5814.47626   9142.61966  1.87983         5473.47508     18.20572  0.00089  56239.32615    0.6189  0.91694  1846994.81565  44.90264  22.16067   56259.8227    51.11321       44.18144   36.89385   71.2433   54.5    0.14753  -21.35647  0.90399 
  -85.20387   0.1386  1.98287     14.38396  1.72159  0.94904  10.08371  0.25519     0.48626   8330.69596   8024.46498  1.58775         4840.61052     19.80612  0.03555  56238.39613   4.17456  1.39758   107252.58912  46.87978  22.55547  56305.36244    50.92226       44.03561   39.43825  54.05896   54.5    0.13265  -21.30486  0.97258 
  -76.92937  0.00583  5.44989      14.2706   1.9901  0.67852   3.73944  0.25649     0.49991   9705.32028   9462.27785  1.70786          5065.8923     18.87726  0.00419  56246.67063   2.10113  0.02181  1578549.59608  44.89669  22.39779  56264.61636    51.05794        44.0931   45.79926  76.21717   46.0     0.1966  -21.41717  0.99714 
 -103.04507  0.05637  2.27476     14.09469  1.41379  0.89142   5.98335  0.31778     0.02341   5620.83317   9653.02228  2.05468         5359.47057     19.93566  0.04791  56220.55493   1.12765   0.3373   439232.88224  46.06266  22.23302  56281.39416    51.02076       44.13259   40.71046  59.02982   54.0    0.10568  -21.52035  0.98766 
   -93.1499  0.00904  3.85077     14.00084  1.55761  1.40697   5.87898  0.20236     0.25858   5972.22655   9376.31905  1.94097         4941.54678     16.87429    4e-05   56230.4501   1.25084  0.05317  2136408.84376  44.96052  22.38001  56290.98147    50.92108       44.07325   30.53284  57.24908   51.0    0.13343  -21.24751  0.99508 
  -83.26482  0.36348  4.68715     14.25736  1.84887   1.0443   3.82456  0.29062     0.18505   5961.03621   8854.19565  2.09175         5052.89487     18.35783  0.00127  56240.33518   0.81068  1.39015  1152953.54121  45.13212  22.32996  56262.21953    51.28758       44.31626   40.71046  74.35269   56.0    0.13958   -21.2487  0.87137 
 -135.99854  0.19491  3.34318     13.85509  1.41714  0.68862   4.49158  0.26513     0.02146   6014.15254   9443.37206  1.27955         5072.53926     18.50339  0.00177  56187.60146   0.96912  0.87545  2866617.77378  44.91457  22.40744  56274.20367    51.07051       44.12447   52.16027  69.53601   50.5    0.13723  -21.21322  0.93178 
  -81.54614  0.31785  4.17836     14.13135  1.60167  1.11748   4.97078  0.24415     0.22136   6805.50242   8846.09853  1.83345         5494.64908     18.37212  0.00131  56242.05386   1.37332  1.57997   1418098.1981   45.0797  22.71046  56317.34658    50.81631        43.9942   37.66867   52.9724   54.5    0.15335   -21.3894  0.85801 
 -157.98569  0.01586  2.84228     13.83533  1.55912  1.47856   6.31703  0.30462     0.49912   6438.19241   7925.73413  0.94252         4824.94159     17.58717  0.00021  56165.61431   1.56195  0.10017  2496677.69828  45.15703  22.59865  56302.96561    50.93692       44.02328   41.98266  55.97688   77.5     0.0822  -20.79442  0.99494 
  -63.09763    0.348  5.60897     14.11879  1.78831  1.37238   2.38834  0.31978     0.17637   7696.07326   9728.04587  2.17558         5006.79693     16.99707    6e-05  56260.50237   0.84384  0.83115  3023065.40215  44.54307  22.50151  56300.56878     51.0104       44.09619   43.25486  59.79348   46.5     0.2193  -21.29614  0.88137 
 -100.65223  0.07292  3.25675     14.12525  1.76101    1.139   7.23796  0.16822     0.03407   4657.27847   9869.90379  2.11709         5877.29594      19.8358  0.03807  56222.94777    0.9365  0.52777     974191.828  45.50039  22.51459  56283.79098    50.95861       44.02688   36.89385  67.84255   56.5    0.11122  -21.62137  0.97181 
  -93.33214  0.02444  4.51389     14.07267  1.63425   0.8895    6.8109  0.13023     0.38747   5357.43409   9451.64694  1.97319         4786.83343     17.88301  0.00042  56230.26786   1.16613  0.16643  2212552.39423  44.82817   22.4985  56281.39416    50.93294       44.01509   41.98266  69.11475   57.5    0.13137  -21.12184  0.98035 
 -101.13499  0.08466  4.88108     14.44743  2.19696  0.61542    4.6409  0.28534     0.19919   6971.21942   9494.89038  1.74071         4914.70753     19.04549  0.00617  56222.46501   1.34539  0.39292   619175.78991  45.44182  22.49856  56290.98147    50.97165       44.06022   40.71046  58.52128   51.0    0.14623  -21.33824  0.96611 
 -110.38756  0.27425  3.80497     14.16727   1.9452  1.51999   7.64143  0.22383     0.32268    6873.0668   8909.27464  1.68777         5644.82397     17.61794  0.00023  56213.21244   2.15329  2.09564  1210413.60928  45.31417  21.86989  56245.44174    51.20984       44.31998   36.89385  63.61009   60.0     0.1144  -21.49964  0.88064 
 -112.33542  0.00596  3.41727     14.10154  1.46116  0.67343   5.13589   0.2442     0.05231   5667.09471   9604.79548  1.69198         4963.44679     19.08626  0.00678  56211.26458   0.98393  0.03063   992635.68419  45.36939  22.15262  56252.63222    51.14286        44.1785   44.52706  72.70389   55.5    0.12262  -21.21779  0.99753 
 -133.21155  0.06779  4.55494     14.16992  2.17932  0.65834   4.96838   0.2409     0.47858   4834.40698   4529.16634  1.71608         5779.71118     18.13152  0.00075  56190.38845   0.69267   0.3368  1919828.57319  45.00694  22.38607  56278.99733    51.06195       44.13815   38.16605  64.88229   78.5    0.10081  -21.32216  0.97345 
 -111.34438   0.0275  3.45176     14.44305  1.86122  0.53713   9.37487   0.2011     0.32066   6223.74663   8884.80811  1.43553         4651.54779     18.01347  0.00057  56212.25562   2.16619  0.25781   267669.79007  46.03496  22.43869  56288.58464    51.03013       44.09078   43.25486  62.33788   56.0    0.10719  -21.04279  0.98558 
  -91.53605  0.00193  4.66521      14.0597  1.90131  1.17255   3.07308  0.30821     0.27331   5839.95436   9914.31308  2.07673         5536.70368     18.27903  0.00106  56232.06395    0.6252  0.00592  2918892.01889  44.74494  22.59523  56300.56878    50.99195       44.05423   43.25486  59.46792   54.0    0.14726  -21.49084  0.99939 
 -130.73404  0.00963  3.46504     14.52667  1.84929  0.31942   5.62187  0.25405     0.09348   5727.64862   9459.31925  1.78044         5091.61757      17.2656   0.0001  56192.86596   1.10017  0.05415   182343.11111  46.19554  22.12999  56257.42588    51.17783        44.2326   48.34367  67.77263   58.5     0.1167  -21.14135  0.99686 
