# Wavelength Flux
# STATUS = PUBLIC
# OBJECT = 2019aamq
# TELESCOPE = P200
# INSTRUMENT =
# DATE-OBS = 2019.0801
# MJD =
# EXPTIME =
# SLIT =
# DISPERSER =
# SOURCE = 2023ApJ...943...41C
# FILTER =
# FLUX_STANDARD =
# EXTINCTION_CORRECTED = False
# PHOTOMETRY_CALIBRATED =
# FLUX_UNITS = erg/s/cm^2/Angstroms
# QUALITY =
# MIN_WAVE =
# MAX_WAVE =
# COMMENT =
3400.0 7.2397e-18
3401.525 2.0913e-17
3403.05 3.1835e-17
3404.575 -1.1971e-17
3406.1 4.3294e-17
3407.625 -5.4203e-18
3409.15 5.7778e-18
3410.675 -5.9889e-18
3412.2 -3.4373e-17
3413.725 1.6661e-17
3415.25 7.4751e-18
3416.775 -1.9114e-17
3418.3 -7.7001e-18
3419.825 4.3463e-18
3421.35 -3.2236e-17
3422.875 3.664e-18
3424.4 -3.2033e-18
3425.925 3.1875e-17
3427.45 7.3657e-18
3428.975 9.4221e-18
3430.5 3.3234e-17
3432.025 1.4059e-17
3433.55 3.7157e-17
3435.075 -1.1139e-17
3436.6 8.3066e-19
3438.125 2.5803e-17
3439.65 3.3923e-17
3441.175 7.5333e-19
3442.7 -8.6607e-18
3444.225 1.9168e-17
3445.75 -2.0098e-17
3447.275 1.2742e-17
3448.8 3.2982e-17
3450.325 3.9305e-18
3451.85 8.2431e-18
3453.375 2.2769e-17
3454.9 -2.7679e-18
3456.425 1.1419e-18
3457.95 6.6357e-18
3459.475 3.6841e-17
3461.0 1.2204e-17
3462.525 -8.2992e-18
3464.05 -3.8364e-18
3465.575 -9.6046e-18
3467.1 -5.7323e-18
3468.625 4.8635e-18
3470.15 1.8512e-18
3471.675 2.2424e-18
3473.2 -5.4554e-18
3474.725 2.7182e-18
3476.25 3.8166e-17
3477.775 -5.7505e-18
3479.3 -1.6663e-17
3480.825 4.0278e-18
3482.35 -9.1536e-18
3483.875 1.0063e-17
3485.4 -6.3653e-18
3486.925 1.5992e-17
3488.45 2.3584e-17
3489.975 6.4995e-18
3491.5 6.2448e-18
3493.025 -1.8681e-17
3494.55 -1.3329e-18
3496.075 1.722e-17
3497.6 1.3771e-17
3499.125 1.851e-18
3500.65 2.9889e-18
3502.175 1.6826e-17
3503.7 8.5306e-18
3505.225 1.2699e-17
3506.75 1.3977e-18
3508.275 1.1387e-17
3509.8 2.343e-17
3511.325 1.1206e-17
3512.85 -3.6206e-18
3514.375 -6.7283e-18
3515.9 3.2933e-18
3517.425 4.1732e-18
3518.95 5.5054e-18
3520.475 1.7088e-17
3522.0 2.794e-17
3523.525 1.4751e-17
3525.05 6.6135e-18
3526.575 7.516e-18
3528.1 -9.1875e-18
3529.625 7.4945e-18
3531.15 9.9795e-18
3532.675 -6.6751e-19
3534.2 5.6055e-18
3535.725 -7.207e-18
3537.25 -1.4884e-17
3538.775 1.5343e-17
3540.3 3.9042e-17
3541.825 1.9884e-17
3543.35 -1.1368e-18
3544.875 5.3418e-18
3546.4 -4.6282e-19
3547.925 -2.023e-17
3549.45 -2.0624e-17
3550.975 1.1718e-17
3552.5 3.7477e-17
3554.025 1.0051e-17
3555.55 1.2766e-17
3557.075 2.2839e-17
3558.6 5.1737e-18
3560.125 7.8884e-18
3561.65 2.1488e-18
3563.175 -1.4765e-17
3564.7 -6.3572e-18
3566.225 1.0938e-17
3567.75 2.6546e-17
3569.275 3.291e-18
3570.8 -9.6639e-19
3572.325 7.2654e-18
3573.85 3.8259e-18
3575.375 -3.1612e-18
3576.9 1.0094e-18
3578.425 6.1686e-18
3579.95 2.2663e-18
3581.475 9.754e-18
3583.0 1.4152e-17
3584.525 4.7919e-18
3586.05 9.6216e-18
3587.575 4.8899e-18
3589.1 5.9985e-18
3590.625 -4.4514e-18
3592.15 -6.1748e-18
3593.675 -3.3964e-18
3595.2 -1.1554e-18
3596.725 8.9452e-18
3598.25 1.2108e-17
3599.775 2.8779e-18
3601.3 -1.0553e-18
3602.825 -4.2281e-18
3604.35 -3.9502e-18
3605.875 9.1933e-18
3607.4 5.4003e-18
3608.925 5.61e-18
3610.45 2.9237e-18
3611.975 3.4606e-18
3613.5 1.1019e-18
3615.025 8.0267e-18
3616.55 7.6822e-18
3618.075 1.8032e-17
3619.6 2.3483e-17
3621.125 1.9153e-17
3622.65 1.1032e-17
3624.175 -1.1646e-18
3625.7 4.6955e-18
3627.225 -9.8777e-19
3628.75 5.8759e-18
3630.275 -1.0484e-17
3631.8 4.3951e-19
3633.325 3.6642e-18
3634.85 2.2925e-18
3636.375 1.0378e-17
3637.9 3.9517e-18
3639.425 -1.9297e-18
3640.95 4.2915e-18
3642.475 1.6635e-17
3644.0 2.0936e-17
3645.525 2.1339e-17
3647.05 -2.1846e-18
3648.575 1.6643e-17
3650.1 1.4039e-17
3651.625 6.2871e-18
3653.15 -1.2517e-17
3654.675 -2.4677e-18
3656.2 1.1597e-17
3657.725 -1.0219e-17
3659.25 4.8215e-18
3660.775 1.4756e-17
3662.3 7.5423e-18
3663.825 7.3908e-18
3665.35 1.0547e-17
3666.875 9.1377e-19
3668.4 1.5057e-17
3669.925 9.6562e-19
3671.45 -7.6639e-19
3672.975 -1.2456e-17
3674.5 -1.0743e-18
3676.025 -4.8143e-18
3677.55 -3.401e-18
3679.075 -7.7927e-18
3680.6 1.0326e-18
3682.125 6.8931e-18
3683.65 1.253e-18
3685.175 -3.6448e-20
3686.7 -6.8911e-19
3688.225 3.85e-18
3689.75 -1.4566e-18
3691.275 1.0408e-17
3692.8 4.819e-18
3694.325 1.4809e-17
3695.85 1.2722e-17
3697.375 4.5367e-18
3698.9 4.1782e-18
3700.425 4.1605e-18
3701.95 -1.0609e-18
3703.475 1.0302e-18
3705.0 1.0129e-17
3706.525 7.3511e-18
3708.05 6.8914e-18
3709.575 1.2709e-18
3711.1 3.7008e-18
3712.625 -4.8482e-18
3714.15 2.7935e-18
3715.675 1.7431e-17
3717.2 1.2978e-17
3718.725 7.0585e-18
3720.25 1.385e-17
3721.775 2.1927e-18
3723.3 1.8835e-17
3724.825 1.7351e-17
3726.35 1.7258e-18
3727.875 -4.6577e-18
3729.4 1.2446e-17
3730.925 1.8678e-17
3732.45 8.9614e-18
3733.975 2.6935e-18
3735.5 1.4451e-18
3737.025 5.8017e-18
3738.55 3.6142e-18
3740.075 4.8277e-18
3741.6 7.0198e-18
3743.125 1.061e-17
3744.65 -4.3999e-18
3746.175 -4.7638e-18
3747.7 7.7058e-18
3749.225 6.3207e-18
3750.75 1.3328e-17
3752.275 1.2068e-17
3753.8 4.4696e-18
3755.325 5.4673e-18
3756.85 2.203e-17
3758.375 1.2756e-17
3759.9 1.8295e-18
3761.425 7.19e-18
3762.95 8.1984e-18
3764.475 8.4251e-18
3766.0 5.4807e-18
3767.525 1.1053e-17
3769.05 1.2466e-17
3770.575 1.0217e-17
3772.1 1.5482e-17
3773.625 1.2572e-17
3775.15 3.6734e-18
3776.675 9.0881e-18
3778.2 6.3265e-18
3779.725 4.0174e-19
3781.25 9.5871e-18
3782.775 1.467e-17
3784.3 7.9788e-18
3785.825 1.1768e-17
3787.35 4.8921e-18
3788.875 6.2377e-18
3790.4 7.1428e-18
3791.925 1.0299e-17
3793.45 6.6896e-18
3794.975 2.951e-18
3796.5 1.2703e-17
3798.025 1.4905e-17
3799.55 1.5834e-17
3801.075 9.163e-18
3802.6 7.913e-18
3804.125 1.1298e-17
3805.65 1.2863e-17
3807.175 7.6835e-18
3808.7 1.0597e-17
3810.225 8.6933e-18
3811.75 8.7047e-18
3813.275 1.6239e-17
3814.8 1.0903e-17
3816.325 1.3997e-17
3817.85 1.3688e-17
3819.375 7.2935e-18
3820.9 7.2197e-18
3822.425 1.0747e-17
3823.95 1.3717e-17
3825.475 1.2473e-17
3827.0 1.198e-17
3828.525 1.7639e-17
3830.05 1.8576e-17
3831.575 1.271e-17
3833.1 1.2283e-17
3834.625 2.0153e-17
3836.15 1.2174e-17
3837.675 1.0204e-17
3839.2 1.0978e-17
3840.725 1.7503e-17
3842.25 2.1743e-17
3843.775 1.9404e-17
3845.3 9.4494e-18
3846.825 1.2714e-17
3848.35 2.021e-17
3849.875 1.736e-17
3851.4 1.4046e-17
3852.925 1.218e-17
3854.45 1.2037e-17
3855.975 5.3599e-18
3857.5 8.299e-18
3859.025 1.9809e-17
3860.55 2.2232e-17
3862.075 2.3562e-17
3863.6 2.3209e-17
3865.125 2.2232e-17
3866.65 1.5168e-17
3868.175 1.7951e-17
3869.7 2.2193e-17
3871.225 1.382e-17
3872.75 1.6663e-17
3874.275 1.44e-17
3875.8 9.9625e-18
3877.325 1.3027e-17
3878.85 1.7837e-17
3880.375 1.0295e-17
3881.9 1.1028e-17
3883.425 1.5344e-17
3884.95 1.1533e-17
3886.475 1.7287e-17
3888.0 1.7381e-17
3889.525 1.8641e-17
3891.05 1.137e-17
3892.575 1.4196e-17
3894.1 2.2053e-17
3895.625 1.2031e-17
3897.15 2.4082e-17
3898.675 1.9996e-17
3900.2 1.8889e-17
3901.725 1.5605e-17
3903.25 1.9449e-17
3904.775 9.284e-18
3906.3 1.8064e-17
3907.825 2.7016e-17
3909.35 2.0057e-17
3910.875 1.2854e-17
3912.4 8.8391e-18
3913.925 1.7795e-17
3915.45 1.4665e-17
3916.975 1.7701e-17
3918.5 1.5084e-17
3920.025 1.5972e-17
3921.55 2.3015e-17
3923.075 1.6826e-17
3924.6 1.7836e-17
3926.125 1.9029e-17
3927.65 1.368e-17
3929.175 1.8416e-17
3930.7 2.0971e-17
3932.225 1.7173e-17
3933.75 1.8622e-17
3935.275 1.3671e-17
3936.8 2.1082e-17
3938.325 2.1647e-17
3939.85 1.2393e-17
3941.375 1.7988e-17
3942.9 1.8585e-17
3944.425 1.8425e-17
3945.95 1.2765e-17
3947.475 1.4602e-17
3949.0 1.4987e-17
3950.525 5.2139e-18
3952.05 9.9319e-18
3953.575 7.7541e-18
3955.1 1.3301e-17
3956.625 1.454e-17
3958.15 1.667e-17
3959.675 1.8879e-17
3961.2 2.6575e-17
3962.725 2.6472e-17
3964.25 1.9701e-17
3965.775 2.0488e-17
3967.3 1.2631e-17
3968.825 1.7263e-17
3970.35 1.3374e-17
3971.875 1.772e-17
3973.4 1.6622e-17
3974.925 1.9071e-17
3976.45 1.9993e-17
3977.975 1.6149e-17
3979.5 1.7599e-17
3981.025 2.0138e-17
3982.55 2.5801e-17
3984.075 2.3738e-17
3985.6 1.4245e-17
3987.125 2.1105e-17
3988.65 2.2199e-17
3990.175 1.387e-17
3991.7 2.3304e-17
3993.225 8.2966e-18
3994.75 1.4373e-17
3996.275 2.2274e-17
3997.8 2.7388e-17
3999.325 2.6905e-17
4000.85 2.5879e-17
4002.375 2.0698e-17
4003.9 3.1662e-17
4005.425 3.2129e-17
4006.95 2.9388e-17
4008.475 1.654e-17
4010.0 2.2175e-17
4011.525 2.7748e-17
4013.05 2.6461e-17
4014.575 2.6884e-17
4016.1 2.7502e-17
4017.625 1.7341e-17
4019.15 2.2519e-17
4020.675 1.7155e-17
4022.2 2.4569e-17
4023.725 2.1862e-17
4025.25 2.9343e-17
4026.775 2.3949e-17
4028.3 1.957e-17
4029.825 2.9726e-17
4031.35 2.5915e-17
4032.875 2.2578e-17
4034.4 2.7296e-17
4035.925 2.6439e-17
4037.45 2.4012e-17
4038.975 3.4275e-17
4040.5 3.2295e-17
4042.025 2.4235e-17
4043.55 2.8806e-17
4045.075 3.7542e-17
4046.6 4.3073e-17
4048.125 2.2035e-17
4049.65 2.5336e-17
4051.175 3.0961e-17
4052.7 2.8592e-17
4054.225 3.1087e-17
4055.75 3.1522e-17
4057.275 2.8339e-17
4058.8 2.7007e-17
4060.325 3.0254e-17
4061.85 1.8792e-17
4063.375 2.7812e-17
4064.9 2.5833e-17
4066.425 2.7628e-17
4067.95 2.6097e-17
4069.475 2.7921e-17
4071.0 3.5339e-17
4072.525 2.9169e-17
4074.05 3.2957e-17
4075.575 3.2988e-17
4077.1 2.6547e-17
4078.625 2.1634e-17
4080.15 1.9779e-17
4081.675 1.9322e-17
4083.2 2.5359e-17
4084.725 3.5246e-17
4086.25 2.7844e-17
4087.775 2.0888e-17
4089.3 2.7454e-17
4090.825 2.9813e-17
4092.35 2.8431e-17
4093.875 2.7672e-17
4095.4 2.2983e-17
4096.925 1.6991e-17
4098.45 1.7461e-17
4099.975 2.7803e-17
4101.5 2.8732e-17
4103.025 2.5123e-17
4104.55 2.6935e-17
4106.075 2.3425e-17
4107.6 2.1782e-17
4109.125 3.3244e-17
4110.65 3.1437e-17
4112.175 3.0671e-17
4113.7 2.5301e-17
4115.225 2.5194e-17
4116.75 2.5405e-17
4118.275 2.3337e-17
4119.8 3.2412e-17
4121.325 3.916e-17
4122.85 3.4213e-17
4124.375 2.717e-17
4125.9 2.3778e-17
4127.425 2.7704e-17
4128.95 3.0494e-17
4130.475 2.9821e-17
4132.0 2.4701e-17
4133.525 2.6679e-17
4135.05 2.4524e-17
4136.575 2.7433e-17
4138.1 2.9743e-17
4139.625 2.8936e-17
4141.15 2.7826e-17
4142.675 2.4951e-17
4144.2 1.8984e-17
4145.725 2.1238e-17
4147.25 2.7795e-17
4148.775 2.8856e-17
4150.3 2.0389e-17
4151.825 2.8232e-17
4153.35 3.0602e-17
4154.875 2.3584e-17
4156.4 2.6558e-17
4157.925 2.0858e-17
4159.45 1.9214e-17
4160.975 2.6074e-17
4162.5 3.0632e-17
4164.025 2.427e-17
4165.55 2.1648e-17
4167.075 2.3819e-17
4168.6 3.5312e-17
4170.125 2.913e-17
4171.65 2.3736e-17
4173.175 3.2834e-17
4174.7 2.8842e-17
4176.225 1.941e-17
4177.75 1.7654e-17
4179.275 2.4181e-17
4180.8 1.8701e-17
4182.325 1.858e-17
4183.85 2.3891e-17
4185.375 2.9859e-17
4186.9 1.9337e-17
4188.425 2.4919e-17
4189.95 2.9196e-17
4191.475 2.444e-17
4193.0 2.5642e-17
4194.525 2.2807e-17
4196.05 1.6052e-17
4197.575 1.6724e-17
4199.1 2.9206e-17
4200.625 2.8576e-17
4202.15 2.6171e-17
4203.675 1.6589e-17
4205.2 2.3767e-17
4206.725 2.2658e-17
4208.25 2.4258e-17
4209.775 2.0238e-17
4211.3 2.3774e-17
4212.825 2.9594e-17
4214.35 3.1761e-17
4215.875 2.6366e-17
4217.4 2.6083e-17
4218.925 2.0151e-17
4220.45 1.8758e-17
4221.975 1.9671e-17
4223.5 2.9854e-17
4225.025 1.8973e-17
4226.55 1.6207e-17
4228.075 2.4976e-17
4229.6 2.6242e-17
4231.125 2.955e-17
4232.65 2.8555e-17
4234.175 2.5923e-17
4235.7 2.398e-17
4237.225 2.698e-17
4238.75 2.7183e-17
4240.275 3.1439e-17
4241.8 2.9736e-17
4243.325 2.5897e-17
4244.85 3.4352e-17
4246.375 3.4874e-17
4247.9 2.9379e-17
4249.425 2.6373e-17
4250.95 1.8073e-17
4252.475 1.5851e-17
4254.0 3.3839e-17
4255.525 3.5752e-17
4257.05 2.3849e-17
4258.575 2.3729e-17
4260.1 2.8854e-17
4261.625 2.5082e-17
4263.15 2.9085e-17
4264.675 2.783e-17
4266.2 2.615e-17
4267.725 2.8724e-17
4269.25 2.0404e-17
4270.775 2.3133e-17
4272.3 2.9021e-17
4273.825 2.5431e-17
4275.35 2.5346e-17
4276.875 2.9842e-17
4278.4 2.9982e-17
4279.925 3.0818e-17
4281.45 2.9788e-17
4282.975 2.6625e-17
4284.5 2.6201e-17
4286.025 2.8273e-17
4287.55 2.8162e-17
4289.075 3.0925e-17
4290.6 2.6533e-17
4292.125 2.4439e-17
4293.65 2.5495e-17
4295.175 2.6189e-17
4296.7 2.7866e-17
4298.225 3.2676e-17
4299.75 2.6118e-17
4301.275 3.4649e-17
4302.8 2.9409e-17
4304.325 2.7049e-17
4305.85 2.5217e-17
4307.375 2.8774e-17
4308.9 2.7325e-17
4310.425 2.509e-17
4311.95 2.8016e-17
4313.475 2.7801e-17
4315.0 3.0321e-17
4316.525 2.5704e-17
4318.05 2.3369e-17
4319.575 2.9056e-17
4321.1 2.663e-17
4322.625 2.5857e-17
4324.15 3.5683e-17
4325.675 2.5626e-17
4327.2 3.1729e-17
4328.725 3.2211e-17
4330.25 2.8476e-17
4331.775 2.549e-17
4333.3 2.0773e-17
4334.825 2.7391e-17
4336.35 2.4916e-17
4337.875 2.6524e-17
4339.4 3.3585e-17
4340.925 3.3349e-17
4342.45 2.8752e-17
4343.975 3.2582e-17
4345.5 3.1037e-17
4347.025 2.3027e-17
4348.55 2.8795e-17
4350.075 2.74e-17
4351.6 2.9731e-17
4353.125 3.5127e-17
4354.65 4.2666e-17
4356.175 4.2123e-17
4357.7 5.4393e-17
4359.225 4.3829e-17
4360.75 3.5342e-17
4362.275 2.6572e-17
4363.8 2.6329e-17
4365.325 2.7809e-17
4366.85 3.1845e-17
4368.375 3.7859e-17
4369.9 3.1282e-17
4371.425 3.2058e-17
4372.95 3.3041e-17
4374.475 3.6658e-17
4376.0 3.7456e-17
4377.525 3.0671e-17
4379.05 2.4066e-17
4380.575 2.6609e-17
4382.1 3.5341e-17
4383.625 3.6114e-17
4385.15 3.2668e-17
4386.675 3.4445e-17
4388.2 2.7918e-17
4389.725 3.1658e-17
4391.25 2.9481e-17
4392.775 3.1659e-17
4394.3 3.5173e-17
4395.825 3.7011e-17
4397.35 3.9366e-17
4398.875 3.7624e-17
4400.4 3.2866e-17
4401.925 4.0381e-17
4403.45 3.5443e-17
4404.975 2.8856e-17
4406.5 2.6981e-17
4408.025 3.4025e-17
4409.55 3.5389e-17
4411.075 3.6262e-17
4412.6 3.5919e-17
4414.125 3.6231e-17
4415.65 3.9874e-17
4417.175 3.7607e-17
4418.7 2.9923e-17
4420.225 2.5136e-17
4421.75 3.2871e-17
4423.275 3.2109e-17
4424.8 3.9264e-17
4426.325 3.7076e-17
4427.85 2.9417e-17
4429.375 2.9796e-17
4430.9 2.6135e-17
4432.425 3.4593e-17
4433.95 3.5083e-17
4435.475 4.2541e-17
4437.0 3.2682e-17
4438.525 3.0619e-17
4440.05 3.5364e-17
4441.575 4.0513e-17
4443.1 3.2577e-17
4444.625 4.1813e-17
4446.15 3.5191e-17
4447.675 2.77e-17
4449.2 3.6784e-17
4450.725 3.2197e-17
4452.25 2.9246e-17
4453.775 2.2112e-17
4455.3 2.0635e-17
4456.825 2.628e-17
4458.35 3.1475e-17
4459.875 3.9469e-17
4461.4 3.7385e-17
4462.925 2.9131e-17
4464.45 2.437e-17
4465.975 2.9206e-17
4467.5 3.5964e-17
4469.025 3.8063e-17
4470.55 3.2976e-17
4472.075 4.1551e-17
4473.6 3.184e-17
4475.125 2.6114e-17
4476.65 3.7561e-17
4478.175 3.1426e-17
4479.7 4.074e-17
4481.225 3.718e-17
4482.75 3.6619e-17
4484.275 3.7668e-17
4485.8 3.5466e-17
4487.325 3.0424e-17
4488.85 2.9296e-17
4490.375 3.7433e-17
4491.9 2.8662e-17
4493.425 2.7259e-17
4494.95 3.6393e-17
4496.475 3.6697e-17
4498.0 3.0586e-17
4499.525 3.2039e-17
4501.05 3.0886e-17
4502.575 2.415e-17
4504.1 3.188e-17
4505.625 2.9074e-17
4507.15 2.6747e-17
4508.675 3.3628e-17
4510.2 3.6764e-17
4511.725 3.5934e-17
4513.25 3.9342e-17
4514.775 4.0773e-17
4516.3 3.7427e-17
4517.825 3.5972e-17
4519.35 3.9327e-17
4520.875 3.3148e-17
4522.4 2.4367e-17
4523.925 2.6834e-17
4525.45 4.0339e-17
4526.975 3.8442e-17
4528.5 3.2338e-17
4530.025 3.1874e-17
4531.55 2.3452e-17
4533.075 3.3885e-17
4534.6 2.7475e-17
4536.125 3.7036e-17
4537.65 2.7706e-17
4539.175 3.4138e-17
4540.7 3.4818e-17
4542.225 3.245e-17
4543.75 3.1702e-17
4545.275 3.0663e-17
4546.8 3.2308e-17
4548.325 3.0225e-17
4549.85 3.2218e-17
4551.375 3.4213e-17
4552.9 4.3507e-17
4554.425 3.2401e-17
4555.95 2.9038e-17
4557.475 3.0102e-17
4559.0 4.6336e-17
4560.525 4.9015e-17
4562.05 3.6304e-17
4563.575 2.4956e-17
4565.1 3.0804e-17
4566.625 4.2316e-17
4568.15 4.1726e-17
4569.675 3.4842e-17
4571.2 3.0224e-17
4572.725 3.1862e-17
4574.25 3.3748e-17
4575.775 3.4027e-17
4577.3 3.3102e-17
4578.825 3.8892e-17
4580.35 4.2205e-17
4581.875 4.3786e-17
4583.4 3.884e-17
4584.925 3.258e-17
4586.45 3.1333e-17
4587.975 3.2358e-17
4589.5 3.1236e-17
4591.025 3.4118e-17
4592.55 3.9858e-17
4594.075 4.0464e-17
4595.6 3.619e-17
4597.125 3.6862e-17
4598.65 3.9486e-17
4600.175 3.6771e-17
4601.7 3.2636e-17
4603.225 2.8775e-17
4604.75 4.3245e-17
4606.275 4.3412e-17
4607.8 4.1279e-17
4609.325 4.447e-17
4610.85 4.1365e-17
4612.375 4.2427e-17
4613.9 4.6437e-17
4615.425 4.0819e-17
4616.95 3.4081e-17
4618.475 3.5432e-17
4620.0 4.4965e-17
4621.525 3.5071e-17
4623.05 3.7213e-17
4624.575 4.8264e-17
4626.1 3.6989e-17
4627.625 3.8856e-17
4629.15 2.7833e-17
4630.675 3.4047e-17
4632.2 3.907e-17
4633.725 4.2333e-17
4635.25 3.4599e-17
4636.775 3.3507e-17
4638.3 4.3488e-17
4639.825 4.3506e-17
4641.35 3.4047e-17
4642.875 4.0306e-17
4644.4 4.1512e-17
4645.925 4.7467e-17
4647.45 3.9339e-17
4648.975 4.4686e-17
4650.5 4.2548e-17
4652.025 3.6756e-17
4653.55 4.181e-17
4655.075 3.4802e-17
4656.6 3.6549e-17
4658.125 3.7248e-17
4659.65 4.3403e-17
4661.175 3.1325e-17
4662.7 4.1362e-17
4664.225 4.3491e-17
4665.75 4.3381e-17
4667.275 3.8253e-17
4668.8 3.235e-17
4670.325 3.7781e-17
4671.85 4.2364e-17
4673.375 3.2811e-17
4674.9 3.5519e-17
4676.425 3.6582e-17
4677.95 3.0234e-17
4679.475 3.3947e-17
4681.0 3.7143e-17
4682.525 3.1949e-17
4684.05 3.0369e-17
4685.575 3.4768e-17
4687.1 2.5935e-17
4688.625 2.2054e-17
4690.15 3.0036e-17
4691.675 3.0762e-17
4693.2 3.6089e-17
4694.725 3.8862e-17
4696.25 4.0007e-17
4697.775 3.8777e-17
4699.3 3.9604e-17
4700.825 4.2067e-17
4702.35 3.5805e-17
4703.875 3.3919e-17
4705.4 2.8999e-17
4706.925 3.7351e-17
4708.45 3.5991e-17
4709.975 3.0816e-17
4711.5 3.4891e-17
4713.025 3.705e-17
4714.55 3.5138e-17
4716.075 3.4771e-17
4717.6 3.8852e-17
4719.125 3.4077e-17
4720.65 3.3258e-17
4722.175 4.4462e-17
4723.7 3.6072e-17
4725.225 4.4973e-17
4726.75 3.5265e-17
4728.275 3.7178e-17
4729.8 4.0366e-17
4731.325 3.7736e-17
4732.85 3.7306e-17
4734.375 3.9431e-17
4735.9 4.2681e-17
4737.425 4.4657e-17
4738.95 3.6548e-17
4740.475 2.952e-17
4742.0 2.7654e-17
4743.525 2.7442e-17
4745.05 3.4724e-17
4746.575 4.1227e-17
4748.1 3.8923e-17
4749.625 3.6021e-17
4751.15 3.7321e-17
4752.675 3.0028e-17
4754.2 3.3684e-17
4755.725 3.9292e-17
4757.25 3.9171e-17
4758.775 3.8689e-17
4760.3 4.5935e-17
4761.825 4.1857e-17
4763.35 3.9608e-17
4764.875 4.2821e-17
4766.4 4.0596e-17
4767.925 4.0254e-17
4769.45 4.0419e-17
4770.975 4.3856e-17
4772.5 4.2929e-17
4774.025 3.8797e-17
4775.55 3.7658e-17
4777.075 3.8206e-17
4778.6 4.891e-17
4780.125 4.1471e-17
4781.65 4.1088e-17
4783.175 3.5826e-17
4784.7 4.0906e-17
4786.225 3.8701e-17
4787.75 5.087e-17
4789.275 5.1644e-17
4790.8 4.4712e-17
4792.325 4.1443e-17
4793.85 3.7403e-17
4795.375 3.7784e-17
4796.9 4.2619e-17
4798.425 4.6318e-17
4799.95 3.9152e-17
4801.475 3.5075e-17
4803.0 4.4219e-17
4804.525 4.8375e-17
4806.05 4.1547e-17
4807.575 4.2643e-17
4809.1 3.8458e-17
4810.625 3.5023e-17
4812.15 4.1888e-17
4813.675 3.6707e-17
4815.2 3.4016e-17
4816.725 4.3177e-17
4818.25 4.2773e-17
4819.775 3.5311e-17
4821.3 4.3988e-17
4822.825 4.2935e-17
4824.35 4.4749e-17
4825.875 3.9231e-17
4827.4 4.1051e-17
4828.925 4.1405e-17
4830.45 4.1745e-17
4831.975 4.571e-17
4833.5 4.223e-17
4835.025 4.7126e-17
4836.55 4.2436e-17
4838.075 4.3813e-17
4839.6 4.8628e-17
4841.125 4.6741e-17
4842.65 4.1247e-17
4844.175 4.7582e-17
4845.7 4.5852e-17
4847.225 4.0163e-17
4848.75 3.8374e-17
4850.275 3.9514e-17
4851.8 4.4901e-17
4853.325 4.3526e-17
4854.85 4.2634e-17
4856.375 4.8338e-17
4857.9 3.9221e-17
4859.425 3.8567e-17
4860.95 4.0413e-17
4862.475 4.1653e-17
4864.0 5.2822e-17
4865.525 4.264e-17
4867.05 3.8128e-17
4868.575 5.1165e-17
4870.1 5.2905e-17
4871.625 4.7316e-17
4873.15 4.3313e-17
4874.675 4.4788e-17
4876.2 4.5707e-17
4877.725 4.3546e-17
4879.25 4.343e-17
4880.775 4.0652e-17
4882.3 3.8639e-17
4883.825 3.907e-17
4885.35 4.3924e-17
4886.875 4.7436e-17
4888.4 4.0651e-17
4889.925 3.5611e-17
4891.45 3.7825e-17
4892.975 4.3263e-17
4894.5 4.242e-17
4896.025 4.4356e-17
4897.55 3.669e-17
4899.075 4.1416e-17
4900.6 4.4177e-17
4902.125 4.772e-17
4903.65 5.9003e-17
4905.175 5.1499e-17
4906.7 4.7232e-17
4908.225 4.9412e-17
4909.75 4.7393e-17
4911.275 4.4967e-17
4912.8 4.7141e-17
4914.325 4.7648e-17
4915.85 4.6496e-17
4917.375 4.9185e-17
4918.9 4.9864e-17
4920.425 5.0578e-17
4921.95 5.2973e-17
4923.475 4.4764e-17
4925.0 4.9773e-17
4926.525 5.1834e-17
4928.05 4.7168e-17
4929.575 4.3678e-17
4931.1 4.2704e-17
4932.625 4.8676e-17
4934.15 5.1848e-17
4935.675 4.6456e-17
4937.2 5.3976e-17
4938.725 5.331e-17
4940.25 5.1145e-17
4941.775 4.477e-17
4943.3 5.3337e-17
4944.825 4.9466e-17
4946.35 4.4892e-17
4947.875 4.755e-17
4949.4 5.0691e-17
4950.925 5.4109e-17
4952.45 4.8853e-17
4953.975 4.9462e-17
4955.5 4.4552e-17
