 texplosion  fnickel    Pspin  log(Bfield)      Mns  thetaPB   mejecta    kappa  kappagamma     vejecta  temperature    alpha  cutoff_wavelength  log(nhhost)      A_V         MJD0  kenergy   mnickel             TSD   log(L0)  Peak_mag     Peak_MJD  log(E_rad)  log(Peak_lum)  Rise_Time    E_fold  tau_1  delta_m15     r_peak     frac 
   -31.6316  0.23694  2.22147      13.4158  1.57788  1.36578   11.6613  0.13082     0.01172  5810.02979   5536.95518  0.09794         3979.56044     18.19614  0.00087   58576.8484  2.34818   2.76305   10655241.3229  44.74608  19.45357     58692.36    51.46127       44.46945   64.23788  73.41472   84.0    0.06826  -21.71072  0.91775 
  -21.82453  0.09568  1.38253      13.9502  1.40664  0.52519  21.02238  0.13735     0.05044  5414.62262   6061.91604  0.16812         3863.96674     18.77615  0.00332  58586.65547  3.67659    2.0115    314005.81387  46.63875  19.46793  58692.46518    51.52039       44.51479    51.3903  75.25008   87.0    0.05055  -21.66984  0.97287 
  -28.01492  0.01648  2.37808     14.01284  2.00823   0.5868   26.6857  0.10823     0.02509  5886.54307   4215.97882  0.42974         3709.37667     17.96938  0.00052  58580.46508  5.51603   0.43988    994045.29978   45.8218  19.47784      58690.3    51.48748       44.41441   60.45307  88.21173   92.5     0.0507  -21.74099  0.98933 
  -22.59817  0.00526  2.08014     13.53298  1.48728  1.33389  11.35946  0.17735      0.0564  6290.25385   7568.74562  0.52136         2701.15258     18.48156  0.00168  58585.88183  2.68115    0.0597   5133856.07147  45.09461   19.4638  58693.53858     51.4888       44.50741   44.04883  77.08545   89.0    0.06217   -21.7365  0.99822 
  -15.94626  0.00498  1.85949     13.79427  1.78484  1.53232  22.93209  0.11103     0.14045  5367.16077   7794.65691  0.44519         4049.54748     18.54063  0.00193  58592.53374  3.94058   0.11419   1477938.58975    45.812  19.40794     58695.34    51.45731       44.46606   68.79748  72.52584   78.0    0.05629   -21.6682  0.99799 
  -18.10756  0.09921  1.58174     13.71413   1.5095  0.80397  38.76487  0.02772     0.10367  4008.57817   4087.16086  0.62781         5959.05826     20.56872   0.2058  58590.37244  3.71575   3.84605   1308155.23894  45.93275  19.48132   58696.0824    51.47915       44.45139   56.89641   79.4777  111.0    0.06232  -21.95534  0.94035 
  -25.63047  0.39895  1.95361     13.60687  1.35448  1.00873  15.59653  0.10028     0.01164  5061.01677   4441.30436   0.1981           4253.958     16.88334    4e-05  58582.84953  2.38304   6.22228   2934484.33612  45.35141  19.48044     58697.38    51.50335       44.45052   62.28844  86.37637   89.0    0.05621  -21.62313  0.84312 
  -28.65294  0.23147  2.06317     13.69652  1.51318  0.53176   8.83106  0.19828     0.01368  5603.28631   8040.21787  0.54672         2324.56941     19.55769  0.02006  58579.82706  1.65396   2.04409   2419562.00549  45.43593  19.44916  58693.53858    51.45256       44.43324   64.23788  80.75619   74.5    0.06376  -21.70664  0.94333 
  -23.21834  0.07995   2.4454     13.79048  1.93949  0.86671   9.69646  0.22522     0.01234  6126.44054   6284.25306  0.20032         3609.52157     17.60082  0.00022  58585.26166  2.17099   0.77518   2826404.06799   45.3286  19.46125     58701.38    51.42893       44.41498   64.23788  80.75619   68.5    0.07976  -21.72114    0.979 
  -21.74478  0.00216  2.46358     13.60075  1.76399  1.31713  15.47356  0.12975     0.01611  5907.81012   5294.57974  1.03174         3005.20613     18.58424  0.00213  58586.73522  3.22159   0.03349   6250912.56052  44.93627  19.48126     58693.31    51.62322       44.60303   58.67653  80.81143   85.0    0.05665  -21.72086  0.99891 
  -19.32906   0.0878  2.69092     13.83993  1.76033  0.58595  12.41856  0.12856     0.01559  5795.87983   5747.75129   1.7342         3151.33642     17.45562  0.00016  58589.15094   2.4885   1.09034   2473711.13018  45.26129  19.45521     58695.39    51.45252        44.4286   73.41472  78.28945   84.0    0.06327  -21.70322  0.95856 
  -18.93758  0.00631  2.65452     13.69672  1.89282  1.34524  12.81019  0.10562      0.0836  4953.19917   7409.14784  0.92465          3695.6789     17.03133    6e-05  58589.54242   1.8748    0.0808   5005566.26741  44.99853  19.41442     58693.31    51.44028       44.44376   69.06168  74.09701  104.0    0.06176  -21.63031  0.99727 
  -25.24383  0.00196  2.10525     13.57137  1.46335  0.85885  10.47985  0.13712     0.16527  5901.96942   5597.51581  0.15607         5039.92645     16.85454    4e-05  58583.23617  2.17759   0.02049   4335467.74997  45.15055   19.4646  58690.99476    51.48987       44.48997   47.71957  78.92082  116.0    0.05983  -21.72175  0.99935 
  -18.27509  0.02189  1.90432      13.6796  1.53349  1.17508  44.51302  0.03102      0.1772  4025.42714   7400.85355  0.85646         4125.41834     19.38348  0.01343  58590.20491  4.30267    0.9744   2258240.30756  45.54128  19.46811     58693.31    51.52606       44.50318   53.22567  76.70511   96.0    0.05951  -21.59773  0.97773 
  -21.38777  0.07606  2.41215     13.71201  1.80726  1.05808  15.29523  0.09292     0.29716  5784.93158   5730.29438  0.06479         5606.78769     17.47259  0.00016  58587.09223  3.05337   1.16337   3678074.17119  45.19544  19.44231     58697.38    51.50352        44.4877     47.749  84.39749  108.0    0.06437   -21.6792   0.9664 
  -14.47897  0.06034  1.70838     13.89784  1.77327  1.16836   35.9001  0.07228     0.12949  5661.30872   9201.75622  0.46252         4314.43308     18.91839   0.0046  58594.00103  6.86367   2.16616    769275.58823  46.16637  19.46682  58698.62622    51.45391       44.46374   57.20603  76.77583   67.5    0.05919  -21.70064  0.96868 
  -32.19847   0.0769   1.9815     13.35328   1.7312  0.78301    9.6729  0.18217     0.01089  6560.71068   8657.94669   0.0615          4714.7624     17.26017   0.0001  58576.28153  2.48362   0.74387   12404679.6379  44.81962  19.45261     58691.39    51.56165       44.53216   55.09047  77.05602   72.0    0.07212  -21.81024  0.98186 
  -16.78176  0.07406  1.58585     14.15243   1.6298  0.39813  26.79704  0.05326     0.01366  3772.66681   9112.23365  0.57635         5276.66649     19.19559  0.00872  58591.69824  2.27515   1.98472    188631.61099  46.80484  19.49299  58700.42383    51.52514       44.49205   56.17413  82.03534   83.5    0.05784  -21.63409  0.97177 
  -21.29407  0.00126   2.0805     13.86999  1.75332  0.70868   13.2651  0.15202     0.05978   5370.7653   4814.80258  0.23156          5587.2023     16.14119    1e-05  58587.18593   2.2825    0.0167    1282424.9767  45.76834  19.43379  58692.46518     51.5114       44.49341   53.89913  74.19628   93.0    0.05669  -21.73415  0.99962 
   -20.3824  0.05125  1.75897     13.85486  1.85108  1.21091  22.13906  0.12414     0.01344   5527.5267   5365.55533  0.20708         3486.20891     17.75253  0.00031   58588.0976  4.03504   1.13462   1037607.97943  46.02972  19.47876     58696.37    51.50458       44.47849    55.0058  77.14069   76.5    0.05669  -21.66221   0.9834 
   -22.3439  0.01748  2.62788     13.84496  1.90719  0.51328   6.64777  0.16513      0.0415  6379.42274   8887.49389   0.2421         3331.01897     19.05282  0.00627   58586.1361  1.61386   0.11618   2497485.16789  45.31253  19.42765  58693.53858    51.46784       44.47482   67.90861  73.41472   81.5    0.06003  -21.73644  0.99604 
  -31.16974  0.04994   1.9394     13.34298  1.64877   0.6164  13.06954  0.07568     0.01189  6459.95075   4447.84911   0.0081         2713.75013     16.00642    1e-05  58577.31026  3.25346   0.65266  11867215.26706  44.83632  19.42401     58697.38     51.4603       44.46263   69.01839  72.86182   99.0    0.05343  -21.76231  0.98251 
  -22.22409  0.00996  2.49522     13.75056  2.02218  1.51906  22.20524  0.08873     0.26501  6110.83144   3266.43582  0.05673         5445.03148     17.42126  0.00015  58586.25591  4.94633   0.22115   3687458.05897  45.21372  19.42158  58690.99476    51.53527       44.51624   54.33876  72.30162   94.5    0.06418  -21.72784   0.9941 
  -22.37737  0.00346  2.73304     13.53608  2.10148  1.25251   6.57466  0.17352     0.02845   6466.6933   4047.33013  0.32407         3089.60149     18.66504  0.00257  58586.10263  1.64008   0.02277  12344718.61813   44.6266  19.47146     58697.38     51.4527       44.49206   57.56986  70.90589   90.0    0.06582  -21.75896  0.99925 
  -30.99153  0.00344  2.38481     13.74985  1.87367  0.89811  19.02889  0.10503     0.02858  5410.45028   5013.37914  0.44257          2748.1672     16.44596    2e-05  58577.48847  3.32283   0.06537   3131295.30006  45.29091  19.47189  58696.45402    51.48532       44.49547    45.8842  78.92082  104.0    0.05099  -21.65704  0.99819 
  -17.73058   0.0075  1.46653     13.77992  1.42543  0.92252  33.13274  0.09541     0.02674  5767.35925   3142.29978  0.64663         3392.41974     16.65482    3e-05  58590.74942  6.57413   0.24839    784346.94054   46.1957  19.43105  58698.62622    51.45741       44.46276   63.51229  75.97567   82.0    0.05345  -21.67703  0.99621 
  -16.52287  0.03255  1.28235     14.15074     1.69  0.50258  28.77347  0.06368     0.03063  3890.14417   9927.96699  0.57204         5127.11079     17.85973   0.0004  58591.95713  2.59747   0.93647    128894.94781  47.17048  19.48922     58695.34    51.52544        44.5218   53.22567  75.25008   71.0    0.05404  -21.60137  0.99165 
  -21.43387  0.14702  2.24925     13.73521  1.54756  0.51992  13.05472  0.12623     0.01499  6305.13532   8219.72392  0.77443         2359.13525     18.63769  0.00241  58587.04613  3.09587   1.91925   2461078.16646  45.36329  19.45484  58696.45402     51.5149       44.51361   49.58437  78.89139   75.0     0.0641  -21.75494  0.93886 
  -27.89807  0.00269  2.73612     13.61311   2.0434  1.18886  12.39254   0.1263     0.24851  6480.11832    4294.7857  0.08462         4587.39601     16.90527    4e-05  58580.58193  3.10423   0.03335   8437464.18105  44.77872  19.42541  58694.45137    51.53348       44.48473   57.56986  80.08273  122.5    0.05579  -21.77041  0.99889 
  -12.78052  0.07809  1.42361     14.08122  1.43037  0.42706  63.33561  0.01362     0.01011  2870.57051   5031.52338  1.04247         5440.24057     19.99041  0.05434  58595.69948  3.11323   4.94596    185188.82729   46.8499  19.49632     58696.36    51.51327       44.47152   58.73177  78.92082  100.0    0.06223   -21.7427  0.93387 
  -35.77231  0.10773  2.04651     13.37721   1.6226  1.52651  11.02221  0.19781     0.01089   5812.8647   5448.05012  0.01691         2669.56556     17.42936  0.00015  58572.70769  2.22165   1.18747   11108056.8208  44.81139  19.45119     58695.34    51.52616       44.51117   54.33876  75.59201   81.5    0.06627  -21.74796  0.96957 
  -18.94225  0.14747  2.29045     13.90013  1.90903  0.92805  18.35104  0.17203     0.42672  6590.91936   9957.04539  1.29093         2447.04236     17.13244    8e-05  58589.53775  4.75532   2.70627   1473039.74576   45.6616  19.46533  58696.45402    51.51511       44.48433   55.06104  75.25008   66.0    0.05443  -21.75845  0.93822 
  -25.29639    0.014  2.27046     13.58483  1.63943  1.26706  16.39612  0.09669     0.01588   4995.1174   3655.77237  0.53723         3973.76228     18.27894  0.00106  58583.18361  2.44039   0.22952   5309704.34157  45.04624  19.45676     58693.31    51.40116       44.34505   59.24347  87.58597   96.0    0.05731  -21.64642  0.99298 
  -25.30638   0.0025  2.30675     13.69851  1.70137  0.91648  27.22816  0.05482     0.02204  4890.82208   4432.39426  0.57687         3950.36131     17.31179  0.00011  58583.17362  3.88516   0.06794    3369812.0193  45.24604  19.46528  58693.53858    51.51319       44.45613   60.56714  80.75619  110.0    0.05581  -21.64245  0.99796 
  -23.63369  0.00412  2.38473     13.58789  1.74336  1.36192   7.66443  0.17956     0.12945   5680.4557   5179.85033   0.2648         3110.78231     16.79723    3e-05  58584.84631  1.47528   0.03154   6141860.25176  44.96705  19.46745     58698.33    51.53438       44.53726   49.55493  78.54048  114.5    0.06127  -21.66114  0.99902 
  -19.93502   0.0118  2.18487     13.67805  1.65678  1.15697  20.08215  0.07422     0.36915  4890.48319   8660.30819   0.5177         5106.51988     16.85777    4e-05  58588.54498  2.86511   0.23705   3234602.83173  45.29944  19.45542   58696.0824    51.48203       44.50152   49.55493  73.41472   86.0    0.06442  -21.71092  0.99348 
  -20.04398  0.04646   2.0106      13.6403  1.62474  1.32941  20.39838  0.09263     0.02404  5565.31144   9050.45166  0.43904         3052.69396     19.98728  0.05395  58588.43602  3.76879   0.94763   3196369.01508  45.36832  19.49422  58694.45137    51.47589       44.49491   53.89913  74.19628   77.0    0.05768  -21.71222  0.97772 
  -20.25276  0.00262  1.67005     14.17519  1.80223  0.29792  93.76273  0.01324     0.12338  3697.06928   6668.11328  0.62558         5612.85991     20.54115  0.19314  58588.22724  7.64491   0.24545    208310.23082  46.76049  19.52134  58690.46884    51.51256       44.49539   54.33876  74.13699  110.5    0.05448   -21.9193  0.99655 
  -20.13176  0.19041  1.91469     13.47584  1.35457   1.4791   7.08335  0.19323     0.09734  5629.17365   6997.69693  0.13997         4675.37868     18.20148  0.00088  58588.34824  1.33892   1.34877   5153972.33319  45.12431  19.44781  58694.45137    51.45558         44.475   62.40251  71.57935  102.0    0.06322  -21.68397  0.96243 
  -27.25775    0.003  2.09649     13.92852    2.179  1.10377  27.69124  0.11174      0.1495  5738.30046   7802.53171  0.05454          4849.9272        19.33  0.01188  58581.22225  5.43921   0.08313   1235978.36927  45.87211   19.4603  58700.42383    51.50584       44.46626   58.73177  88.09766   79.5    0.05196   -21.6838  0.99862 
  -21.69993  0.00226  2.01486     13.73939  1.82042  1.52834  37.47926  0.04459     0.07861  4531.68294   4064.35753  0.44457         4850.21573     19.43276  0.01505  58586.78007  4.59132   0.08476   2278694.05236  45.56284  19.45479     58695.34    51.47705        44.4786   56.89641  77.08545   94.5    0.05661  -21.66585  0.99829 
  -20.32053  0.25121  1.85558     13.72746   1.3921  1.01259  24.57809  0.08495     0.01413  5159.01109   5067.29637  0.59636         3732.87678     17.46462  0.00016  58588.15947  3.90219   6.17415   1561412.89454  45.68204  19.42965     58695.34    51.50208       44.42064   62.40251  88.09766   93.0    0.05252  -21.63666  0.86375 
  -15.35223  0.00214  1.58824     13.69817  1.52133  1.48335  41.90747  0.03329     0.01191  3864.04335   9308.97061  0.79848         4413.93838     19.89159  0.04328  58593.12777  3.73252   0.08969   1430664.14519   45.8937  19.45386  58698.62622    51.46389       44.40819   60.56714  84.42692   77.5    0.06086  -21.60781  0.99854 
  -19.48803  0.00325   2.1538     13.98582  1.66705   0.4243   18.9523  0.13981     0.01112  6093.41535   4191.72686  2.00612         2750.55461     20.18505  0.08507  58588.99197  4.19769   0.06157    766537.20638  45.93985  19.45356  58694.45137    51.57248       44.56597    51.3903  73.41472   77.0    0.05742  -21.80709  0.99835 
  -16.63528  0.00708  1.41053     14.09215   1.7176  0.57369  19.97454  0.18624     0.01103  5895.16841   7498.11059  0.41743         3793.94965     19.22609  0.00935  58591.84472  4.14092   0.14145    207584.01999  46.88781  19.44107  58693.53858    51.49885       44.42135    62.6606   86.0042   68.0     0.0565  -21.70647   0.9985 
  -21.72016  0.01922  2.17142     13.71852  1.60853  0.88043  19.66726  0.09275     0.35976  5852.02149   6096.08481  0.17565         5190.31371     16.78525    3e-05  58586.75984  4.01775   0.37803    2574509.7142  45.39109  19.45394     58697.38    51.49019       44.49182   60.56714  77.08545   97.5    0.06243  -21.71017  0.98928 
  -23.08505  0.02013  2.49852     13.71861  1.80096   0.9012    14.897  0.09482     0.47448   5757.0979   3687.40723  0.34363         4607.50056     16.94143    5e-05  58585.39495  2.94532   0.29986   3814787.44437  45.14751  19.47618     58698.33    51.50607       44.44806   62.28844  82.70563  109.5    0.06221  -21.73084  0.99033 
  -20.80663  0.11554  2.05858     13.72161  1.45559  0.78947  20.14216  0.10006     0.01698  5847.19451   6823.15607  0.38282         3251.31462     18.04865  0.00062  58587.67337  4.10798   2.32724   2064237.44503  45.48999  19.41929     58698.33    51.47148       44.44628   70.85376  79.64641   85.0    0.06045  -21.67498  0.93507 
  -13.19034  0.42572  2.65353     13.71584  1.91076  1.35023   25.2021  0.04733     0.02974  4630.15024   3488.69633  2.68078         3352.77769     20.83695  0.38166  58595.28966  3.22295  10.72892   4623770.67438  45.03741  19.47719     58699.37    51.51497       44.39871   69.06168  96.12143  126.5    0.05933  -22.02119  0.73672 
  -19.66296  0.00441    2.232     13.68984  1.71562  1.33568  17.95046  0.08802     0.41445  5793.96978   5130.23239  0.20668          4377.8864     16.25497    1e-05  58588.81704  3.59464    0.0792   3310866.03272  45.28594  19.45079     58692.36    51.52191       44.47454   57.56986   81.9181   93.0    0.07165  -21.67621  0.99784 
  -34.46569   0.1909  1.80237     13.41546  1.33044   1.0322   9.15324  0.27836     0.01271  5542.67879   5783.28158   0.4682         2450.07676      18.8029  0.00353  58574.01431  1.67742   1.74733   5923572.17568  45.10857  19.46492     58695.39    51.56558       44.51115   58.73177  81.31307   79.0    0.06391  -21.67768  0.95519 
  -17.59141  0.01703  2.46343     13.60102  1.71257  1.50808  16.57834  0.06323     0.05783  3937.31722   3647.92149  1.37989         3688.54636     19.45393   0.0158  58590.88859   1.5331   0.28241   6060450.66848  44.93691  19.45337     58691.39    51.50482       44.50708    51.3903  77.08545  124.5    0.05706   -21.5806  0.99047 
   -16.5815  0.00329   1.5088     13.86106  1.79923  1.42102  18.95226  0.13964     0.02723  5162.42157    4749.3858  0.38359         5797.96343      17.5016  0.00018   58591.8985  3.01297    0.0624    721175.90124  46.30862  19.40937  58688.48708    51.44123       44.39501   60.56714  84.42692   77.5    0.05888  -21.73249  0.99929 
  -17.69585  0.01283  1.62444     13.79202  1.50932  0.87626  47.43754  0.03881     0.05023  4351.35513     5202.537  0.66802         4018.67316     18.16332  0.00081  58590.78415  5.35795   0.60849    963746.86182  46.04226  19.43398     58695.39    51.52021       44.51554    45.8842  80.75619   90.0    0.05632  -21.60134  0.98959 
   -20.2755  0.00264  2.15753      13.5374  1.56727  1.41521   18.5383  0.09115     0.01435   5903.9489   3631.37202  0.20447         5974.05455     17.79848  0.00035   58588.2045  3.85463   0.04885   5702487.59318  45.04001  19.43304     58686.36    51.52286       44.47112   53.89913   77.8065   84.0    0.06288  -21.77559  0.99855 
  -23.86738  0.32549  1.70852     14.10563   1.6253  0.28108  10.55618  0.17999     0.09785  6413.51507   8552.88022  0.08112         4428.06174     20.68583   0.2695  58584.61262  2.59016    3.4359    270853.68732  46.58181  19.42876  58692.46518    51.46135       44.44546   64.23788  80.75619   87.5    0.06156  -22.05165  0.94368 
  -22.89884  0.00196  2.41142     13.88772  1.78032  0.44113   16.1063  0.05445     0.37979  5628.15353   8265.20299  0.08419         5736.19806     17.58358  0.00021  58585.58116  3.04337   0.03164   1612182.89866  45.54738  19.42664  58692.46518     51.4501       44.44898    58.6177  77.75641  123.0    0.05659  -21.67141  0.99901 
  -21.71795  0.00249  1.81622     13.57787   1.4376  1.36432  13.37459  0.18931     0.22778   6415.4135   5770.04314  0.00262          4915.6135     16.47299    2e-05  58586.76205  3.28365   0.03336   3076430.45611   45.4201  19.46256     58693.34    51.49188       44.45388   55.73449  80.63961   86.5    0.06334  -21.73887  0.99922 
