 log(Bfield)      Mns    Pspin  cutoff_power  cutoff_wavelength  fnickel    kappa  kappagamma   mejecta  log(nhhost)  temperature  texplosion  thetaPB      vejecta      A_V        MJD_0   log(KE)      M_Ni  Peak_mag     Peak_MJD 
    14.07454   1.6239  3.59711       0.56212         2927.98484  0.44095  0.10835     0.49354     5.417     18.20337   7840.59779   -15.23792  1.56444    13808.776  0.00089  53948.16208  52.81812  25.50204  22.62525  53998.51629 
    14.35156  2.03652  3.12336       0.93386         2754.90738  0.11968  0.25888     0.18512   3.06936     19.75013   3070.38148   -10.87219  1.17094  13549.85403  0.03125  53952.52781  52.73514   5.93815  22.59594  53998.51629 
    14.18241  1.74886  3.18447       0.88312         2475.65477  0.21631  0.16616     0.13229   5.08809     17.98729   3307.91812   -13.16671  1.21237   15778.3726  0.00054  53950.23329  52.92708  12.31426  22.51789      53996.7 
     14.3312  1.96985  3.23462       0.84989         3021.48304  0.32799  0.31376     0.41722   2.53926     17.78136    5078.5698    -9.90766  1.16734  14599.85494  0.00034  53953.49234  52.77528  15.37491  22.64644  53998.51629 
     14.0869  1.98314  4.10774       0.23042         3162.33127  0.17062  0.13559     0.15574   3.62288     19.03793   6551.41096   -18.43314  0.96382    17068.527  0.00606  53944.96686  52.95616   8.87487  22.49371  53995.58496 
     14.4786  1.62025  3.39119       0.81697         2479.27974  0.13456  0.04242      0.2969   12.5611     20.10916   9012.21488   -17.33219  0.25278  17539.47502  0.07143  53946.06781  53.10874    9.4188  22.57865      53996.7 
    14.31609  1.67576  3.84384       1.10724         2402.36092  0.17756  0.05666     0.32025   6.78082     16.61264   4380.22075   -15.76903  0.40461  15602.57712    2e-05  53947.63097  52.94793  10.84538  22.58503  53998.51629 
    13.95816  1.63553  3.57713       0.84241         2399.82847  0.05393  0.09703     0.21208   3.97347     18.00229   3313.30237   -18.11993  0.82688  15928.60113  0.00056  53945.28007  52.90714   2.87717  22.57143  53998.51629 
    13.98067  2.01467   4.4037       0.29412         2676.81342  0.23015  0.04367     0.17958  10.26252     16.13204   8842.78133    -19.6501  1.41537  16816.62836    1e-05   53943.7499  53.05366  15.43751  22.50664  53998.51629 
    14.03588  1.78976  3.70097       0.92606         2914.32007   0.1061  0.22169     0.04705   2.24165     17.61182   8579.59104   -18.57278  1.47282  11776.99015  0.00023  53944.82722  52.57162   4.78212  22.48665      53996.7 
    14.36438  1.37348   2.5077       0.90663         2557.76121  0.19135  0.04656     0.01193  18.98639     17.95076   3999.47302   -12.19511  0.56945  14546.04148   0.0005  53951.20489  52.98177   14.5375  22.49459  53998.51629 
    14.29667  1.73248  4.13601        1.5715         2138.06184  0.40725  0.04771     0.21237   7.82249     19.41691   6693.20759    -18.4734  0.40862  14944.83184  0.01451   53944.9266  52.92497  25.71722  22.61207  53998.51629 
    14.26441  2.04557  4.09413       0.37001         3163.68046   0.0687  0.12808     0.21835   3.68349     17.91024   6621.54023   -20.79109  0.52296  15718.15986  0.00045  53942.60891  52.88657   3.59026    22.464      53996.7 
    14.02643  2.07293  4.44555        1.0287         2768.45244  0.05455   0.1331     0.20377   2.07168     18.79272   9962.33348    -18.0917  1.28158  12361.48547  0.00345   53945.3083  52.60256   2.39677  22.64136  53998.51629 
    14.14162  1.81068  3.99401       1.17938         2117.13335  0.27732  0.05702     0.09791  11.06455      16.5122   7441.46087    -15.8662  1.09362  16238.58879    2e-05   53947.5338  53.03027  18.90293  22.55133  53998.51629 
    14.27247  1.75999   3.7766         0.705         2921.67386  0.47543  0.17305     0.29041   2.94096      19.5158   7112.13666   -17.79349  0.56061   14551.4931  0.01822  53945.60651  52.79164  23.29663  22.48511  53998.51629 
    14.09245  1.84315  3.99403       1.21841         2179.97008  0.12705  0.19668     0.17037   2.27445      16.8255   8091.44786   -16.65317  0.87712  15612.93511    4e-05  53946.74683  52.81854   5.75339  22.46295  53998.51629 
    13.83064   1.4223  3.44107       0.87572          2525.8129  0.32547  0.06347     0.03031   5.84192     18.11667   4830.08537   -18.50263  1.39448   13408.6584  0.00073  53944.89737  52.80071  19.17885  22.53287  53995.58496 
    14.35776  1.85717  3.47814       2.37009         2126.15841   0.1852  0.19043     0.09924   3.81557     16.23854   9587.43058   -16.92676   0.7355  12685.97436    1e-05  53946.47324  52.70463     9.772  22.48935      53996.7 
    13.96358  1.80329  3.88176       0.74739         2861.17954  0.02694  0.27593     0.14507   1.24538     19.36086   9259.86959   -16.44106  1.05857   14774.7953  0.01275  53946.95894  52.67784   0.98511  22.53162      53996.7 
    14.07738  1.31811  2.62399       1.06701         2130.03149  0.07106  0.03192     0.33758  28.78211     18.44195   9958.88346    -13.6524  0.86471   16742.3074  0.00154   53949.7476  53.13701   5.82616  22.55799  53998.51629 
    14.16523  1.75683  3.33418       0.11674         2748.24616  0.14458  0.19561     0.03745   4.75852     16.28202   3411.62217   -19.94454   0.7237  17322.75076    1e-05  53943.45546  53.00074   8.09083  22.54374      54000.5 
    13.98387  1.80426  3.76187       0.61029          2817.5726  0.14804  0.16821     0.08006   2.42764     19.85946   6443.21948   -16.71841  1.33623  14736.92664   0.0402  53946.68159  52.77733   6.84318  22.61372  53998.51629 
    14.25659  1.73724  3.18811       1.65929         2275.69843  0.28001  0.07359     0.41774  11.18504     16.44773   7084.92818   -10.38312  1.26121    15294.325    2e-05  53953.01688  52.97923  19.12997  22.68683      54000.5 
    14.70526  2.02575  4.63237       1.22342         2494.05625  0.36827  0.05222     0.20577   9.03463     16.47938   6188.08701   -16.31484  0.30274  13713.38472    2e-05  53947.08516  52.86438  24.02291  22.54425  53998.51629 
     14.1086  1.93881  3.93551       0.89784         2165.86017  0.05961  0.28602     0.38228   1.71354     19.46071    4785.6413    -17.0577  0.83226  16867.77316  0.01605   53946.3423  52.84452   2.45544  22.53738      54000.4 
    14.42093  1.67768   3.8811       1.39971         2547.13735  0.35995  0.04325     0.08185   8.60434     20.03131    6233.0992    -14.8475  0.43544  12272.27372  0.05971   53948.5525  52.76321  23.22616  22.58828  53998.51629 
    14.53702  1.59747  2.82899       1.73802         2068.05516  0.18345  0.09376     0.05298   9.63731     16.06304   8650.79945   -11.33534  0.43806   15274.2927    1e-05  53952.06466  52.96418  12.13842  22.52605  53998.51629 
    13.95308  1.98579  4.08378       0.98294          2927.1519  0.03843  0.28198     0.11642   0.89206      18.7554   7993.72705   -18.81459  1.01333  12399.84553  0.00316  53944.58541  52.46418   1.22004  22.46118  53998.51629 
    14.03563  1.53505  3.77322       1.59852         2730.63502  0.03349  0.13211     0.08526   1.31101     17.66491   3568.28174   -12.00911  0.84077  10617.69713  0.00026  53951.39089  52.39959   1.24977  22.56139  53998.51629 
    14.28785  1.86302  4.05925       0.53155         2939.25435  0.10509  0.01723     0.03666  39.90373     17.72013   6500.85192   -17.95744  0.65929  17180.33074  0.00029  53945.44256  53.18378   9.11305  22.60802      54000.4 
    14.07671  1.93645  4.20309       1.10124         2853.69119  0.00121  0.15598     0.11805   2.27859     18.72692   3260.17551   -18.34672  1.33556  11072.76149  0.00296  53945.05328  52.52034   0.05469  22.60436  53998.51629 
    14.97424  2.00732  4.20434       1.55348         2447.02995  0.49387  0.03795     0.01008  17.76274     17.23589   8877.32739   -12.50734  0.30058   14332.6656   0.0001  53950.89266  52.96339  37.04474  22.59582  53998.51629 
    14.15669  1.81362  3.12369       0.33127         2952.63842  0.14178  0.23286     0.08878   4.25649     19.20618   9887.93095    -12.7754  1.53796  17884.64505  0.00893   53950.6246  53.01577   7.70527  22.61048  53998.51629 
    14.23502  1.92979  3.49467       0.38596         3068.65835  0.22797  0.24651     0.04455   3.38889     19.07908   7364.07427   -14.28437  1.00574  15554.24852  0.00667  53949.11563  52.86733  11.63822  22.58958  53998.51629 
     13.7823  1.43401  3.19996       1.71705          2055.0442  0.11984  0.22036     0.48521   2.25359     16.72923   7268.79196    -16.1179  1.47995  18133.78327    3e-05   53947.2821  52.94727   5.41072  22.46755  53995.58496 
    14.14841  1.24154  2.77553       1.02234         2755.58064  0.17733  0.10421     0.03457   5.35707     17.08267   4471.23396   -14.59978  0.61453  12548.56287    7e-05  53948.80022  52.73379    10.227  22.55865  53995.58496 
    14.78425  2.00108  4.28062       1.23227         2172.34787  0.35407  0.12856     0.07761   3.53347     17.63737   6551.82399   -16.42487  0.18054  16837.11906  0.00024  53946.97513  52.94128  18.28938  22.52605      54000.4 
    14.68486  1.77147  2.77665       1.36675         2353.95902  0.29588  0.05607     0.04099  18.30243      18.3163   8232.58674      -9.964  0.46064  16008.47745  0.00115    53953.436  53.06194  22.32194   22.5399      53996.5 
    14.12432  1.65574  3.25239       2.47838         2018.96272   0.1198  0.09127     0.10749   8.39531     19.18965   7634.36813   -12.47265  1.36404  15855.28363   0.0086  53950.92735  52.98331   7.68785  22.47365  53998.51629 
     14.4318   1.8766  4.31114       2.17193         2656.96762  0.12893  0.01992     0.03661  14.94803     16.16506    7606.7544   -13.78161  0.64067   8847.11378    1e-05  53949.61839  52.52965    9.3493  22.43546  53998.51629 
    14.30682  1.65807  2.62169       1.87363         2683.33963  0.08177  0.21888     0.08003   1.86069     18.64228   6509.27235    -8.77586  1.24721   7499.03669  0.00244  53954.62414   52.1528   3.46527  22.59998  53998.51629 
    13.95352  1.72815  3.75936       1.15642         2214.29215  0.11219  0.09385     0.11887   4.74308     16.96048   8329.98853   -17.59567  1.05501  16830.63459    5e-05  53945.80433  52.97534   6.27262  22.53336  53998.51629 
    14.52262  1.56754  2.82626        2.2356          2066.7968  0.01735  0.29845     0.17098   2.65899     16.72973   8221.03952   -13.96269  0.39788  12727.13036    3e-05  53949.43731  52.66218   0.82501  22.59555  53998.51629 
    14.46523  1.56694  3.47231       0.81282         3095.97812  0.32955  0.05199     0.04499  10.25179     18.26937   8672.44774   -14.96397  0.43099  12954.45475  0.00103  53948.43603  52.82693  22.09962  22.59634  53998.51629 
    14.12684  1.52173  3.44071       1.25687         2373.67917  0.04785  0.05138     0.22764   8.18083     16.71207   8820.42615   -21.02522  0.49532  12530.88001    3e-05  53942.37478  52.77638   3.05289  22.48713      53996.7 
    14.05039  1.30879  2.43629       0.32295         2357.13139  0.47589  0.31317     0.21769   3.64544     17.00273   5725.84729   -12.68196  0.92154   19163.0536    6e-05  53950.71804  53.05745  24.79691  22.57713  53998.51629 
    14.23659  1.78428  3.03726       1.50142         2645.36789  0.25765   0.3054     0.39903   2.26031     16.51382   5619.14724   -10.06841  1.52559   12019.8434    2e-05  53953.33159   52.5905  11.64437  22.47764  53998.51629 
    14.66685  2.05568  4.33578       1.39281         2218.48463  0.20139   0.0723     0.48669   7.68148     19.15563   7745.48841   -16.66611  0.30114  15615.20842  0.00795  53946.73389  52.96127  12.66456  22.54467  53998.51629 
    14.20737  1.70015  3.28668       0.12726         3196.72302  0.31665  0.23196     0.07346   1.87896     19.74089   6285.73705   -20.22882  0.33469  17109.64926  0.03059  53943.17118  52.87072  13.46451  22.61989  53998.51629 
    14.64374  1.87878  3.95271       1.89628         2370.93922  0.23294  0.02534     0.01917  15.92932     20.25238   7184.40018   -11.69884  0.40386   11940.6255  0.09934  53951.70116  52.79557   17.1058  22.54521  53998.51629 
    13.89933  1.57879  3.56849       0.62646         2659.03362  0.20664   0.0903     0.24872   5.22198     18.36288   6569.13864    -18.1898  1.30903  14808.92464  0.00128   53945.2102  52.87486  11.84147  22.54838      53996.7 
    14.08878  1.70813  3.94656       1.19571         2181.54454  0.49341  0.09714     0.09981   5.86511     17.69347   9535.81336   -16.38541  0.93112  17566.07204  0.00027  53947.01459  53.03571  29.10307  22.53182  53998.51629 
    14.00575  1.98465  4.14023       1.02498         2093.42273   0.1953   0.2066     0.35649   2.40989     16.54235   7945.32055   -18.41441  1.28702  16886.47579    2e-05  53944.98559   52.8946   9.00713  22.57756  53998.51629 
    14.65992  1.68638  3.54549       1.63302         2600.16625  0.25291  0.28567     0.06936   1.33579     20.06579   4447.50618   -16.08949  0.24005  10855.64138  0.06464  53947.31051  52.42198    9.5062  22.67754  53998.51629 
    14.24524  1.60588  3.61738        1.5032         2765.66749  0.00318  0.16957     0.04628   1.56772     19.32347   5003.04706   -20.13602  0.43023  10027.98447   0.0117  53943.26398  52.37905   0.12671  22.48091  53998.51629 
     13.8751  1.29399  2.66044       0.67436         2312.30024  0.08049  0.13389     0.02949   4.51917     20.09787   3310.00872   -20.89901  0.66607  15617.38827   0.0696  53942.50099  52.90489   4.44439  22.52265  53998.51629 
    14.01019  1.79695  3.85023       0.51717         3192.82474   0.0513  0.07803     0.42124   4.63268     17.32079   6547.19451   -19.52232  0.81585   14996.0815  0.00012  53943.87768  52.87244    2.8507  22.51984      53996.7 
    13.98934  1.57459  3.00419        0.5774         2063.86485  0.17828  0.13728     0.31902   7.83918     17.90667   5916.85875    -17.5888  1.41045  18804.47911  0.00045   53945.8112  53.12472  11.26335  22.53518  53998.51629 
    13.86876  1.33606  3.35964       1.27986         2551.65225  0.13465   0.0223     0.03814  20.11946     16.97686   7435.09044   -15.56591  1.50219  14322.10365    5e-05  53947.83409  52.97306  10.34271   22.4822  53998.51629 
    14.04065  1.53412  2.91364       2.11264         2122.11738   0.1167  0.07858     0.03565   9.84246     20.04703   8353.42426   -13.76926  1.54778  15145.82068  0.06191  53949.63074  52.95884   7.75682   22.5286      53996.7 
    14.11807   1.7838   3.4091        0.3507         3355.13508  0.35182  0.20901     0.26675   4.04266     17.13731   9029.90343   -16.55462  1.37025  15226.93092    8e-05  53946.84538  52.87003  18.85801   22.5052  53998.51629 
     14.0631  1.99451  4.32866        1.2231         2008.58586  0.33456  0.07365     0.05914   7.49708     16.02762   3913.22646   -17.54826  1.48102  16657.77933    1e-05  53945.85174  53.01498  20.92115   22.5597      54000.4 
    14.16721   1.8631  4.48496       1.25786         2634.96665  0.22034  0.02409     0.39393  16.66569     17.97441   8329.92442   -16.56507  1.08492  12908.24397  0.00052  53946.83493   52.8671  16.32433  22.55264  53998.51629 
    14.88716  1.68632  3.25816       0.99242          2765.6457  0.14458  0.03532     0.10952  22.79998     17.05591   9807.16651   -12.73383  0.19822  15642.53054    6e-05  53950.66617  53.05977  11.36657   22.5581  53998.51629 
    14.23619  1.38783  2.84829        1.6045         2288.05205  0.09623  0.11204     0.12475   3.81695     20.36998   9136.69066   -17.92013  0.31509  15346.07416  0.13023  53945.47987  52.87002   5.07811  22.51543  53998.51629 
    14.54412  2.11877   5.0078       1.69766         2650.10511  0.49607  0.04425     0.11408   7.02229     17.14137   4513.55842    -17.4868  0.48485  10034.89369    8e-05   53945.9132  52.56815  30.55169  22.58481  53998.51629 
    14.33925  2.12984  2.87297        2.2836         2004.19112  0.10053  0.17026     0.03382   8.63452     19.42897   9052.05845   -11.06143  1.22464  17245.47264  0.01492  53952.33857  53.05905    6.4922  22.56024  53998.51629 
    14.50142  1.45755  2.66507       1.12953         4686.49251  0.01651  0.19425     0.01246   2.78474     16.03039   6553.27618   -18.49628  0.25916   9333.99571    1e-05  53944.90372  52.39891   0.79601  22.63598  53998.51629 
    14.61355  1.45244  2.88194       0.88487         3022.68895  0.34696  0.04277     0.26075  15.63428     18.13659   4841.47588    -13.4508  0.35452  12479.48167  0.00076   53949.9492  52.83231  25.38461   22.5248      53996.5 
    14.20227  1.49249  3.34897       0.86667         2349.85104  0.46775  0.18503     0.05009   3.18384     18.24259   7001.41585    -14.5021  0.66631   14403.7989  0.00097   53948.8979  52.79284  23.45669  22.61115  53998.51629 
    13.87409   1.5134  3.21306       0.01724         3340.28785  0.13188   0.1346     0.14436   4.27785     16.61855    5755.1089   -20.49252  0.83488   19317.6434    2e-05  53942.90748  53.08329   7.17702  22.61893  53998.51629 
    13.92241  1.68093  3.52287       1.42879         2613.35197  0.12942  0.17485     0.11353   1.68961     20.33432   5803.06682   -16.66542  1.45023  12023.26505  0.11996  53946.73458   52.5483   5.30422  22.54476      54000.4 
    13.83194    1.682  3.54669       0.72669         2210.06588  0.15117  0.16149     0.17286   2.59938     19.61757   9818.91953   -18.94651  1.28645  16674.72825  0.02303  53944.45349  52.89383   7.13775  22.44977  53998.51629 
    13.88274  1.61325  3.52294       0.53893         2673.84658  0.05272   0.0754     0.03165   5.96234     19.54518   3540.16087    -17.7964  1.53728  15179.55449  0.01949   53945.6036  52.91062   3.12191  22.57033  53998.51629 
    14.22019  1.58947  3.03793       1.69444         2311.70052  0.09916  0.12242     0.09188    5.5159     16.31584   6706.91074    -11.2161  0.93764  13467.63244    1e-05   53952.1839  52.79835   5.76075  22.53831  53998.51629 
     14.8098  1.74666  3.30419       1.20916         2789.19477  0.24306  0.32039     0.31162   1.96984     19.25552    6458.9867   -15.98909  0.22598  10993.86551  0.01001  53947.41091  52.49346  10.50133  22.51245  53998.51629 
    14.14485  1.52995   2.4081       2.08106         2073.70626  0.04407  0.16486     0.09446   6.52401      17.8403   9159.68615     -9.4594  1.43825  15444.19969  0.00038   53953.9406  52.93508   2.66752  22.60245      54000.5 
    14.37185  1.79326  3.85222       0.53602         2642.34677  0.08021  0.06189     0.08154   7.76123      18.9775   4732.80445   -18.07755  0.44454  14132.54042  0.00528  53945.32245  52.87565    5.0559  22.52856  53998.51629 
    14.62219  1.98412  3.99398       0.74491         2641.32292  0.32125   0.0897     0.01994   5.64667     18.67649    8716.2506   -20.06311  0.20154  15345.88577  0.00264  53943.33689  52.91428  18.77203  22.47546  53998.51629 
    14.08894  2.07966  4.47643       0.66031         3124.86943  0.09523  0.04549     0.05786   7.34568     18.37103   3057.71319   -18.65388  1.07821  12830.38073  0.00131  53944.74612  52.78617   5.92728  22.50426  53998.51629 
    14.22188  1.45251  2.55111       0.84117         3807.41679  0.06226  0.13264     0.01261   5.95186     18.27831      4416.83   -17.70872  0.61397  10916.76232  0.00105  53945.69128  52.62411   3.68575  22.48566  53998.51629 
    14.00891  1.49717  3.51573       1.26276         2553.24328  0.21309  0.04178     0.21511   12.0491     18.33825   7368.74575   -18.49691  1.17365  12565.83195  0.00121  53944.90309  52.81534  14.78789  22.50376  53998.51629 
    14.10178  1.58431  3.20535       1.19067         2612.30343  0.28802  0.08808      0.4984   7.16601     16.86048   5922.20075   -14.23438  1.37647  12281.20136    4e-05  53949.16562  52.74566  17.82282   22.5268  53998.51629 
    14.05925  1.85727  3.81717       0.05284         2781.09386  0.22921  0.16293     0.29428   3.98099      16.2296   9889.68227    -19.8177   0.9789  17765.43926    1e-05   53943.5823  53.00216  12.23496   22.5785      53996.7 
