 texplosion  fnickel    Pspin  log(Bfield)      Mns  thetaPB   mejecta    kappa  kappagamma      vejecta  temperature    alpha  cutoff_wavelength  log(nhhost)      A_V         MJD0  kenergy  mnickel            TSD   log(L0)  Peak_mag     Peak_MJD  log(E_rad)  log(Peak_lum)  Rise_Time    E_fold  tau_1  delta_m15     r_peak     frac 
  -19.27056  0.19009  3.34295     13.95608  1.61152  1.45227   3.24117   0.2007     0.02935  13566.85629   8454.74324   1.1054         2839.97123     17.76863  0.00033  53944.12944  3.55867  0.61611  2047194.78963  45.11666  22.58398      54000.5     51.0476        44.5157   22.75111  25.59499   26.5     0.4554  -21.70513  0.96058 
  -13.91238   0.0357  3.15121     14.55648  1.73563  0.42704   3.84587  0.16302     0.05254  11365.20183   7945.18067  1.87061         2934.86515     17.25546   0.0001  53949.48762  2.96331   0.1373   123384.85427  46.42009  22.58547  53999.70217    51.10427       44.49939   20.85518  29.38684   32.0    0.36456  -21.61194  0.99287 
  -18.25388  0.03983  3.61506     13.89008  1.60182  1.40063   2.79155  0.14085     0.11715  13883.77424   6610.87276   1.4459         2594.47455     17.76574  0.00032  53945.14612  3.20987   0.1112  3224718.96457  44.84874   22.5949  53999.70217    51.07309       44.49581   19.90722  28.43888   44.5    0.31655  -21.68787  0.99125 
  -15.42243  0.12547  3.15377     14.22505  1.62213  0.66069     3.715  0.16799     0.11822  14455.11107   9852.12191  1.31984         2703.77186     20.17953    0.084  53947.97757  4.63051  0.46613   531441.80725  45.75581  22.61743  53997.24875    51.04355       44.48041    17.3716  29.07858   29.0    0.35961  -21.82579  0.97351 
  -14.93761  0.11986  3.37727     14.21574  1.66952  0.95348   4.27311  0.14556     0.18119  12686.64648   8418.28929  1.73419         2647.74788     16.21896    1e-05  53948.46239  4.10266  0.51219   654717.28808  45.61825  22.51371  53999.70217    51.12883       44.51493   22.75111  31.28277   33.0    0.36564  -21.59182  0.96832 
  -17.32471  0.10093  3.59629      14.1761  1.81695  1.08819   3.56888   0.1853     0.05196  13717.17897   7603.81818  1.31475         2721.79566     17.69916  0.00028  53946.07529  4.00579   0.3602   969786.65349   45.4298  22.55778  53999.70217    51.08211       44.52311   19.26752  27.18265   30.0    0.39097  -21.68605  0.97747 
   -14.6348  0.08125  3.57481     14.19485   1.6131  0.86768   4.12318  0.09718     0.13112  10888.36126   8541.40505  1.85764         2792.32529     16.65533    3e-05   53948.7652  2.91598    0.335   780345.31958  45.47771  22.55084  53997.24875    51.19406       44.67141   18.95925  25.59499   37.0    0.37272  -21.49946   0.9753 
  -16.83447  0.06944  4.17769     14.08361   1.8507  0.93898   4.21711  0.07392      0.1602  12120.30639   4151.01111   1.5228         2795.63152     16.44202    2e-05  53946.56553  3.69546  0.29285  2040810.00752  44.98451  22.53372  53997.24875    51.12127       44.51629   20.47918  28.43888   56.0    0.29383  -21.58395  0.97561 
  -15.55677   0.1401  3.52709     14.32512  1.83563  0.78405   4.39042  0.15248     0.04538  12674.22491   8084.17717  1.52295         2696.17533     19.12308  0.00738  53947.84323  4.20703  0.61511   474455.35096   45.7616  22.60671      54000.4    51.07918       44.49504   20.85518  29.38684   30.5    0.36259  -21.62095  0.96415 
   -6.29185  0.05382   1.5546     14.34426  1.73043  1.35635   7.30046   0.1774     0.06974  14090.86726   8720.47918  1.30645          3072.5825     19.44924  0.01563  53957.10815  8.64675  0.39293    79557.01585  47.22308  22.54335  53997.24875    51.12164       44.48645   20.21549  29.07858   27.5    0.31662  -21.70763  0.99558 
  -15.55214  0.10221  3.46688     14.10553  1.60399  0.98879  12.61683  0.03386     0.02309  10741.35863    6979.6422  1.51774         2957.21911     18.38914  0.00136  53947.84786  8.68352  1.28952  1101112.92957  45.35234  22.53601  53997.24875    51.09601       44.53041   19.90722  26.54296   46.0    0.31938  -21.58493   0.9152 
  -15.52792  0.19609  4.26213     14.27437  1.94479  0.88989   5.47022   0.0679     0.14414  10516.99485   5009.99119  1.64714         2912.26059      17.3767  0.00013  53947.87208  3.60923  1.07267   927281.18919  45.33125  22.53835  53999.70217    51.14089       44.53943   21.80314  31.28277   50.0    0.33613  -21.50464  0.91969 
  -17.40772  0.03867  3.55807     14.30201  1.74886  0.62748   3.43849    0.163      0.2048   12108.5216   8928.91686   1.7385         2760.06702     17.40045  0.00014  53945.99228   3.0073  0.13295   511649.74344   45.7002  22.54154  53999.70217    51.08994       44.49764   21.80314  30.33481   35.5    0.32347   -21.6426  0.99124 
  -11.41834  0.07112  2.39674      14.3453  1.64285  0.91896   5.64247  0.15483     0.08739  12922.51356   8602.42865  1.53281         2850.58004     16.21152    1e-05  53951.98166   5.6207  0.40129   178672.01383  46.47315  22.53123  53997.24875    51.10384       44.50903   19.90722  26.54296   28.5    0.34623  -21.59057  0.98717 
   -13.5895  0.25203  3.81806     14.42943   1.9728  0.76554   4.30074  0.12168      0.0329  10769.14708    6709.9901  2.04324         2675.83823     18.46486  0.00162   53949.8105  2.97532  1.08392   369598.42291  45.83251  22.55205  53999.70217    51.14339       44.54236   20.85518  28.43888   35.5    0.34917  -21.48439  0.93564 
  -18.07272  0.13058  3.25858     14.26611  1.52471   0.5106   2.80885  0.21846     0.40442  15134.90949   9842.87791  1.19126         2678.50895     18.58188  0.00212  53945.32728  3.83809  0.36678   441413.85368  45.78113  22.54703  53997.24875    51.15573       44.51038   20.47918  31.28277   30.0     0.3768  -21.77641  0.97545 
  -18.55069  0.03479  3.32033     13.96688  1.47275   0.8738   1.93516  0.27481      0.2298  15731.21724   9853.74198  1.20904         2539.11321     18.99657  0.00551  53944.84931  2.85672  0.06732  1756058.07243  45.15007  22.49432  53997.24875    51.05553       44.50102   18.01129  25.59499   30.5    0.36406   -21.7833  0.99493 
  -15.90985  0.23555  3.89602     13.96598  1.66685  1.39975   2.87412  0.13332      0.4399  13781.78529   7836.72621  1.52131         2601.65182     16.55353    2e-05  53947.49015  3.25644  0.67699  2747930.17632  44.87049  22.45968  53997.24875    51.05327       44.52155   18.95925  25.59499   47.0     0.3296  -21.64641  0.94466 
  -19.21276  0.03027  3.12837     13.90641  1.41564  0.97262   2.55603  0.23886     0.04828  15413.04953   9923.63701  1.23829         2534.20084     16.95274    5e-05  53944.18724  3.62218  0.07737  1979590.05117  45.13259  22.51601      53996.7     51.1248       44.50934   19.90722  27.49092   22.5    0.48293   -21.7647  0.99452 
  -17.37885   0.0102  3.95674     13.99587  1.86523  1.09979   1.15837  0.32124     0.19207  14750.67917   9815.23988  0.87899         2935.07033     19.12918  0.00748  53946.02115  1.50348  0.01182  2763671.65966  44.90341  22.55248  53997.24875    51.03549       44.48329   19.26752  28.13061   31.0    0.32614  -21.76229   0.9991 
  -15.47943  0.15451  3.75129     14.30911  1.95409  1.03749   3.42518  0.16911     0.38948  12261.52494   5972.51979  1.72147         2754.42244       18.616  0.00229  53947.92057  3.07185  0.52922   615041.04261  45.62253    22.517      53996.7    51.07138       44.50843   19.90722  25.59499   38.0    0.36862    -21.585  0.96814 
  -14.05585  0.06475  3.52473     14.57087  2.07725  0.50877   4.92085  0.13495     0.02713   12739.9214   5506.93775  1.48138         2748.16196     20.01542  0.05756  53949.34415  4.76432  0.31864   172904.88599  46.25428  22.52731  53999.70217    51.09766       44.51316   21.42714  29.38684   30.0    0.40445  -21.68908   0.9843 
  -17.75772   0.1555  3.67173     14.03692  1.73138  1.36793   2.96769  0.18136     0.16961  13861.87257   8490.88088  1.24953         2847.42611     16.68297    3e-05  53945.64228  3.40165  0.46149   1828525.5985  45.11539  22.53973  53997.24875    51.15267        44.5164   18.95925  30.33481   36.5    0.34084  -21.72792   0.9678 
  -14.86391  0.41015  3.78333     14.22514  1.73961   0.8778   3.68799  0.13419     0.28661  13258.60187   9769.57835  1.63376         2656.66115      19.0256  0.00589  53948.53609  3.86734  1.51262   819839.99433  45.43982  22.52581  53997.24875    51.07083       44.55082   19.90722  25.59499   32.5    0.35706  -21.65416  0.89729 
   -16.3176  0.25385  3.98139     14.28141  1.74775  0.72148   5.67195  0.06723     0.16114  11240.99322   7260.88329  1.66165         2756.33599     18.15077  0.00079   53947.0824  4.27532  1.43981   703952.85232  45.46371  22.55898  53997.24875    51.09897       44.51058   18.95925  27.49092   48.5     0.3366  -21.51894  0.89281 
  -16.21985  0.11367  3.72119     14.08128  1.76393  1.18082   3.66181  0.14114     0.22407  13609.95138   8720.39384  1.32765         2801.65319     18.37798  0.00133  53947.18015   4.0461  0.41625  1559909.44336  45.18086   22.5343  53997.24875    51.06768       44.50707   17.06333  27.49092   36.5    0.34448  -21.71467  0.97091 
  -12.43307  0.19147  3.33138     14.45192  1.86549  0.75088   6.14894  0.09224     0.23756  10239.52072   9577.20019  2.28213         2672.75937     16.82678    4e-05  53950.96693   3.8458  1.17736   239891.98582  46.11437  22.54246  53997.24875    51.12002       44.51423   19.90722  28.43888   32.0    0.32332    -21.446  0.94198 
  -13.72232  0.08274  3.23562     14.29846  1.87003  0.98255   3.94012  0.23071     0.18264  15100.83079   8860.11021  1.32607         2571.08382     17.09918    7e-05  53949.67768  5.35968  0.32601   459887.91084  45.85813  22.52499  53999.70217    51.11275       44.50871   21.42714  29.38684   28.0    0.37018  -21.72995  0.98418 
  -18.67677  0.16613  3.57643     14.07708  1.60343  0.54602   2.63466  0.12565     0.05414  13390.90906   9584.42578  1.35079         2689.11778     18.26411  0.00102  53944.72323   2.8182   0.4377  1335356.95086   45.2414  22.51762  53997.24875    51.08923       44.52745   21.16345  29.07858   32.5    0.31409  -21.68346  0.96678 
     -16.74  0.05457  3.38925     13.90435  1.53286  1.20825   3.94165  0.09169     0.06223  12657.71945   5037.97108  1.43381         2756.08146     20.00231  0.05585     53946.66  3.76718  0.21509  2539982.29404  44.98931  22.65742  53999.70217     51.0391       44.50991   20.17685  26.27333   45.0    0.31104  -21.68542  0.98428 
  -19.95013  0.16642  3.49214     13.94967  1.39481  0.87649   2.58978  0.11528     0.09133  10519.33541   7900.58794  3.04618         2278.99483     17.34974  0.00012  53943.44987  1.70949  0.43098  1991480.77056    45.028  22.57134  53997.24875    51.07636       44.51672   18.01129  25.59499   49.5     0.2782  -21.39994  0.96226 
  -15.73467  0.10354  3.55443     14.11828   1.6941   1.1492   2.97918  0.17831     0.21321  13006.56835   9423.01585  1.15695         2923.55355     17.19524    9e-05  53947.66533  3.00642  0.30845  1152724.78525  45.33452  22.59358  53999.70217     51.1228       44.49339   19.26752  28.13061   31.5     0.3811  -21.64147  0.97901 
  -13.75989  0.27736  3.81529     14.72362  1.86032   0.3498  10.12376  0.06766     0.03485  12620.40533   9253.04054  1.63002         2738.57837     17.91954  0.00046  53949.64011  9.61868  2.80791    89788.56312  46.42216  22.55741  53999.70217    51.06292       44.50751   19.26752  27.18265   33.5    0.32632  -21.57166  0.83734 
  -12.38332  0.14651  2.18749     14.00272   1.2967   1.3181   3.09427   0.2786     0.33514  13950.78623    9904.4886  1.40759         2942.56673     20.07376  0.06584  53951.01668  3.59239  0.45333   568981.50054   45.9467  22.52152  53997.24875    51.16099       44.53978   21.80314  31.28277   27.0    0.36362  -21.80288  0.98266 
  -17.14506  0.01354  3.26324     14.21203  1.62934  0.72349   2.68625  0.22638     0.19075  12152.23605   4754.18174  1.61442         2686.32381     16.53496    2e-05  53946.25494  2.36639  0.03637    606840.1186  45.67048  22.54727  53999.70217    51.06545       44.49567   19.90722  27.49092   41.0    0.32222   -21.6352  0.99775 
  -14.72838  0.07185  3.01969     14.09187  1.62556  1.43471   2.87771  0.28925     0.15132   14920.4075   9720.49989  1.15379         2709.90717     18.90047  0.00442  53948.67162  3.82152  0.20676   901557.63759  45.56493  22.57735      53996.5    51.03485       44.49555    15.1674  28.43888   26.0     0.3867  -21.76062  0.98914 
  -16.48582  0.01909  2.95862     14.24841  1.65936  0.78264   2.77415  0.23765     0.07607  12785.70891   9183.52466  1.46598         2898.99866     20.12207  0.07359  53946.91418  2.70525  0.05295   429660.08987  45.91348  22.58867  53999.70217    51.05582       44.49095   19.22888  26.27333   28.5    0.37184  -21.73647  0.99739 
  -14.33045  0.05839  2.82226      14.0423  1.47685  1.45052   3.86885  0.20884     0.06906   15001.1906   8991.66007  1.22677          2646.2395     17.16588    8e-05  53949.06955   5.1935  0.22591   898958.44907  45.58325  22.55967  53997.24875    51.04904       44.48696   17.06333  26.54296   25.5    0.38785   -21.7439  0.98805 
  -14.76256  0.07163  2.55683     14.44259  1.53609   0.4855    4.1075  0.24518     0.03235  13728.90718   8973.63828  1.58025         2600.60285      19.6067  0.02246  53948.63744  4.61824   0.2942   121463.39959  46.55541  22.60486  53997.24875    51.10414       44.51841   20.47918  30.33481   24.5    0.40094  -21.66181  0.98801 
   -14.5293  0.07307  3.74165     14.26812  1.82788  1.07825    5.0393  0.09051     0.05547  10217.43507   7732.63075  2.01841         2665.60598     18.47235  0.00165   53948.8707   3.1382  0.36824   691259.30203  45.54503  22.59466  53999.70217    51.04084       44.47666   18.31956  27.18265   37.0    0.35206  -21.40073  0.97543 
  -14.17937  0.44004  4.71683     14.38836  2.08043  0.96288   9.75224  0.03793     0.19807  10397.48609   8090.92381  1.83489         2891.78488     16.33936    1e-05  53949.22063   6.2891  4.29139   718715.87329  45.38314  22.47527  53999.70217    51.08353       44.50406   19.90722  27.49092   57.0    0.31805  -21.52742  0.72192 
  -13.57956  0.34464   3.4085     14.55753  1.76943  0.46951   4.43168  0.13468     0.14543  10774.87112   9506.06254  1.95054         2776.51239     16.91597    5e-05  53949.82044  3.06916  1.52735   146457.52874  46.28584  22.56993  53997.24875    51.12064       44.50091   19.90722  27.49092   33.5    0.32581  -21.50676  0.91673 
  -16.21577  0.06054  3.65986     14.12503  1.76521  1.37554   4.16183  0.11827     0.13844  10771.03153   9721.71227  2.14951         2588.29682     18.24507  0.00098  53947.18423  2.88022  0.25197  1234452.86056  45.29724  22.46611  53997.24875    51.16615       44.52638   21.80314   33.1787   34.0      0.327  -21.50157  0.98286 
  -16.79991  0.05011  3.53435     14.31535   1.5687  0.45581   2.18953  0.20398     0.42467  12036.12697   9456.39664  1.97659         2534.39816      17.7176  0.00029  53946.60009  1.89214  0.10972   425859.75998   45.7385  22.51997  53999.70217    51.04672       44.54392   22.75111  22.75111   36.5    0.33098  -21.57644  0.99156 
  -16.44952  0.45854  3.86413     14.28417  1.84208  0.89052   4.61009  0.12328       0.023  12407.71644   5592.97449   1.6791          2677.1856      17.3039  0.00011  53946.95048   4.2337  2.11389   690055.81334  45.52117   22.6209      53996.7    51.03367       44.49822   18.95925  27.49092   32.0    0.40886  -21.60363  0.86741 
  -15.84279  0.14167  3.95107     14.17082   1.7373  0.87932   4.86557  0.07313     0.41678  10817.30669   7843.25201  1.73975         2843.98816     16.33891    1e-05  53947.55721  3.39625   0.6893  1146760.76476  45.25582  22.56661  53997.24875    51.12685       44.50972   20.21549  29.07858   46.5    0.32916  -21.52141  0.94584 
  -11.15836  0.22063  3.20242     14.26941  1.76173  1.16109   3.82329  0.17348     0.08236  13140.84076   4909.40248   1.8854         2602.96461     17.45047  0.00016  53952.24164  3.93832  0.84352   485164.70781  45.81794  22.57907  53999.70217    51.07482       44.50171   22.37511  28.43888   33.5    0.38082  -21.60438  0.95742 
  -18.90228  0.15203  3.72366     14.16564  1.80175   0.6281   2.44728  0.24131     0.06081  16735.06766   9860.79683  0.89417         2516.01159     17.32461  0.00012  53944.49772  4.08852  0.37205  1081882.59141  45.34842  22.44935  53999.70217    51.11024       44.52886   20.21549  28.13061   23.0    0.48598  -21.85001  0.97441 
  -19.14381  0.03736  3.56155      14.2576  1.67576  0.54281   2.93109  0.19981      0.0482  14641.12834   9781.94119  1.38829         2559.73035     16.84517    4e-05  53944.25619  3.74805   0.1095   602714.52959  45.60967  22.46659  53997.24875    51.06173       44.49582   21.16345  28.13061   24.5    0.43491  -21.73316  0.99224 
  -18.09913  0.31968  3.18958     13.87816   1.3953  1.40949   3.49747  0.15069     0.15113  13945.50898   5778.83687  1.37018         2582.96214     19.54626  0.01954  53945.30087  4.05742  1.11809  2310033.04174  45.04243  22.58656  53999.70217    51.13154       44.51661   19.26752  28.13061   45.5    0.32602  -21.71489  0.92231 
  -17.68995  0.27539  4.10262     14.31238  1.86567  0.56022   4.97042  0.07354     0.06689   12194.9842   5045.47152  1.27806         2870.93372     19.84314  0.03871  53945.71005  4.40944   1.3688   691854.79826  45.47354  22.50616  53997.24875    51.08988       44.52381   19.22888  26.27333   50.0    0.30005  -21.63722  0.90032 
  -16.22941  0.13733  3.54578     14.27544  1.64274  0.64079   3.95098  0.12261     0.13981  11919.80456   9053.10051  1.62246         2693.99931      18.0334   0.0006  53947.17059  3.34865   0.5426    539414.9143  45.65307  22.54457  53999.70217     51.0091       44.49124   21.42714  25.59499   36.0    0.34957  -21.57516  0.96216 
  -13.15294  0.10134  3.39362     14.58346  1.85605  0.46859   5.04363   0.1231     0.06173  11856.72045   7245.47351  1.82162         2681.34577     17.39659  0.00014  53950.24706   4.2296  0.51112   135146.66844   46.3453  22.48491      54000.5    51.07282       44.50303   20.85518  29.38684   34.0    0.35826  -21.54953  0.97273 
  -16.91035  0.13976  3.35849     14.33758  1.51706  0.46867   3.75658  0.13513     0.07575  12687.19689   9440.66916  1.45139         2586.28986     17.32052  0.00012  53946.48965  3.60704  0.52502   335695.96825  45.87162  22.59212  53997.24875    51.04798       44.49114   19.22888  27.22129   31.5    0.34377  -21.58866  0.96293 
  -15.58147  0.17621  4.02144     14.56581  1.95133  0.42041   3.35659  0.11286     0.03161   9708.13963    7361.8709  2.02363         2677.75501     19.79718  0.03483  53947.81853  1.88711  0.59147   216413.93377  46.01513  22.60742  53999.70217    51.14278       44.60275   20.47918  26.54296   37.5    0.33648   -21.4544  0.95918 
  -10.87186  0.03208  2.47872     14.15546  1.52293  1.43356   3.52932  0.23962     0.30799  13719.52164    6997.3813  1.37065            2863.88     19.12596  0.00742  53952.52814  3.96274  0.11321   424641.96855  46.03505  22.56033  53999.70217    51.06111       44.49618   19.26752  27.18265   31.0    0.37737  -21.65936  0.99559 
  -14.31269  0.25797  4.21509     14.29078  1.96375   1.0642   5.89529  0.07018     0.22447  10911.17653   6707.46942  1.80427         2823.86478      17.9051  0.00045  53949.08731  4.18674  1.52079   849095.55115  45.38336  22.60812  53999.70217    51.14146       44.54724   20.17685  28.16925   46.0    0.35713  -21.50734  0.89375 
  -14.91695  0.24535  3.83559     13.90703  1.54666  1.21026   2.52288  0.08862      0.3141  10676.71943   7825.69487  1.95167         2597.40952     17.12737    7e-05  53948.48305  1.71553    0.619  3242060.10916  44.77976   22.5624      53996.5    51.01918       44.49534   16.11537  27.49092   61.5    0.27101   -21.4261  0.94481 
