 texplosion  fnickel    Pspin  log(Bfield)      Mns  thetaPB   mejecta    kappa  kappagamma      vejecta  temperature    alpha  cutoff_wavelength  log(nhhost)      A_V         MJD0   kenergy  mnickel            TSD   log(L0)  Peak_mag     Peak_MJD  log(E_rad)  log(Peak_lum)  Rise_Time    E_fold  tau_1  delta_m15     r_peak     frac 
  -13.92885  0.30589  1.05735     14.21691  1.89139  1.07245  12.26442  0.33862     0.04417  14658.84743   9014.50751  0.36403          2794.0777     20.58907  0.21568  55255.67115  15.72078  3.75155     72310.8305  47.63799  22.29593  55320.39967    51.36795       44.55944   27.25531  55.80849   37.0    0.14876  -22.13413  0.98262 
   -4.26401  0.24875  0.74838     14.39931  1.71299  0.69394   19.1162  0.29228      0.0342  16064.19887   7467.04752  0.88283         3619.93423     19.39003  0.01364  55265.33599  29.42706  4.75523    14164.61571  48.60315  22.28177  55323.26277    51.20533       44.42737   38.03264  45.30125   47.0    0.13286  -21.99273  0.99097 
  -24.44698  0.05114  2.87748     13.79107  1.48963  0.98186    5.1892  0.20674      0.0901  12686.50512   5625.00764  0.36546         4843.70645     18.88993  0.00431  55245.15302   4.98209  0.26535   2997622.1565  45.04712  22.28765      55322.4    51.21934       44.49898   36.34041  38.93615   49.5    0.19921  -21.92476  0.98525 
   -7.52371   0.1994  0.85354     14.38742  1.77596   0.6946   17.3395  0.33983     0.01471  15818.98144   8436.87193   1.2401         2209.29235     17.61724  0.00023  55262.07629  25.88336  3.45753    20177.01191  48.35097   22.3126  55314.67346    51.18261       44.38812   28.55318  51.91487   35.0    0.21199  -21.90134  0.99035 
  -22.80963  0.08221  2.82543     13.93552  1.51088  0.77102   5.70751  0.21725     0.05233  12584.09854   5342.81873  0.34214         5639.86891     18.41256  0.00144  55246.79037   5.39161  0.46921  1507239.43098  45.36772  22.24888      55325.4    51.27055       44.53883   36.91798  39.65645   41.0    0.22421  -21.94799  0.97583 
  -24.43151  0.05942  2.48592     13.80422  1.52625  0.85887   6.68648  0.23121     0.04092  13360.48062   5226.29788  0.60902         4703.73327     20.23718  0.09592  55245.16849   7.11982  0.39733   2157610.8389  45.32752  22.28489  55314.67346    51.25919       44.39425    28.7395  64.70727   41.5    0.21539  -22.21273  0.98418 
  -23.14346  0.21396  2.78898     13.67663   1.5052  0.96529   3.43124  0.30701     0.04925  13373.48019   6937.52007  0.52529          5195.0848     17.88072  0.00042  55246.45654   3.66072  0.73414  4820000.34763   44.8725  22.25434  55317.53656    51.20747        44.3845   28.22413  57.43541   40.0    0.26281  -22.05218  0.96237 
   -9.16801  0.18812  0.83522     14.38922    1.862  0.76346  20.25271  0.27799     0.02398  14593.54354    8499.9772  0.90202         3435.84523     18.55886  0.00201  55260.43199  25.72952  3.80988    20088.43938  48.39228  22.30653  55320.39967    51.25442       44.42965   28.22413  58.73328   43.0    0.13264  -21.95208  0.99104 
   -24.8621  0.14928  3.24818     14.02784  1.67666  0.59998   4.65077  0.20627     0.11284  12318.24622   4391.62689  0.19992           5338.003     18.11983  0.00073   55244.7379   4.20969  0.69426  1444993.83257  45.31015  22.23032  55314.67346    51.17701       44.40525   33.74467  46.72338   52.5    0.18474  -21.84292  0.95974 
   -9.68296  0.20442  1.19817     14.22246  1.79307  1.16285  14.41537  0.23618     0.01643  12221.39921      8318.51  0.56257         4960.99592     19.09451  0.00691  55259.91704  12.84384  2.94685     85807.6789  47.43188  22.27414  55320.39967    51.21242       44.44709   36.46467  44.00338   40.0    0.15262  -21.92917  0.98088 
  -28.08786  0.17138  3.10962     14.29299  1.81039  0.41691   6.01052  0.17663     0.01775   9624.28195   4909.37781  0.13553         5216.78147     16.32026    1e-05  55241.51214   3.32105  1.03011   421719.96126  45.91618  22.23997      55322.4    51.24185       44.45369   38.03264  46.59912   41.5    0.23179  -21.63505  0.95228 
  -26.83501  0.31805  3.17257     14.04331  1.69186  0.50048   5.32929  0.20444     0.06855  12544.12205   4483.77644  0.32825         4935.53072     17.31575  0.00011  55242.76499   5.00238  1.69497  1295339.55786    45.382  22.21409  55317.53656    51.27283       44.45129   35.31263    50.617   50.0    0.17416  -21.95787  0.91141 
   -22.7022  0.33468  3.20402     14.04048  1.58976  0.52319   4.90774  0.22261     0.11704  13327.75647   6924.18359  0.66387          4212.9023     17.67044  0.00026   55246.8978   5.20023  1.64252  1257736.01143   45.3592  22.28234      55325.4    51.23762       44.44764   39.53045  47.42696   53.5    0.19139  -21.95913  0.90507 
  -27.71712  0.04814  3.06277     13.92602  1.62197  0.80119   7.57428  0.15968     0.07183  11860.23773   4225.86809  0.25558         4842.88639      17.5195  0.00018  55241.88288   6.35558  0.36461  1986279.50595  45.20862     22.27      55322.4    51.26444       44.43271   37.45507  51.91487   51.5     0.1824  -21.82414  0.97994 
   -7.09401  0.26323  0.99346     14.44767  1.95047  0.70186  16.26826  0.33034     0.02919  15274.92076   7868.32305  0.76507         4099.02163     17.77693  0.00033  55262.50599   22.6426  4.28226    22746.52715  48.20777  22.34694  55314.67346    51.22254       44.37832   28.55318   59.7021   43.5    0.11654  -22.02814  0.98522 
  -27.16694  0.12329  2.68581     13.96993  1.63601   0.8974   8.95309  0.23527     0.05775  11278.26365   3658.29501  0.53015         3589.94736      17.1555    8e-05  55242.43306   6.79336  1.10382   1258636.7926  45.52458  22.25484      55322.4    51.21351       44.43692   33.89065  46.72338   50.5     0.1394  -21.81614  0.95566 
  -25.70486  0.01913  3.19788     13.92548   1.8191  0.88349    5.2838  0.23239     0.04063  11842.32039   6972.01558  0.49387         5233.44634      18.4862   0.0017  55243.89514   4.42025  0.10106  2434656.08097  45.13254  22.26812  55317.53656    51.23256       44.45778   33.74467  46.72338   42.0    0.21887  -21.97308   0.9948 
  -26.76053  0.02308  2.84563     13.97092    1.772  0.92647   8.41692  0.18753     0.06203    9940.7793   4078.09449  0.65464         5470.23131     17.35043  0.00012  55242.83947   4.96159  0.19426  1523345.03179  45.42615  22.25769      55326.4    51.23726       44.45632   40.82832  44.83122   53.0    0.15227  -21.96056  0.99191 
   -28.0533  0.04194  3.32399     13.82748  1.92513  1.28934   9.19179  0.12786     0.02117  10177.04354   5568.77988  0.46758         5084.99409      18.4478  0.00156   55241.5467   5.67898  0.38547   4371522.7992  44.86935  22.20409  55320.39967    51.18974       44.46531   34.36083  40.56307   48.0     0.1737  -21.86782  0.98048 
   -7.20813  0.18031  1.19038     14.26608  1.83881  1.09042  14.32253  0.30226     0.02609  14549.99091   8161.61868  0.68219         4117.19548     18.55652    0.002  55262.39187  18.08724   2.5825    71048.53304  47.53046  22.24101  55320.39967    51.18189       44.43504   34.65144    41.923   40.0    0.15899  -21.94404  0.98429 
  -26.65037  0.14795  3.17643     14.22987  1.90947  0.40076   6.70832  0.24652     0.02347  11644.70054   5695.35675  0.62433         5291.02951     16.39058    1e-05  55242.94963   5.42623  0.99248   620672.62262  45.75302  22.22543  55317.53656    51.21986       44.47771   33.00091  43.22087   41.5    0.21407  -22.01917    0.955 
  -22.82214   0.1328  3.02662     14.06165  1.58111   0.4415   4.31956  0.24091     0.07369  13269.25607   3487.59277   0.4751         4791.31395     16.61139    2e-05  55246.77786    4.5369  0.57362   1012480.8346   45.5005  22.32076      55325.4    51.31898       44.54426   36.67271  46.14581   45.0    0.21204  -21.99331  0.96798 
  -25.84787  0.08088  3.43469     14.14913  1.94538  0.54639   4.65335  0.26183     0.06952  11829.46577   6922.41566  0.47252         4701.25755     16.68603    3e-05  55243.75213   3.88439  0.37636  1072319.03968  45.45575  22.24245  55323.26277    51.19131       44.43902   40.70716  41.40763   47.0    0.18418  -21.92282   0.9801 
  -26.50857  0.01747  3.12376     13.90055  1.71135  0.67636   4.80425  0.22944      0.0872  12625.66341   5452.24265  0.47103           5035.212     17.60826  0.00023  55243.09143   4.56837  0.08394  2451347.27959  45.12342  22.34696  55314.67346    51.20294       44.39989   28.16208  53.60385   51.5      0.181  -21.99301  0.99541 
   -4.51911  0.37091  1.23366      14.2927  1.85463  1.15848  12.74657  0.31247     0.03913  14310.26884   8810.35224  1.11478         3441.33688     17.54064  0.00019  55265.08089  15.57099  4.72789    68086.70092  47.52165  22.19146  55320.39967    51.34832       44.47889   27.83288  64.31602   41.5    0.11995  -21.92088  0.97051 
  -10.01458   0.2115  0.80286     14.21597  2.00898  1.30656  25.28364  0.33907     0.01019  16626.77704   3873.34661  0.10741         5887.17004     16.97752    5e-05  55259.58542   41.6949   5.3474     44475.4327  48.11442  22.30361      55322.4    51.25134       44.43125   39.20625    50.617   43.5     0.1662  -22.04239  0.98891 
   -22.4688  0.18844  2.85916     13.72717  1.46471  1.05372   4.52086  0.24409     0.06038   12513.1587   5517.00442  0.27403         4982.57544     18.45113  0.00157   55247.1312   4.22262  0.85193  3905827.52174  44.93041  22.27601      55325.4    51.17683       44.43627   39.20625  40.23403   45.0     0.2119  -21.90168  0.95333 
  -12.62508     0.24  1.21441     14.20364   1.6962  1.10059  13.69304  0.27311     0.04206  12261.83623   6017.17188   0.7886         3474.59135     18.66478  0.00257  55256.97492  12.28112  3.28639    90936.65639  47.37086  22.45713  55314.67346    51.19642       44.32941   29.13075  64.31602   51.5     0.1251  -21.81775  0.97602 
   -4.88879  0.05942  0.71684     14.25795  1.72539  0.96389  23.90149  0.29295     0.01946  16750.99061   9214.36604  0.55194         3609.33196     18.09718  0.00069  55264.71121  40.00674  1.42034    25098.33494  48.39524   22.2849  55314.67346    51.24215       44.44226   26.92626  54.83966   39.0      0.155  -22.02229  0.99743 
   -25.2168  0.12862  3.08414     13.84804  1.67736   0.9996    6.4516  0.21195     0.04215  12384.43597   5697.90865  0.24629         4833.74031     18.33726  0.00121   55244.3832   5.90265  0.82981  2982820.37791  45.04058  22.21983      55325.4    51.18279       44.45833   38.23258  39.63973   44.0    0.19605  -21.89142  0.95688 
  -24.87954  0.06052  2.83172     13.86912  1.52826  0.89325   6.96094  0.19939     0.04685  12624.87688   6122.60071  0.34217         4874.49689     17.90153  0.00044  55244.72046   6.61834  0.42129  2079119.97549  45.23106  22.24763  55314.67346    51.18123        44.4445   27.25531  44.12764   43.5    0.20551  -21.92488  0.97846 
   -10.0647   0.1797  0.74868     14.30808  1.71069   0.8643    17.723  0.30233     0.03068  14949.74214   8504.67087    0.266          3614.7176     18.79886   0.0035   55259.5353  23.62826  3.18482    21548.80934     48.42  22.29989  55317.53656    51.19746       44.42817   25.95744  49.31913   40.0    0.13907  -21.93294  0.99367 
  -26.24011  0.05006  3.16231     13.93309  1.66153  0.74158   4.53016  0.23854     0.07705  13231.64911   5971.17253  0.19456         5059.05166     17.33974  0.00012  55243.35989   4.73117   0.2268  2099700.11947  45.16719   22.2268  55320.39967     51.1489       44.44751   28.55318  40.23403   45.5    0.21579  -21.89141    0.987 
  -10.13967  0.18088  1.13659     14.14707  1.72783  1.41598  13.35909  0.30472     0.01538   12274.2763   7619.47857  0.64167         4302.82536     17.23181    9e-05  55259.46033  12.00593   2.4164   105288.80362  47.37275  22.37367  55317.53656    51.22531       44.40403   29.85105  55.80849   40.5    0.17985  -21.86845  0.98494 
   -7.06657  0.26803    1.156     14.25799  1.72953  0.92227  13.13052  0.31682     0.01511  14279.26737   7724.21765  0.45191         5292.33176      18.8281  0.00374  55262.53343  15.97059  3.51933    65413.96643  47.56519  22.30816  55317.53656    51.15008        44.3795   28.55318  46.72338   37.5    0.19383  -21.98249  0.97766 
    -19.441   0.3557  3.35212     14.32075  1.93649  0.45226   4.85902  0.23545     0.06664  11994.35711    5983.9693  0.72494         5525.21153     17.48474  0.00017    55250.159   4.16994  1.72835   461285.72436  45.84125  22.27752  55317.53656    51.21352       44.42834    35.2673  48.02126   44.5    0.20858  -22.11256   0.9189 
  -12.44242  0.03547  1.02336     14.19267  1.98769  1.51661  20.56711  0.28969     0.03197  12919.90291   9274.71065  0.35765         3852.71204     16.56133    2e-05  55257.15758  20.47948  0.72953    79596.03547  47.64624  22.35789      55322.4    51.19488       44.39655   38.37841  49.31913   46.5    0.10883    -21.893  0.99709 
  -26.61324  0.01792  2.91821     13.88114  1.58061  0.80815    6.0711  0.17535     0.05662  11352.56692   5982.69882   0.1928         5315.52336      19.5146  0.01817  55242.98676   4.66748  0.10877  2160704.64907  45.20284  22.33032      55322.4    51.21325       44.42431   39.20625  46.72338   50.0    0.17973  -21.83066  0.99426 
  -27.86595  0.00981  2.85918     13.63521  1.44805   1.0789    3.9456  0.22508     0.11411  12044.52982   6381.07153  0.18617         4703.54081     18.90322  0.00445  55241.73405   3.41445  0.03871  5897515.25037  44.74648  22.17317  55317.53656    51.27599       44.47532    32.5476  47.11449   57.5     0.1661   -21.8084   0.9977 
  -26.03596  0.01531  1.81877      13.6398  1.15447  0.85611   7.25162  0.20629     0.01091  10691.28912   5984.24336  0.50945          5736.8043     20.28576  0.10727  55243.56404    4.9445  0.11105  1862761.57694  45.54151   22.2633      55325.4    51.25085       44.42902   35.76609  48.74156   38.5    0.24071  -22.06255  0.99638 
  -26.23353  0.00955  2.48402     13.75213  1.29217   0.9385   7.32784  0.14302     0.04159  10566.82111    6332.7302  0.35957         4510.22383     19.56757  0.02053  55243.36647   4.88081     0.07  2318404.24957  45.22467   22.3139  55320.39967    51.29069       44.54644   24.65956  46.72338   48.5     0.1865  -21.78268   0.9964 
  -13.93908  0.12869  1.43711     14.19916  1.90617  1.41702  12.14357  0.30652     0.03767  12963.02884    7342.8421  0.58513         4246.51077     19.36287  0.01281  55255.66092  12.17269  1.56271   146097.02229  47.06938  22.29551      55327.4    51.26636       44.44151   42.47507  51.71183   44.0    0.13827  -21.91237  0.98602 
  -26.10077  0.15777  2.74734     13.83901  1.44725  0.91949   5.63318  0.21895     0.04088  12935.29419   4381.32554  0.23412         4596.23924     18.30573  0.00112  55243.49923   5.62255  0.88877  2128967.59108   45.2234  22.39344  55317.53656    51.31908       44.39873   31.14892  71.38295   39.5    0.24534  -21.88944  0.95476 
  -27.24438   0.0847  3.10411     13.98822   1.7283  0.64684   5.86388  0.20584     0.02711  12016.25747   5223.41582  0.30584         5248.57801     17.25375   0.0001  55242.35562   5.05069  0.49665  1632544.01999  45.30973  22.35272      55322.4    51.22004       44.49476   36.91798  38.35858   40.0    0.23736   -21.8889  0.97448 
   -6.00946  0.14521  0.89741     14.35194  1.77778   0.7881  17.34225  0.30793     0.03668  15571.06638   7563.07249  0.85683         3864.73736     18.92051  0.00463  55263.59054  25.08241  2.51821    26290.39687  48.19295  22.24341  55320.39967    51.21891       44.44987   29.85105  46.72338   45.5    0.10879  -22.01665  0.99205 
  -23.46664  0.18516  2.34077     14.37033  1.94352  0.65282  10.43303  0.22048      0.0217    9696.6581   4279.55617  0.88196          3500.7081     16.62873    2e-05  55246.13336    5.8517  1.93182   179662.27737  46.56426  22.23646  55323.26277    51.18142       44.47688   36.01136  36.66946   46.0    0.14138  -21.65047   0.9552 
  -10.52387  0.12169  1.29487     14.18963  1.61028  0.95123  12.81959  0.26949     0.04828  14463.85121   8326.19399  0.49671         3943.15126     19.79231  0.03444  55259.07613  15.99813  1.55998    104692.2873  47.23138  22.32666  55323.26277    51.20219       44.42698   39.39257  43.94132   39.0    0.16021  -21.95941  0.98544 
  -23.16412  0.04639   2.6097     13.90744  1.69493  1.37587   8.58319  0.20714     0.07192  10741.20131   3711.63894  0.56138         5590.18826     17.56455   0.0002  55246.43588    5.9072  0.39821   1641597.0286  45.44955  22.31206  55320.39967    51.24761       44.41894   36.01136  53.54179   49.5    0.16232   -21.9865  0.98528 
  -36.90646  0.01644  3.36867     13.75694  1.97321  1.14604   6.21257   0.2219     0.06225  11659.76958   5982.91913  0.09706          4256.5775     17.06147    6e-05  55232.69354   5.03823  0.10212  6368325.53511  44.70508  22.28745  55323.26277    51.29527       44.45111   37.30924  54.83966   56.5    0.14897  -21.82309  0.99468 
    -22.393  0.14246  2.86504     13.84192  1.59014  0.93515   5.39417  0.25907     0.04501  13108.24307     5929.749   0.3245         4972.16718     18.72833  0.00297    55247.207   5.52892  0.76843  2510032.04207  45.15634  22.35435  55317.53656    51.19104       44.37166   30.89866  53.46301   41.0    0.22111  -21.99082  0.96257 
  -23.35729  0.02186   2.6987     13.90695  1.72637  0.98308   8.55452  0.24028     0.03912  11886.38429   7007.63666  0.78169          5264.6708     18.44473  0.00155  55246.24271   7.20978  0.18699  1792062.52282  45.39032  22.23755  55317.53656    51.21395       44.46508   35.04254  42.82977   45.0    0.16717  -22.14682   0.9927 
   -26.5261  0.23761  3.58175     14.28994  2.02702  0.46994   7.23443  0.16528     0.02696   11622.7807   5101.72213  0.18382         5956.27959      16.5263    2e-05   55243.0739   5.82977  1.71901   635298.03349  45.66454  22.26632  55320.39967    51.16599       44.37686   32.11775  49.64817   42.0    0.21987  -21.83939  0.91393 
  -10.58948    0.186  0.80391     14.25555  1.77073  1.12941  17.10062  0.33222     0.02507  15869.66279   6499.69555  0.00529         4201.16203     18.78142  0.00336  55259.01052  25.69061  3.18075    32756.08293  48.19129  22.28738  55317.53656    51.23695       44.37948   29.14748  61.70355   41.5    0.15764  -21.91179  0.99276 
  -26.86542   0.1336  3.22878     13.91484  1.69001  0.77102   4.81671   0.2143     0.07573  12384.83137   5291.04945  0.18146         5559.13412     18.98771   0.0054  55242.73458   4.40715   0.6435  2421543.83195  45.09457  22.29041      55325.4    51.25925       44.45243   42.06709  49.11608   48.5    0.19404  -21.85861   0.9633 
   -8.40593  0.13675  0.75845     14.33487  1.61996  0.73041  16.58632   0.2913     0.02752  14556.91996   8541.97902  0.70267         2739.88192     18.65842  0.00253  55261.19407  20.96604  2.26819    18511.10859  48.45106  22.41683  55311.81035    51.23573       44.35614   29.13075  66.91176   37.5     0.1387  -21.91892  0.99476 
  -23.49438  0.09088  2.74823     13.67144  1.44939  1.27223    5.7437  0.23481     0.03825  12496.99586   5654.39248   0.4477         4705.70717     19.12217  0.00736  55246.10562   5.35094  0.52197  4615505.70041   44.8877  22.30504  55328.98898    51.29066       44.53055   40.23403  42.82977   42.0     0.2154  -21.94199  0.97264 
  -23.31407  0.14464  2.96495     14.12076   1.6475  0.58501   5.80194  0.22038     0.04257  11959.66403   4602.70453  0.53999         5277.85737     17.37417  0.00013  55246.28593   4.95038  0.83922   771192.56378  45.65447   22.2344  55314.67346    51.27356       44.41422   27.83288  64.31602   40.5     0.2237  -21.96894  0.95905 
   -8.07008  0.05201  0.82905     14.40644  1.64503  0.58998  19.69512  0.30502     0.02067   15365.6213   6016.71744  0.83008         3067.37888     18.78046  0.00335  55261.52992   27.7387  1.02427    16153.28566   48.4396    22.271  55320.39967    51.26736       44.46387    33.4994    50.617   43.0    0.15237  -21.85225  0.99693 
