 log(Bfield)      Mns     Pspin  cutoff_power  cutoff_wavelength  fnickel    kappa  kappagamma   mejecta  log(nhhost)  temperature  texplosion  thetaPB      vejecta      A_V        MJD_0   log(KE)      M_Ni  Peak_mag     Peak_MJD 
    14.55904  1.70672   3.61113        0.0401          2444.7699  0.23665   0.0288     0.08333  64.42923     19.25469   5152.40144   -16.20422  0.47853  15393.01118  0.00999  55253.39578  53.12175  22.16011  22.28719  55319.29674 
    15.12606  1.63299   4.23572       3.19245         2075.19864  0.41707  0.02891     0.01232  57.05801     16.71216     8312.646   -13.05994  0.56035  17053.59888    3e-05  55256.54006  53.20251  38.32254  22.27458  55319.29674 
    14.78435  2.08765   1.26173       2.64531         2051.10403  0.28775  0.03531      0.0242  66.57542     16.43264   8109.23744    -2.51863  1.09166  18393.22267    2e-05  55267.08137  53.27861   27.0818   22.2947  55319.29674 
    14.80365  1.81131   2.83354       0.98159         2126.92622  0.46446  0.03554     0.41429  44.46725     19.84016   4943.99425     -9.8981  0.83163   17496.2402  0.03845   55259.7019  53.20738   41.0026  22.33433  55319.29674 
    14.37877  1.98185   4.03481       3.38088         2000.07401  0.41288  0.05078     0.22972  34.29144     16.42255   8398.69779   -11.49685  1.26359  14823.69513    1e-05  55258.10315  53.04451  34.89734  22.34235  55312.20401 
    14.46185  1.53068   1.80712       4.62116         2081.13689  0.29875  0.03424     0.45673  57.69648     19.59137   5815.53856    -4.73925  1.00593  15574.99638  0.02168  55264.86075  53.12449   27.4988  22.33801      55322.4 
    14.73388  1.85141   1.27212       0.30476         2799.06701   0.2152  0.02028     0.06397  92.04962     18.89761   4279.86815   -10.24766  1.04962  14075.71844  0.00439  55259.35234  53.06733   21.2621    22.372  55319.29674 
    14.84646  1.64095   9.82256       0.22895         2207.49058  0.30885  0.01645       0.036   69.9664     19.50365   3976.71604   -23.18613  0.14123  12677.82295  0.01772  55246.41387  52.95868  29.28984  22.28494  55319.29674 
    14.88246   1.7398   2.14474       0.58868          2814.4181   0.3178  0.02341     0.28221  52.71747     18.02615   3894.13995    -7.76149  0.66586  14186.70064  0.00059  55261.83851  53.03719  28.83753  22.35166      55322.4 
    14.48735  1.73685   1.66009       0.05837         4337.21987  0.25358  0.02878      0.2228  74.96335     19.23309   4482.52862    -7.87224  1.23973  14191.86956   0.0095  55261.72776  53.06122  24.30081  22.31028      55322.4 
     14.7921  1.66863   1.27138       4.46174         2030.06959  0.23464   0.0198     0.27319  83.74895     16.45441   5774.97017    -4.04809  0.94421  16779.66985    2e-05  55265.55191  53.21391  22.86242  22.32505  55315.75038 
    14.10835  1.80655   2.46571       0.03681         2844.12621  0.34246  0.10771     0.01482  29.53346     20.07555   9336.46294   -13.15391   1.2683  17508.69625  0.06611  55256.44609  53.17786  28.20542  22.34434  55322.84311 
     15.0386  2.07906   2.42925       0.23514         2760.87509  0.23203  0.01649      0.0772  86.16737     18.50966   3293.34898   -10.10746  0.70718  14840.40213   0.0018  55259.49254  53.10907  22.70352  22.35206  55319.29674 
    15.07945  1.78866    2.4788       0.10658         2358.35681  0.39103  0.02481     0.38493  58.01553     17.19988   3306.91041   -14.39252  0.96858  16976.75289    9e-05  55255.20748  53.19972  36.02427  22.32821      55322.4 
    14.40421  1.76486   3.76778       0.13926         3157.67817   0.4599  0.05123     0.01639  35.67808     18.69407   5549.36109   -12.10371  1.10682  16543.02719  0.00275  55257.49629  53.14276   39.1355  22.31966      55322.4 
    14.71576  2.02254   1.54879       0.79628         2154.72001  0.39339  0.04038     0.07145  51.15599     16.18803   3557.43232    -5.69013  1.49287  17035.76087    1e-05  55263.90987  53.19407  35.52534  22.37396  55319.29674 
    14.60071  1.63529   1.20146       1.09647         2157.90032  0.48998  0.05061     0.07966  38.94029     16.60547   3651.69447     -3.9325  1.27548  17019.25533    2e-05   55265.6675  53.17382  42.31487   22.2925  55319.29674 
    14.62796  1.38981   0.83353       0.23633         2474.55753   0.3232  0.02645     0.10002  66.02877     18.99454   5183.23149   -10.46234  1.08225  14713.40922  0.00549  55259.13766  53.08417  30.37945  22.35847  55315.75038 
    14.96872  1.76611   2.35861       1.13151         2177.71164  0.45806  0.02703     0.19928  44.47496     17.77532   4514.65709     -8.8589  1.00913  16388.32025  0.00033   55260.7411  53.15057  40.43829  22.29797  55319.29674 
    14.77632  1.55679   2.53098       0.58993         2104.58007  0.49977  0.03906     0.01606  39.26156     17.97483   4855.66438   -12.74889  0.76906  14882.16385  0.00052  55256.85111  53.05787  43.22007  22.30014  55315.75038 
    14.82997  1.65352   8.92703       3.36681         2063.66306  0.43145  0.02086      0.1689  44.23953     19.16262   4135.67835   -15.50106  0.13345  14057.21606  0.00808  55254.09894  53.01692  38.05669  22.29222  55315.75038 
    14.58269  1.77773   3.01413       2.22539         2102.55391  0.24477  0.02407       0.027  74.39028     16.26405   5891.60238    -7.91177   1.0909  16909.75876    1e-05  55261.68823  53.21291  23.42987  22.30119      55322.4 
    14.29732  1.57375   1.32776       0.05479          3515.4567  0.47658  0.09228      0.0407  32.37147     16.66004   6218.43848    -6.01828  1.56722  16816.31021    3e-05  55263.58172  53.14975  39.88429  22.34069  55319.29674 
    14.33409  1.86945   2.62801       0.00661         2929.60784  0.14701   0.0353     0.15436  77.13262     19.06507   5173.88738   -12.68093  0.84434  14557.51746  0.00645  55256.91907  53.08518   14.1492  22.27193      55322.4 
    14.92706   2.1103   0.95099        0.0531         3736.44603   0.4299  0.03372     0.11465  49.73358     17.80549   7193.67533    -6.90477  1.29529  16740.38437  0.00035  55262.69523  53.17691  38.64705  22.28771  55319.29674 
    14.84879  1.65337   1.07166       4.45301         2012.08202  0.23346  0.01934     0.47379  92.17052     17.71824   5190.59301    -2.71772  1.04212  18901.08566  0.00029  55266.88228  53.32345  23.07077  22.31763  55319.29674 
    14.62615  1.46768   2.26882       3.80281         2077.94723  0.38798  0.03342     0.15629  61.49376     19.49706   8543.76624   -10.25511  1.44534  18249.98648  0.01745  55259.34489  53.26649   36.0695  22.33544      55322.4 
    14.81891  1.62367    0.8501       3.71235          2076.7924  0.38772   0.0457     0.04027  57.40519     18.15477   6650.51981    -3.46455  0.67172  18736.13614  0.00079  55266.13545  53.28465  35.65972  22.29459  55319.29674 
    15.14442  1.92935  12.01416       0.62629         2302.10015  0.24836  0.01485     0.19478  99.82544     19.06361   3111.41766    -21.0168  0.83473  16090.26854  0.00643   55248.5832  53.18864   24.8299  22.35323  55319.29674 
     14.1867  1.73288    3.4783       0.13468         2786.00577  0.30259  0.04621     0.05131   44.7495     18.96878   4962.95858   -16.33619  1.32991  15825.57584  0.00517  55253.26381  53.12066  26.74064  22.31993      55322.4 
    14.28617  1.74006   1.97919        0.0466         3345.82079  0.23682  0.05166     0.07792  49.70947     16.67271   6419.20942    -7.45787  1.48356  15261.39815    3e-05  55262.14213  53.09653  21.28843  22.32312  55319.29674 
    14.54799  1.48793   0.85172        1.8789         2110.79312  0.29126  0.03335     0.08768   58.6842     16.10115   3336.09146     -1.8825  1.29951  17337.87832    1e-05   55267.7175  53.21878  26.88131  22.32469  55319.29674 
    14.64622  1.65888   1.18158       3.52911         2088.90958  0.42642  0.04274     0.45699  42.44699     18.47987   5416.00539    -2.71224  1.34343  17682.61169  0.00168  55266.88776  53.21326  37.35761  22.37759      55322.4 
    14.35286  1.49237   5.23789        0.1908         2239.06491  0.38404  0.03134     0.02099  44.37001     18.87187   3008.13348   -23.90232  0.43181  14851.94174  0.00414  55245.69768   53.0649  33.89041  22.32094  55319.29674 
    15.14061  1.83859   1.41689       4.56744         2095.11329  0.46575  0.03745     0.23172  41.88287     17.49003   3580.29491    -4.15414  0.53135  17445.72226  0.00017  55265.44586  53.20059  40.71257  22.28314      55322.4 
    14.60079   1.4213   0.88852       1.02914         2421.14663  0.27758  0.02568     0.05157  76.12417     19.16759   3959.59896    -4.45208  1.02941  15788.44666  0.00817  55265.14792  53.15482  26.66271  22.27051  55315.75038 
    15.15056   1.7697   1.27754       0.01596         2261.29895  0.44245  0.03502     0.07472  55.08408     18.66407   4788.28104   -17.53818  0.49484  15311.28492  0.00256  55252.06182  53.10648  40.42933  22.26302  55319.29674 
    14.18683  1.62059   3.56713       1.47246         2040.77658  0.33171  0.05364     0.30715  38.47565     19.66122   3047.23853   -20.63731  0.64092  15461.14427  0.02547  55248.96269  53.08955  28.58857  22.35718  55315.75038 
    14.73623  1.69644   1.17182       2.48039         2131.15315  0.29663  0.03051     0.34468  68.20651     16.14742   4218.21971    -5.00033  1.00918  17878.13394    1e-05  55264.59967  53.25555  28.02193  22.37681  55319.29674 
    14.27538  1.86722    1.9652       0.17658         2305.21522  0.27167   0.0788     0.01232  40.28935     20.41619   3660.52111    -9.04708  0.93291   16870.7595  0.14485  55260.55292  53.16868  23.59559   22.3165      55322.4 
    14.18908  1.59434   2.13318       0.12554         2055.65698   0.1345   0.0452     0.20962  67.99481     16.22879   3041.38159    -9.79098  0.98371  17576.75748    1e-05  55259.80902  53.24058   12.6997  22.26944  55319.29674 
    14.56946  1.70015   6.19669        0.7928         2228.87666  0.41911  0.02627      0.0228  43.53364     16.73181   6122.36195   -15.05106  0.91414  13806.48427    3e-05  55254.54894  53.00014  36.87042  22.33527  55319.29674 
      14.941  1.54236    4.7272       0.15575         2482.72226  0.23831  0.01349     0.02822   96.5468     19.52476   4392.04607   -17.42103  1.46359  16005.80768   0.0186  55252.17897  53.18197  23.70972  22.28529  55319.29674 
      14.901  1.31704   1.27109       1.58713          2172.8284   0.2846   0.0203     0.01536  73.04498     18.13258   7146.71089    -7.38282  0.59666  16317.91566  0.00075  55262.21718  53.18077  27.16683  22.26445  55319.29674 
    14.62671  1.87347   1.34114       2.57138         2003.05175  0.48719  0.05242     0.02343  38.10991     17.17043   5920.05023    -6.32983  1.28342  14450.61236    8e-05  55263.27017  53.03014  41.92228  22.34427  55319.29674 
    14.95612  2.08894   1.68736       4.28093         2047.54419  0.47046  0.03506     0.07905  41.84496     19.43863   6045.13055    -6.95295   1.4088  16571.74229  0.01525  55262.64705  53.15588  41.11823  22.29085  55319.29674 
    14.43825  1.95403  10.64978       3.89518         2006.50425  0.29154  0.01818      0.0253  70.47913     18.87327     3195.691   -19.15177  0.77278  14569.77637  0.00415  55250.44823  53.07998  27.67908  22.30131  55319.29674 
    14.72676  1.73208   1.92407       3.37221         2028.75341  0.42063  0.04367     0.06836  47.69387     18.83183   6608.76143    -5.96979  0.80501  16951.73222  0.00377  55263.63021  53.18487  37.55919  22.33725  55319.29674 
    14.50993   1.7611   0.77048       0.16809          3577.5414  0.24153  0.03579     0.33996   67.7203     20.45005   6014.99432    -5.06351  0.80429  12945.75302   0.1566  55264.53649  52.97468  22.79122  22.28759  55315.75038 
    14.87363  1.72871   0.96079       2.66932         2085.38956   0.3232  0.02241     0.27606  58.20475     19.91212   3446.03695    -2.06892  0.96541  16968.52614  0.04538  55267.53108  53.19952  29.79078  22.34536  55315.75038 
    14.70619  1.75969   3.78431       0.01367         3425.90585  0.34655  0.02892     0.41482  53.67371     17.70462   6305.03282   -13.28531   0.6873  15403.33976  0.00028  55256.31469   53.1099  31.53672  22.34967  55315.75038 
    14.53033  1.70874   1.77579       3.11645         2108.07981  0.49776  0.06096     0.02789  39.59276     18.63411   3178.25125    -7.33818  1.47296  18567.96976  0.00239  55262.26182  53.25068  43.10619  22.34695  55319.29674 
    14.71755  1.52894   0.90779        3.8584         2010.74167  0.29034  0.02749      0.3969  60.40479     16.14876   9357.24521    -2.21911  0.87239   16156.0047    1e-05  55267.38089  53.15942  26.91759  22.28156  55319.29674 
    14.92571   1.5151   1.72753       3.15274         2004.37268  0.35594  0.02734     0.41067  61.21147     19.17394   6033.22827    -7.33494  0.65137  17632.43402  0.00829  55262.26506  53.23627  33.06727  22.31075  55322.84311 
    14.32248  1.60748   2.23033       3.69447         2085.09423   0.2201  0.03234     0.15965  74.52674     17.94092   3380.13907      -5.943  1.52891  16230.55436  0.00048    55263.657  53.17742  21.07441  22.31749  55319.29674 
     15.0442  1.75981   0.88377       0.23978         2401.28021  0.37501  0.03206     0.03571  58.84066     16.81095   3818.22946    -9.63528  0.61885  16993.13312    4e-05  55259.96472  53.20152  34.62511  22.30069      55322.4 
    14.64095  1.64913   1.59568       2.73076         2073.48778  0.41182  0.04011     0.01325   48.8337     17.14853   9774.30899    -5.78559  1.37492  18388.36094    8e-05  55263.81441  53.25719  36.91306  22.34833  55319.29674 
    14.41174  1.49889   2.49548       0.21612         2117.52226  0.28253  0.02939     0.26757  60.24271     17.90038   7547.13239    -7.30982  1.05547  15895.91941  0.00044  55262.29018  53.14514   26.1823  22.26943  55315.75038 
      14.885   2.0107   5.33391       0.07839         3796.10342  0.44059  0.03505     0.21181  45.68491     19.44198   6287.28028   -19.42981  0.36347  13454.81926  0.01537  55250.17019  52.98116  39.06726  22.33742  55319.29674 
    14.57163  2.16322   3.13927       0.06778         4433.08959  0.19986  0.03286     0.20459  58.50873     19.12873   8347.60589   -11.24535  0.73434  13055.93986  0.00747  55258.35465   52.9722  18.43636  22.35289  55315.75038 
    14.12314  1.83537   2.67481       0.05576           2744.717  0.07475   0.0286     0.04264  95.77024     16.03287   6006.06343   -15.26426  1.56084  15450.56632    1e-05  55254.33574  53.15079   7.42782  22.33842  55319.29674 
    14.45332   1.7439   2.41821       0.55167         2799.26889  0.27486   0.0339     0.37142  54.88617     19.97752    3254.5788    -10.5471  0.79403  12375.85557  0.05275   55259.0529  52.92136  25.10115    22.295  55315.75038 
    14.72986  1.60572   5.04347       0.05876         3068.58998  0.48332  0.04399     0.03957  32.16835     17.81923   7864.84499   -17.71866  0.18916  15594.23988  0.00037  55251.88134  53.08375  40.40448  22.32098  55315.75038 
    14.31219  1.84035   3.80409       0.23485         2525.68854   0.3221  0.03194     0.42624  54.48677     20.13922   4599.26091   -16.39297  1.21189  13710.37187  0.07655  55253.20703  53.00981   29.3813  22.34823  55319.29674 
    14.43951  1.57939   1.98326       0.72613          2044.7081  0.17165  0.02763     0.16656  96.66778     19.77561   6134.06499    -8.40429  0.75682  16857.24892  0.03314  55261.19571  53.22707  17.08057   22.3529      55322.4 
    14.99435  1.77346   0.71003       3.64859           2005.759  0.31364   0.0285     0.37442  67.12591     18.32373   3851.30189    -4.07173   0.7058   19045.8465  0.00117  55265.52827  53.30944  29.55621  22.34764  55322.84311 
    14.60426  1.46907   1.38724         1.576         2165.08175  0.42475   0.0396     0.07401  48.65935     19.22047   3258.86535    -4.49582  1.13557  17193.74821  0.00923  55265.10418  53.19859  38.05032  22.31188  55319.29674 
    14.79344  1.61856   0.79872         3.052         2100.34695   0.3726   0.0338      0.4041  52.70859     17.69867   4145.27507    -3.61026  1.00338  17921.71209  0.00028  55265.98974  53.24018  33.80906  22.31667      55322.4 
    15.00267  1.88068   3.36774        3.5856         2070.33259  0.49297  0.03801     0.03305  40.98258     16.42651    4092.3388     -6.6124  0.56402  16334.62398    1e-05   55262.9876  53.14186  42.93736  22.36688  55319.29674 
    14.82811  1.41941   1.05436       4.32255         2004.46863  0.34583  0.02714     0.20893  59.28308     16.93301   9656.08092    -4.12888  0.76931  18382.10799    5e-05  55265.47112  53.27027  31.96821  22.34833      55322.4 
    14.73012  1.69829   6.00886       0.03153         3069.16366  0.45767  0.02794     0.05958   42.5932     19.31847   8640.21082   -18.48859  0.54336  14358.90081  0.01157  55251.11141  53.03266  40.11796  22.28844  55315.75038 
    14.55596  1.89506   1.68863        0.1407         2243.24772  0.23308  0.02018     0.48549  90.20787     20.38951   5378.07807    -8.69112   1.2123  15411.66649  0.13622  55260.90888  53.14481  22.96028  22.35059  55319.29674 
    14.45238  1.83825   1.61988       1.06222         2021.03682  0.19735  0.02476     0.06015  88.78877     20.25247   4319.11333    -5.07103  1.30958  16456.11343  0.09936  55264.52897  53.20075   19.3957  22.31095  55319.29674 
    14.97115  1.96847   1.58181       4.16072         2076.62876  0.43513   0.0356     0.01341  50.00141     19.89903    7485.1762    -5.29809   0.7616  17952.96709  0.04403  55264.30191  53.23803  39.15097  22.30485  55319.29674 
     14.4253   1.7601   4.96373       0.09275         2590.29466  0.19337  0.01868     0.19395  78.33604     19.22039   3060.15587   -19.53636  0.42114   15256.3927  0.00923  55250.06364  53.12692  18.65455  22.30136      55322.4 
    14.96828  1.71079   1.83981       4.53423         2040.09319  0.25453  0.02542     0.46617   77.0106      17.9211   5900.74526    -2.56549  0.48453  19059.23076  0.00046  55267.03451  53.31911  24.49125  22.30361  55319.29674 
    14.62492  1.60767   0.94261       2.88975         2123.37687  0.47805  0.05574     0.20265  42.47943     17.53877   6096.16051    -2.93051  1.03112  17461.66918  0.00019  55266.66949  53.20239  41.88634  22.23736  55319.29674 
    14.63091  1.78881   2.05323       3.86688         2047.93076  0.45057   0.0459     0.43386  40.99821     18.73882   5568.49712    -5.81547  1.23653  17192.19996  0.00304  55263.78453  53.18633  39.24673  22.28814  55315.75038 
    14.26415   1.7062   2.95163       4.32596          2000.8622  0.29543  0.07188     0.01793  33.18338     17.21592   6801.76524   -10.95361  0.86808  17456.66774    9e-05  55258.64639  53.18407  24.83021  22.30701  55315.75038 
    14.27343  1.45537    2.3659       0.08226         4170.33673  0.38459  0.04265     0.15072   37.8112     18.19024   8984.28343    -7.86217  1.55329  13521.23404  0.00086  55261.73783  52.97183  33.05001  22.34806      55322.4 
    14.63282  1.70662   1.60597       3.97897         2051.99271  0.36699  0.03797     0.01727  53.99859     16.39248   3056.99682    -5.55883  1.41909  17793.53464    1e-05  55264.04117  53.23561   33.4284  22.29368      55322.4 
    14.91556  1.63461   1.11415       0.11493         2718.00955  0.38385  0.02229     0.19188  60.64357     19.68916   3019.87953   -12.14131  1.34577  15576.76474  0.02716  55257.45869  53.12797  35.60887  22.29214      55322.4 
     14.7757  1.88761   4.17721       0.00879         4175.21834  0.47444   0.0299     0.15148  42.65682     18.92067   8953.80349   -12.79707  1.44444  15515.06037  0.00463  55256.80293  53.10003  41.59799  22.37366      55322.4 
    14.91812  1.82184   1.20045       1.82235         2044.82006  0.27016  0.02828     0.01089  74.39102     18.08152   6162.76409    -3.18152  0.63691  18784.28515  0.00067  55266.41848  53.30423  25.86025  22.38952      55322.4 
    14.79441  1.92876   2.69117       0.18222         2996.09777  0.38953  0.02522     0.29985  64.05258     20.32607   4938.51309   -14.38675  0.89246   15175.8878   0.1177  55255.21325  53.10901  36.44319  22.29002  55319.29674 
