 texplosion  fnickel    Pspin  log(Bfield)      Mns  thetaPB   mejecta    kappa  kappagamma     vejecta  temperature    alpha  cutoff_wavelength  log(nhhost)      A_V         MJD0   kenergy  mnickel           TSD   log(L0)  Peak_mag     Peak_MJD  log(E_rad)  log(Peak_lum)  Rise_Time    E_fold  tau_1  delta_m15     r_peak     frac 
   -6.31907  0.03354   0.7901     13.99338  1.67779  1.24234  24.74561  0.19735     0.05488  6510.51979   3788.04294  1.71873         3557.97823     16.51291    2e-05  58955.91093   6.25686  0.82987  100267.46203  47.69706  19.30466     59038.19    51.41313       44.39737   42.16228  89.63211   81.5     0.0488  -21.76678  0.99735 
   -5.63747  0.01912  1.08035     14.10154  1.98148  1.28173  23.94539  0.16236     0.26123  5581.67449   6798.66791  2.27535         3629.63014     16.13346    1e-05  58956.59253   4.45019  0.45779  134541.35775  47.36985  19.30335     59034.18    51.35918       44.35908   48.41448   80.6908   81.5    0.04949  -21.70239  0.99779 
   -6.32902  0.03522  0.92867     13.85518   1.4118  1.11068  24.02534  0.16304     0.01815  6507.93155   7345.60278  2.16562         3505.59733     20.39557  0.13813  58955.90098   6.06992  0.84627  220273.53874  47.13993  19.28367     59042.17     51.4049       44.39711   48.16612  85.26974   74.5    0.05222  -21.90648  0.99488 
   -6.59244  0.00178  1.04623      13.9257  1.62127  1.55515  19.74958  0.18548     0.02085  5465.40114    3423.6489  2.23125          3623.6391     18.20519  0.00089  58955.63756   3.51908  0.03522  232021.63341  47.07392  19.30641  59034.42436    51.38241       44.39273   37.62713   87.4436   81.5    0.04924  -21.70698  0.99978 
   -7.23932  0.02294  0.88166     14.07843  1.62151  0.76626  41.14503  0.17968     0.19188  9416.23161   5942.21012  1.91909         3036.90911     18.22891  0.00094  58954.99068    21.762  0.94372   81559.01007  47.67669  19.31177      59033.2    51.35626       44.34299   46.77301  83.56726   79.5    0.05751  -21.87342  0.99589 
   -9.63886  0.01579  1.45827     13.97986  1.76837  0.99491  22.92045  0.15625     0.04491  6210.82464   4998.64239  2.16389         3452.12456        20.05  0.06233  58952.59114   5.27411  0.36188  383122.95111   46.6054  19.31488     59038.17    51.37062       44.32692   48.79028  94.81169   79.0    0.05829  -21.78044  0.99608 
    -5.1816  0.03308  0.89367     14.10405  1.93516   1.2961  19.73916   0.1548     0.24955  4753.03452    3753.4381  1.98641         3749.98587     19.21935  0.00921   58957.0484    2.6601  0.65304   88878.54136  47.70441   19.3115     59040.19    51.38042        44.3555   48.50532  90.87613   81.5    0.05913  -21.66477  0.99787 
   -7.10933   0.0727  1.50471     14.02519  1.81523  1.08424  24.67094  0.17062     0.14303   6603.8569   4314.61659   2.9544         3390.25909     17.75536  0.00032  58955.12067   6.41813  1.79368  339832.18805  46.64161  19.31069  59034.42436    51.42956       44.45124    40.7212   80.6908   82.5    0.05122  -21.77071  0.98049 
    -5.6464   0.0022  0.79284     13.91397  1.55495  1.20446  14.36386  0.23183     0.04025  5072.81628   7203.38949  2.20447         3645.73195     20.47086  0.16428   58956.5836   2.20494  0.03163  134884.79953  47.53223  19.32647     59034.18    51.37523       44.35757    40.3454  88.75988   82.5    0.05564  -21.83712  0.99988 
   -6.93999  0.00927  1.37014     14.10458  2.19886  1.51255  37.95282  0.11801      0.2814   6341.4451   5733.05529  2.13567         3525.39341     17.05658    6e-05  58955.29001   9.10432  0.35197  236800.59214  46.96313  19.30398  59034.42436    51.39821       44.43514    39.9811  79.41363   80.5    0.05232  -21.75757   0.9976 
   -6.29826  0.02317  1.20628     14.03309  1.74079  0.99431   43.2573  0.11872     0.02104  7120.98479   4977.51172  2.61492         3391.56166     17.70254  0.00028  58955.93174  13.08479  1.00208   201963.5047  47.04142   19.3027  59034.42436    51.48701        44.5225   37.83706  79.54039   80.5    0.05316  -21.79659  0.99251 
   -7.30772  0.00528  1.19319     14.07401  1.71533  0.85687  43.24456    0.066     0.01162  4509.14686   7161.56159  2.38638          3629.6794     17.88431  0.00043  58954.92228   5.24502  0.22816  161273.72881  47.14221  19.30237     59036.19    51.39183       44.36942   48.41448  85.02138   84.5    0.05188  -21.61827  0.99828 
   -6.21792  0.00723  0.95667     13.97681  1.41499  0.83055  35.45981  0.10467     0.09083  5600.20976   6479.73543  2.36851         3542.30484     18.01176  0.00057  58956.01208   6.63395   0.2565  133808.51906  47.33159  19.31056  59034.42436    51.37101       44.38337   42.36267  84.72534   82.0    0.05848   -21.6967  0.99836 
   -7.65284  0.00145  1.43868     14.06884  2.17328  1.34854  16.15877  0.30649     0.02133  6465.21848   6589.37884  2.33007          3452.4846     16.43244    2e-05  58954.57716   4.02904  0.02339  304219.45426  46.80685  19.32689  59034.42436    51.36936       44.37934   42.73847  82.70807   78.0    0.04666  -21.77729  0.99982 
   -7.69059   0.0081  1.13991     13.83138  1.50526  1.31413  18.48912  0.30659     0.01455  6760.75805   4514.65934  3.27666         3248.55759     17.03202    6e-05  58954.53941    5.0412  0.14982  394826.76582  46.73631   19.3156     59034.18    51.38283       44.40009   36.31086  84.72534   75.5    0.04759  -21.74791  0.99874 
   -8.26977  0.00602  1.21093     13.76718  1.48497  1.26981  43.90546  0.09514     0.03485  6324.25977   5084.13995  3.74262         3186.33317     20.53597  0.19085  58953.96023  10.47527  0.26409  590755.61683  46.50292  19.31168     59036.19    51.36365       44.36746   45.13294  86.36541   85.5     0.0496  -21.93925  0.99743 
   -7.09855  0.00784   1.0961     13.97013  1.70255  1.27929   21.4762  0.16193     0.11197  5303.34776   4441.91887  2.13594         3617.63412      17.8653  0.00041  58955.13145   3.60317  0.16837  217949.80143  47.08189  19.32992  59034.42436    51.36877       44.34982   44.94696  86.66145   81.0    0.05164  -21.68472  0.99893 
   -7.00423  0.00428  0.87844     14.00083  1.75647  1.33266  14.18373  0.19312     0.15021  4190.22969    4106.5687  1.85169         3815.04163     19.11685  0.00727  58955.22577   1.48557   0.0607  125377.31727  47.52785  19.29921     59040.19    51.36335       44.34804   50.43175  86.74261   85.0    0.04959  -21.61692  0.99977 
   -6.07709  0.00559  1.12608     13.95298  1.72548  1.52676  27.02614  0.18835      0.0139  6658.59237   6237.96024  2.71684         3446.48675     16.82428    4e-05  58956.15291   7.14786  0.15104  252288.24985  47.00072  19.31182  59039.97347    51.39248       44.37381   48.69129  88.85886   79.5    0.04908  -21.77054    0.999 
   -7.52462  0.10167  1.03346     14.05024   1.6802   1.0647  28.34676  0.08806     0.03524  4718.58171   4149.19927  1.77823         3752.55458     18.53814  0.00192  58954.70538    3.7649  2.88202  132217.36508  47.34433   19.3416  59034.42436    51.35281       44.35424   45.13294  85.20733   83.5    0.05676  -21.60398  0.98383 
   -3.46421  0.01654  0.75047     14.07296  1.84436  1.56878  37.47027  0.06982      0.1672  4061.20426   3992.13636  2.29212          3746.0904     19.84101  0.03852  58958.76579   3.68658  0.61974   68930.78491  47.94561  19.30841     59033.18    51.41948       44.43799   38.54958  79.54039   84.5    0.04872   -21.6543  0.99857 
   -4.90061   0.0027  0.77928     13.99559  1.68474  1.32145  49.22615  0.05958     0.17843  4639.90396    4635.7059  2.01401         3769.75998     19.96072  0.05075  58957.32939    6.3218   0.1329   96950.17525  47.72544  19.34082     59034.18    51.35101        44.3362   49.40381   86.7384   81.5    0.05278  -21.72575  0.99959 
   -8.54475  0.00435  1.38381     14.10856  2.08229  1.14035  11.97578  0.28569     0.03031  5490.49961   3351.91041  1.92745         3686.77417      16.6249    2e-05  58953.68525   2.15355  0.05209  224592.05135  46.95384  19.30738     59036.17    51.43885       44.45712   44.37994   80.6908   77.0    0.05433  -21.66248  0.99961 
   -5.79925  0.00204   1.4998     13.97991  1.89793  1.32837  26.21859  0.21365     0.02086  7241.90894   5209.50519  4.41347         3267.33758     19.48244  0.01687  58956.43075   8.20243  0.05358  434857.71829  46.55671  19.31218     59038.17    51.36698       44.36382   50.25894  83.00411   80.0    0.04972  -21.82691  0.99945 
   -9.64586  0.00304  1.31519     13.95962  1.79178  1.29563  30.37583  0.11717     0.02521  5706.16469    5674.4764  1.89806         3549.10003     19.36802  0.01296  58952.58414   5.89989  0.09232  346602.46974  46.74432  19.31991  59034.42436    51.37065       44.38276   42.55249  82.70807   80.0    0.05512   -21.6614   0.9992 
   -5.29118  0.01156  0.90956     13.98854  1.64709  1.44417  58.18194  0.04228     0.01133  4123.13756   6012.44287  2.28986         3803.03468     19.37574   0.0132  58956.93882   5.90026  0.67248  133386.90578  47.44278  19.30519     59038.19    51.39083       44.37848   45.84546  88.38268   82.0    0.04961  -21.62234  0.99701 
   -5.47341  0.08535  1.06356     13.95644  1.60865  1.15662  28.13067  0.15864     0.01775  6670.64241   5534.59457  2.56044         3429.73715     19.98498  0.05367  58956.75659   7.46694  2.40086   206502.7837  47.10685  19.32217     59036.19    51.37816       44.35282   50.33276   86.7384   81.5    0.05068    -21.835  0.98451 
   -6.67768    0.005  0.81565     14.01211  1.61858  1.00226  30.60632  0.11423     0.06228  5302.76942   6676.92319  1.59327         3855.87615     18.67944  0.00266  58955.55232   5.13386  0.15318   94567.73221  47.67923  19.32426  59037.19891    51.37726       44.35062   50.20358  86.71659   80.0    0.05449  -21.73042  0.99944 
    -6.2126  0.13574  0.79641     14.05608  1.60734     1.03  19.18629  0.14519     0.22842  4872.38739   7252.36517  1.76427         3799.98136     16.97799    5e-05   58956.0174   2.71708  2.60428   73120.64626  47.80864  19.29922  59039.97347    51.38931       44.33423   54.31529  92.79442   80.0    0.05321  -21.66184  0.99122 
   -7.39706  0.04114  1.28219     14.01487  1.77291  1.11947  18.21347  0.20391     0.05507  5864.06963   4212.37178  2.26201         3460.00668     17.23276    9e-05  58954.83294    3.7361  0.74932   252734.8852  46.89896  19.34003     59036.19    51.37716        44.3411   44.13158  93.04278   80.5     0.0527  -21.69304  0.99382 
   -6.20127  0.03113  0.75484     13.98527   1.4898   0.9955  13.73191  0.24511     0.07295  5169.66213   5866.95405  1.84057         3713.50341     16.79142    3e-05  58956.02873   2.18918  0.42747   84355.64143  47.76015   19.3053  59034.42436    51.39015       44.38751   38.32813  86.74261   80.0    0.05772  -21.67951  0.99851 
   -6.61964  0.00211  0.70562     13.79533  1.27515  1.46005  19.39574  0.12695     0.05231  4140.48355   7452.13172  1.80374         3858.96907     16.30438    1e-05  58955.61036   1.98352  0.04094  151306.95541  47.49741  19.28357  59034.42436    51.38957       44.37556   45.13294  84.34814   80.0    0.05163   -21.6288  0.99984 
   -4.87006  0.00687  0.78051     13.95287  1.59623  1.48757  26.29207  0.14505     0.11589  5436.46112   3818.51897  2.10932         3642.08957     19.51317  0.01811  58957.35994   4.63537  0.18053  112183.08318  47.63726   19.3255     59034.18    51.35188       44.36343   44.75574  82.70807   82.0    0.04476   -21.7163  0.99939 
   -5.44819  0.08017  0.94919     14.04237  1.66206  1.00932  24.48185  0.13415     0.25139   5194.8768   5485.65359  2.13623         3656.99921     19.76146  0.03208  58956.78181   3.94114   1.9626  114401.52882  47.47636  19.29409     59038.19    51.48851       44.46686   44.35073  87.44365   85.5    0.04983  -21.72336  0.99055 
   -5.43373  0.00223  1.25999      13.9933  1.80103  1.25784  39.11172  0.11814     0.30845  6347.99985   5447.82818  3.46189         3348.01032     19.61893   0.0231  58956.79627   9.40173   0.0872  273819.02285  46.88617  19.32793     59036.17    51.37982       44.35065   41.97221  92.55489   84.5    0.04996  -21.77138  0.99932 
   -7.25071  0.03178  1.31421     13.93742   1.7394  1.40766  22.69047  0.23317     0.01738  7331.11913   6358.75506  2.79577         3260.37905     18.96981  0.00518  58954.97929   7.27464  0.72116  372130.24924  46.70122  19.30858     59036.19    51.39349        44.4008    40.7212  86.74261   76.0    0.05235  -21.78879  0.99355 
   -4.77449  0.43801  1.26291     14.10228  1.83303  1.21006  22.20574  0.22461     0.01019  7502.43037   6667.40422   3.2146         3244.54814     18.54271  0.00194  58957.45551   7.45584  9.72634  169496.73518  47.10011  19.32692      59033.2    51.42062        44.4292   35.44399  83.57493   73.5    0.04852  -21.82805  0.93168 
   -4.72229  0.00118  0.91011      14.3027   2.1621  0.79594  31.99727     0.11     0.01356  5031.85536   3207.10332  2.01495         3666.78477     16.99798    6e-05  58957.50771   4.83277  0.03769   41256.33366  48.07004  19.29077     59036.17    51.55609       44.58564   36.31086   80.6908   81.5    0.05356  -21.66289  0.99989 
   -4.56601  0.22707  1.02487     14.10831  1.93994  1.09283  15.11702  0.33734      0.0115   6243.8554   3322.28509  2.52984         3545.28745     16.39404    1e-05  58957.66399    3.5156  3.43255  114899.60931  47.47498  19.29212      59033.2    51.38124       44.36148   48.01512   84.9737   73.0    0.04843  -21.78891  0.98482 
   -7.54643  0.00932   0.7264     14.12635  1.85767  0.91955  37.01386  0.12501     0.05702  6363.78035   5949.01751  1.45562         3662.43369     20.05356  0.06285  58954.68357   8.94174  0.34484   50866.32253  48.10903  19.30746  59034.42436     51.4104       44.40511   45.84546  85.20733   79.5    0.04969  -21.74463  0.99924 
   -7.53387  0.02062  1.69504     14.09238  2.09401  1.16895  48.94845  0.08113     0.06632  5673.08005   6752.83659  3.76199         3393.63431     17.88766  0.00043  58954.69613   9.39732  1.00949  365087.44859  46.56907  19.30359  59039.97347    51.38116       44.35915    49.5028  90.77715   86.5    0.04565  -21.69562  0.98865 
   -4.19093  0.07745  0.72639     14.07658  1.88126  1.48448  21.72463  0.27507     0.06448   7310.9499   3721.59562  1.87423         3566.79809     16.60292    2e-05  58958.03907   6.92671   1.6826   64780.35581  48.00951  19.30854  59034.42436    51.37981       44.38021   39.76921  89.33606   82.5    0.04741  -21.80406  0.99652 
   -7.02326  0.00123  0.79031     13.87459  1.44468  1.44841  31.47277  0.10327     0.02083  5051.33269   5231.98092  1.76031         3771.21471     17.74987  0.00031  58955.20674   4.79043  0.03883  149280.51052  47.45901  19.32726     59036.17    51.35873       44.35086   46.77301  88.65669   79.5    0.05242  -21.65749  0.99984 
   -6.71827  0.05939  1.39858     13.97495  1.68588  1.39059  36.15033  0.07463     0.09742  4573.82938   7025.06832  3.30468         3513.27513     18.98129  0.00532  58955.51173   4.51127  2.14682  343646.86518  46.66818  19.30398  59034.42436    51.39356       44.40295   40.53522  82.70807   87.0    0.04965  -21.62082  0.97761 
   -9.81641   0.0039  1.04928     13.96333  1.81144  1.48633  33.32914  0.10247     0.10231  5428.76997   3460.05448  1.47426         3736.30191     19.91308  0.04548  58952.41359   5.85941  0.12999  219259.75856  47.14413  19.30736     59036.17    51.34337       44.35222   42.73987  86.36541   80.5    0.05309  -21.64964  0.99931 
  -11.35352  0.02358  1.47844     13.90044  1.85099  1.49415  32.13785  0.14116     0.02785  7378.17905   6762.22133  4.04851         2696.30362      20.3201   0.1161  58950.87648   10.4362   0.7577  594218.55027   46.4227  19.32397     59036.19    51.44325       44.43828   48.79028  84.72534   80.0    0.05429  -21.83226  0.99215 
   -7.85722  0.00803  1.19295     13.74602  1.36184  1.48038  32.35927    0.164     0.08641  7157.62029   6137.65136  3.65855         3275.14386     19.56135  0.02023  58954.37278   9.88925  0.25981  579617.60544  46.48658  19.32516  59031.64981    51.38594       44.40307   45.84546  78.29633   84.5    0.05067  -21.80414  0.99721 
   -7.12652  0.00951  1.25234     14.07034  2.04181  1.17757   19.8959  0.25747     0.05682  7091.89047    3768.2885  2.22004         3404.09763     19.93832   0.0482  58955.10348   5.96918  0.18919  215074.56767  47.05083   19.3184  59034.42436    51.37207       44.35027   46.14885  86.99097   80.0    0.05438  -21.84718  0.99879 
     -5.128  0.00116  1.25198     14.02762  1.90387  1.27581  51.97934  0.10243     0.05878  6781.39327   4804.67277  3.01668         3391.95286     17.55979   0.0002    58957.102  14.25922  0.06036  244012.44389  46.96588   19.3154     59033.18    51.44867       44.43642    39.6444  85.42633   84.0    0.04844  -21.77355  0.99957 
   -6.54737   0.0723   0.7582     13.97107   1.5686  1.28733  13.27525  0.21323     0.08353  4676.96555     3328.958  1.76758         3774.34467     17.78322  0.00034  58955.68263    1.7322  0.95976   95664.73821  47.72404   19.3288  59034.42436    51.38104       44.39449   37.58803  85.46544   81.0    0.04835  -21.64763  0.99693 
   -4.61611  0.00421  0.91996      13.8952  1.50849  1.20384  18.99448  0.22868     0.01052  5583.74047   3928.94289  2.65276         3493.05958     18.21619  0.00091  58957.61389   3.53269  0.07988  192081.54936  47.23637  19.31814     59036.19    51.40612       44.40334    40.7212  84.72534   78.0    0.04449  -21.73449  0.99957 
   -7.36997  0.00572  1.19103       14.083  2.03576  0.86704  22.60873  0.21087     0.47126  7381.21019   5046.48315  2.68402         3201.26365     20.70568   0.2821  58954.86003   7.34782  0.12939  182974.66267  47.16334  19.31884     59033.18    51.33612        44.3193   49.40381   86.7384   80.0     0.0527  -22.10023  0.99925 
   -6.21277  0.00444  0.81852     13.96363  1.40714  0.77259  29.84634  0.14429     0.01404  6357.15416   7288.70119  2.18046         3501.26286     20.31295   0.1142  58956.01723   7.19522  0.13256  103500.85453  47.57618  19.31696  59034.42436     51.3917       44.37165   47.23717  85.26974   76.5    0.05427  -21.88514  0.99938 
   -5.47367  0.05943  1.14106     13.99704  1.75792  1.32582  20.44797  0.22459     0.01685  6209.70784   4279.83596  2.88888         3458.00286     18.71003  0.00285  58956.75633   4.70348  1.21514  215454.44508  47.06587  19.28871     59034.18    51.42193       44.39743   48.41448  82.70807   81.5    0.04702  -21.73995  0.99205 
   -6.14912  0.00247  0.99508     14.07074  1.91747  1.32462  45.11704  0.07074     0.02803  5055.07528   5763.38976  1.82196          3706.1624     17.67926  0.00027  58956.08088   6.87738  0.11164  127284.44344  47.45108  19.33089     59036.19    51.37312       44.39347   38.32813  84.72534   79.5    0.05535  -21.67807  0.99952 
   -7.14387  0.01165  1.09963     13.83283  1.50271  1.32451  19.46445  0.18727      0.4569  5609.98306   3456.85545  2.45817         3536.05146     20.13604  0.07599  58955.08613    3.6542   0.2268  364353.07065   46.8017  19.27544     59034.18    51.40407       44.44271   35.44399  79.54039   82.5    0.05102   -21.8188  0.99823 
   -7.03033  0.02243  0.75284      14.0228  1.72357  1.01463  26.34881  0.23119      0.0131  7290.87726   6595.22624  1.70018         3426.22562     20.02091   0.0583  58955.19967   8.35503  0.59094   81668.36453  47.83981  19.32757  59031.64981    51.40914        44.4305   42.16955  79.24244   75.5    0.05301   -21.8509  0.99835 
   -7.23375  0.20544  1.67096     14.04952  1.88394   1.2975  22.30715  0.15368     0.01159  5631.98481   4309.15551  3.85576         3374.05647     18.75124  0.00313  58954.99625   4.22079  4.58285  388842.18024  46.50821   19.3099  59034.42436    51.36182       44.34046    49.5028  84.72534   83.0    0.04787  -21.69998  0.94403 
   -5.45235  0.02626  0.84605     14.09813  1.94056  1.38897  20.24767  0.16884     0.03057  5011.55418   6232.57192  1.90408          3776.7714     18.65527  0.00251  58956.77765   3.03352  0.53167   82086.30087  47.78771  19.29437  59037.19891    51.40125       44.36543   48.69129  88.85886   83.0    0.04997  -21.68791  0.99848 
