 log(Bfield)      Mns    Pspin  cutoff_power  cutoff_wavelength  fnickel    kappa  kappagamma   mejecta  log(nhhost)  temperature  texplosion  thetaPB     vejecta      A_V        MJD_0   log(KE)      M_Ni  Peak_mag     Peak_MJD 
    14.09306  1.87451  1.16014       2.03509         3021.28581  0.00733  0.11049     0.04167   31.4365     20.41818   8879.97992    -6.24664  0.79672  5422.13451  0.14552  58955.98336  52.16443   0.61065  19.31718     59036.17 
     13.8641   1.5218   0.7945       2.49826         2198.28678    0.251  0.22152     0.23702  15.51935      20.6725   7537.44462    -6.11075  1.08576  6310.67141  0.26135  58956.11925  52.23943  18.33732   19.3268  59037.56327 
    13.94373  1.69419  0.82053       4.22109         2173.81203  0.01636  0.33115     0.11535   14.5397     19.91492   3501.95797     -3.7507  1.38136  6514.33932  0.04567   58958.4793  52.26138   1.17985  19.32833  59037.56327 
     13.9114   1.9023  1.20277       3.44523         2706.90924  0.01115  0.24487     0.03597  15.52753     20.67313   8627.95094    -6.51552  1.38757   6065.8324  0.26173  58955.71448  52.20511   0.81456  19.30994     59036.19 
    14.15916  1.65416  0.92213       3.92615         2017.34958  0.01877  0.05593       0.017  65.51291     20.30123   5718.09958     -5.4213  0.55521  6080.27186  0.11116   58956.8087  52.31606   1.76266  19.29459     59040.18 
    14.09153  1.73244    0.754       3.75218          2078.6239  0.01046  0.05153     0.02071  64.33486     20.67038   8195.95407    -4.42173  0.68523  5661.89121  0.26008  58957.80827  52.25292   0.97909   19.3362     59036.17 
    14.12967  1.83438  1.34451       4.10418         2819.58922  0.47454  0.27186     0.01145  14.16751      20.2918   7556.13998    -6.25398   0.7212  5708.31301  0.10877  58955.97602  52.14439  34.04272  19.30776     59036.19 
    13.97701  1.48879  1.04319       3.59904         2375.76963  0.01514  0.26771     0.01126  13.18352     20.37857   5871.05677    -7.82314  0.62084  5363.25126  0.13283  58954.40686  52.08388   1.07058  19.27898     59040.18 
    14.20962  2.04973  0.89102        2.9632         2310.39506  0.30942  0.22371     0.02875  14.10396     20.82351   3978.86061     -5.7966  0.63654  5827.10386  0.37003   58956.4334  52.16189  22.17706   19.2956  59037.56327 
    13.93007  1.68225  0.82257       4.47882         2468.62006   0.1037  0.32541     0.01497  11.88273     20.60416   4300.77485    -4.23773  1.06576  5401.83182   0.2233  58957.99227  52.08078   7.17531  19.31499     59036.19 
    14.19069  1.60558  1.25674       3.59042         2980.66901  0.27842  0.30537     0.01419  11.40071     20.03111   3244.88952    -5.56235  0.50702  5316.34149  0.05968  58956.66765  52.06315  19.09867  19.31924     59038.19 
    14.17001  1.90213  0.73931       3.33044         2296.53001  0.06637  0.26362     0.14218  13.19144     20.84208    6989.9741    -4.42865  0.62276  5931.45001   0.3862  58957.80135   52.1714   4.69261  19.31856  59037.56327 
    14.21534  1.73965  0.97302       3.93236         2046.75596   0.0199  0.04631     0.05741   67.6621     20.80694   3190.76821    -7.00916  0.42017  6198.82873  0.35618  58955.22084  52.33499   1.87756  19.29911     59036.17 
    13.85094  1.42701  0.88415       2.57087         2296.80195  0.02659  0.24365     0.12763  17.21246     19.88441   5962.46764    -6.02013  1.03473  6168.27213  0.04257  58956.20987  52.22842   1.98246  19.29654   59040.9767 
    14.39758  1.96635  1.78977        3.4747         2971.77239  0.01657  0.26952      0.0461   14.2496     17.25188   9405.86096    -8.70428  0.36428  6000.88186   0.0001  58953.52572  52.18831   1.19014   19.3248     59034.19 
    14.12331  1.81871  0.93291       4.59742         2065.76991  0.07886  0.14991      0.1064  24.59841     20.65261     5841.634    -5.31822  0.66451  6303.54278  0.24965  58956.91178  52.27635   6.28667  19.33188     59036.19 
    14.57662   1.5757  1.08287       2.15803         3094.60955  0.41593  0.32936     0.01393  12.34292     16.50496   9662.40554    -5.72758  0.21409  5722.09346    2e-05  58956.50242  52.13425  29.00892  19.30921     59042.17 
     14.3246  1.41584  0.84252       2.02413         2854.34642  0.00292  0.23059     0.17196  22.17955     18.12062   3328.38485    -5.16726  0.30926  6509.95481  0.00073  58957.06274   52.2961   0.22871  19.29738  59037.56327 
    14.04403  1.48081  0.91954        2.3858          2606.5252  0.01236  0.33723      0.0138  14.36268     19.30392   6888.60622      -6.214  0.59965  5977.92511  0.01119    58956.016  52.18567   0.88946  19.30876     59040.19 
    14.39085  2.00174  1.38203       4.41903         2170.55216  0.17135  0.15691     0.04466  20.87389     20.24907   4176.96548    -6.63832  0.42505  6168.57409  0.09858  58955.59168  52.24442  13.25268   19.3057     59044.17 
    14.41542  1.97893  1.12337       2.36164         2506.64123  0.00238  0.27987     0.04976  15.08616     18.34529   4878.55024    -5.50482  0.41106  5873.83272  0.00123  58956.72518  52.17469   0.17272  19.32175     59033.18 
     14.0839  1.90259   0.9372       3.19107         2607.04914  0.01469  0.31696     0.01635  12.37369     20.69145   3388.50785    -5.25772  0.77506  5755.02023  0.27301  58956.97228  52.13945   1.02475  19.28559     59040.18 
    13.90636  1.51066  1.15498       3.29373         2323.23861  0.03468  0.22543     0.01218    15.277     19.48637   6017.11164    -8.85635  0.88721  5366.82198  0.01703  58953.37365  52.09736   2.52605  19.29533     59038.19 
    13.71688  1.48004  1.02559        2.0433         2903.42264  0.01445  0.23693     0.02079   12.9569     20.69059   8640.27804     -8.9956  1.44781  5285.01038  0.27247   58953.2344  52.06958   1.01771  19.32189     59036.19 
    14.14173  1.26224   1.1026       3.87659          2939.2296  0.05625  0.28199     0.03683  14.06226     19.12313   4458.35188    -6.22553  0.37245  5584.60263  0.00738  58956.00447  52.12471   4.02937  19.31584   59040.9767 
    14.22012  1.90372  1.33111       3.04617          2870.0614  0.33902  0.21977     0.01005  19.86353     18.23059   6909.44604    -5.90604  0.69318  6169.61473  0.00094  58956.32396  52.24052  25.97724  19.31944   59040.9767 
    13.93775  1.70433  1.25015       3.82768         3049.92729  0.08291  0.32684     0.01355  12.67073     16.19714   6698.24344    -5.46323  1.26052  5278.11152    1e-05  58956.76677  52.06645   5.81407  19.32932     59036.17 
    14.09301    1.579  1.08495       1.93531         3300.89949   0.0288   0.3261     0.01458  10.58968       17.556   4429.27964     -5.8248  0.64295  4824.56326   0.0002   58956.4052  51.97203   1.94469  19.33006     59044.17 
    14.00035  1.57243  1.00577       3.36473          2539.0521  0.00335  0.22828     0.01318  19.05585     18.62407   9348.35766    -5.39187  0.82059  5907.10527  0.00234  58956.83813  52.19933   0.25455  19.31276     59040.18 
    14.34906  1.68873  1.21297       3.19046          2793.4721  0.01341  0.33161     0.01044  12.11435     16.52195     6297.982    -7.20966  0.33583  5069.83959    2e-05  58955.02034  52.02744   0.93184  19.30597     59038.19 
    13.92753  1.69746  1.16452       3.49204         2644.54898  0.06206  0.24608     0.01354  15.78015     17.91405   9609.67454     -5.7501  1.29441  5511.66692  0.00046   58956.4799  52.12328   4.54872  19.31123     59038.17 
    13.92735  1.67626  1.39216       3.94518         3179.30308  0.00305  0.14939     0.07657  22.85363     19.79757    7364.2986    -5.76218  1.13699  4956.36021  0.03486  58956.46782  52.06167   0.24016  19.30172     59036.19 
    13.81274  1.49276  1.20604       3.01731         2654.29764  0.04259  0.08817     0.03498  35.02285     20.23997   9815.86168    -7.48176  1.25088  5444.62292  0.09654  58954.74824   52.1761   3.61289  19.31535     59036.19 
    14.12246  1.61823  1.51924       4.31883         2880.02311  0.20445  0.31533     0.01628  10.10905     19.22825   6488.72504    -8.42757  0.54727  4915.22329   0.0094  58953.80243  51.98386  13.66868   19.3223     59036.17 
    13.91241  1.56738  1.09166       4.29062         2504.82089  0.06085  0.26752     0.02163  16.19131     16.02712   8639.33619    -5.94648  1.05667  5943.89219    1e-05  58956.28352  52.19105   4.48295  19.29626     59036.19 
    14.36258     1.97  1.10687       2.24856         3204.45091  0.13134  0.32763     0.01114  13.01684     16.81613   6306.38253    -4.85711  0.48674   5154.7865    4e-05  58957.37289  52.04832   9.26112  19.30505     59040.18 
    14.08693  2.01331  1.01898       0.94419         3538.67013  0.00229  0.24587     0.01571  13.82572     16.04379   8925.95611    -6.88349  1.13862  4832.89702    1e-05  58955.34651  51.99765   0.16319   19.3378     59034.19 
    13.97444  1.69487  0.89403       2.01538         3318.98936  0.00993  0.26071     0.01071  15.68874     16.82032   8091.08826    -4.49693  1.18318   4838.1211    4e-05  58957.73307  52.00957    0.7267  19.29011     59038.19 
    13.93262   1.7796  0.84014       4.95252         2225.53097  0.02597  0.32349     0.01139  13.93688     20.26655   7873.26749    -4.45087  1.35601  5620.00949  0.10263  58957.77913  52.12941   1.85715  19.32054     59040.19 
    13.85158  1.56152  1.04884       4.75837         2463.19268  0.06033  0.28517     0.01333  14.77096     20.07536   9456.72718    -6.12591   1.2094  5716.86348  0.06608  58956.10409  52.14933   4.36429  19.31491     59034.19 
    14.00308   1.3379   0.8412       2.44471         2263.95948  0.00268  0.08004     0.16005  52.39307     20.04956   4889.31446    -6.69984  0.57567  6327.79516  0.06227  58955.53016  52.33551   0.24255  19.32522  59037.56327 
    14.11878   1.7626  0.86037       4.83951         2101.82001  0.01322  0.10907     0.28847   34.2734     20.64441   3591.56795    -4.87269  0.63722  6099.00455  0.24499  58957.35731  52.27307    1.1171   19.3059     59040.18 
     14.0794  1.49318  1.22491       4.73193         2507.32104  0.01281  0.31927     0.18027   11.5658     18.96395   8000.40519    -6.70932  0.56239  5737.10537  0.00511  58955.52068  52.13062   0.88164  19.31377   59040.9767 
    14.04898  1.74796  1.02465        3.5659         2285.52011  0.00421  0.29682     0.19131  12.65211     20.51546   6124.46871    -6.20392  0.76046  6176.21818  0.18205  58956.02608   52.2028   0.29543   19.3144     59042.19 
    14.14243  1.69064  1.09197       2.47041         2834.83792  0.01234  0.29331     0.01501  14.90534     16.22283   8175.94012    -6.00995  0.60945  5609.96457    1e-05  58956.22005  52.13372   0.89427  19.32598     59034.19 
    14.14352  1.72824  1.15571       4.07184         2996.47167  0.00248  0.33241     0.01592  12.79121     19.77598   8937.92826    -4.34517  0.66112  5452.26718  0.03317  58957.88483  52.09549   0.17443  19.32321  59037.56327 
    14.11037  1.95833  1.09108       4.22121         2214.17887  0.28512  0.31875     0.02149  13.25832     19.61543   9256.91568    -5.24233  1.02109  6311.61928  0.02292  58956.98767  52.22581  20.18021  19.31406     59036.17 
    14.24334  1.87958  1.21047       2.97962         2581.88144  0.04603  0.21818     0.44733  20.42082     19.65993   8759.29986    -5.71545  0.57431  6421.64944  0.02539  58956.51455  52.27755   3.54561  19.31253     59038.17 
    13.87245  1.44501  0.83226       3.08722         2171.17864  0.01077  0.20317     0.01627  23.16195     18.51601     8966.798    -4.89149  1.07935   6456.4668  0.00182  58957.33851   52.2924   0.84897  19.30037     59040.19 
    13.88697  1.67283  0.79047       3.66804         2462.85183  0.10366  0.29874     0.01494  14.59743     20.56217    3921.9579    -4.32245  1.52356  6075.57744  0.20272  58957.90755  52.20116   7.48093  19.30183  59037.56327 
    13.99686  1.67191  0.96146       3.08881         2622.53722  0.25826  0.32858     0.01514  14.79903     17.03576   5132.69771    -4.57004  1.06686  6219.81803    6e-05  58957.65996  52.22273  18.68988  19.30961     59036.17 
    14.13362  1.54943   1.0946       3.07624         2475.79418  0.06655  0.29645     0.06624  13.81006     17.50063    8069.6164     -5.6611   0.5633  6267.64372  0.00018   58956.5689  52.22334   4.74987  19.32721     59038.19 
    14.01156  1.52738   0.8512       2.85183         2777.60238  0.11081  0.29984     0.01862  12.13281     20.61388   3176.09596    -5.03928  0.67317  5337.68677  0.22835  58957.19072  52.07229   7.70066  19.30792     59040.19 
    13.80079   1.5117  0.96008       3.53704         2604.28101  0.09731  0.25076     0.01404  14.98292     20.47594   8508.81597    -6.00805   1.3762  5561.29105  0.16622  58956.22195   52.1266   7.05968   19.3257     59038.17 
    13.93703  1.45281  0.96116       4.04986         2787.00742  0.01867  0.33137     0.01014  12.43048     20.39587   5151.07162    -6.33621  0.69333  5109.61287  0.13823  58955.89379  52.03655    1.3038  19.30771     59036.19 
    14.05484  1.68804  0.75702       3.93988          2109.8302    0.173  0.22603     0.12566  13.98311     20.86141   7722.03471    -4.41262  0.65346  6111.93189  0.40377  58957.81738  52.20259  12.37819  19.30285     59042.17 
      13.988   1.8709  1.29755       4.93854         2764.31762  0.00698  0.33998     0.01214  13.41166     17.60589   6651.38716    -5.84145  1.12321  5472.58751  0.00022  58956.38855  52.10294   0.49495   19.3283     59036.17 
    13.89087  1.62509  0.98388       2.17017         2501.60312  0.00123  0.18642     0.01449  25.50782     18.20389     9565.805    -6.09974  1.32593  6316.37488  0.00089  58956.13026  52.28097   0.09903  19.32067     59036.19 
    13.89829  1.77862  0.81544       4.62062         2123.04634  0.00117  0.20716     0.03553  17.28202      20.7169   5654.17793    -4.49345  1.41711  5930.28647  0.28949  58957.73655  52.19459   0.08716  19.27528     59040.18 
    14.03701  1.60329  0.91642       2.73841         2687.08033  0.00151  0.33532     0.01572   12.1778     20.34458   6592.81307    -4.82476  0.71282  5685.12797  0.12283  58957.40524   52.1274   0.10509  19.33148     59040.18 
    13.89057  1.82333  1.08883         4.618         2522.91227  0.00272   0.2474      0.0231  14.42781     20.67664     4093.213    -6.09259  1.38828  5570.38038  0.26386  58956.13741  52.12474   0.19582  19.30835     59042.19 
    13.93894  1.69177  0.96686       4.94428          2644.8289  0.00103  0.27101     0.01309  15.28242     20.69395   7708.14468    -4.95893  0.89235  5710.68807  0.27458  58957.27107  52.15134   0.07509  19.29496     59040.18 
    13.84619   1.5825   0.8213       2.47097         2241.19035  0.03277  0.19971     0.35042   15.9426     20.70648   7140.37359    -7.52306  1.13602  5704.73291  0.28262  58954.70694  52.15406   2.40672  19.30414  59037.56327 
    14.38573  1.69997  0.96291        2.0654         2670.98841  0.00489  0.20092      0.0925  16.12061     20.56562   9978.25665    -6.50527   0.3109  5431.14471  0.20434  58955.72473  52.11232   0.36002  19.30945     59038.19 
    14.25818  1.69714  0.93464       2.77932         2993.66353  0.18673  0.32404     0.01008  13.31397     20.28161   8669.36838    -4.92992  0.45616   5203.0855  0.10625  58957.30008  52.05842  13.22801  19.29884     59036.19 
    13.92918  1.59308   0.8426       2.97577         2919.73889  0.06695  0.20793     0.01239  17.27025      20.8564   4323.14166    -5.38966  0.78851  5431.46727  0.39914  58956.84034  52.11821   4.99432  19.33192     59036.17 
    14.09316  1.77228  0.71769       3.67973         2015.95505   0.0019  0.04663     0.17146   71.4505     20.78498   9289.14903    -4.81882  0.64765  5828.61768  0.33862  58957.41118  52.28511   0.18122  19.30628     59038.19 
    14.24202  1.83538  0.74922       3.77925         2144.99738  0.00394  0.02869     0.06035  97.56408     20.88789   9172.16527    -4.52731  0.44267  5393.66944  0.42915  58957.70269  52.23784   0.39267  19.32143     59038.19 
    13.96031  1.55331  0.90609       4.34347         2160.17589  0.17175  0.21243     0.06027  13.79672     20.88976   6242.43099    -7.67142  0.60797  5765.75753  0.43101  58954.55858  52.15076  12.25517  19.30819   59040.9767 
    14.14606  1.76464  0.85877       2.79568         2325.03854    0.003  0.19197     0.04197  24.05874      16.4989    4520.4002    -4.21829  0.74433  6213.50332    2e-05  58958.01171   52.2621   0.23781  19.33398     59042.17 
    14.05226   1.5686  1.11309       3.72972         3019.60582   0.4781  0.29488     0.01294  11.00274     20.38865   9865.05762    -4.61269  0.73038  4984.46277  0.13595  58957.61731   52.0039  32.54984  19.30255   59040.9767 
    14.06828  1.71733  0.85065       3.82387         2392.07522  0.31484  0.21978     0.01101  14.73825     20.79005   9629.15051    -4.87143  0.67777  5570.84248   0.3426  58957.35857  52.12666  22.76592   19.3261     59038.19 
    14.17818  1.79442  0.89617       1.00962         2931.26958  0.44069  0.29108     0.01123   15.2091     16.52823   3594.53784    -6.09425  0.75042  6203.13132    2e-05  58956.13575  52.22277  32.06627  19.33226     59036.19 
    14.26642  1.69793  0.98261       1.42882         3101.00937  0.30652  0.32385     0.01598  11.80991     16.43688   7656.49507     -5.3602  0.52746  5668.63462    2e-05   58956.8698   52.1221  21.18248  19.31533     59040.18 
    13.98365  1.84316  0.94321       3.61233          2047.1159  0.01627   0.2167     0.04487  18.94457     19.82808   8850.47447    -5.39067  1.56076  6204.07059  0.03739  58956.83933  52.24145   1.23584  19.30288     59038.19 
    13.83875  1.61096  0.78218       4.09077         2446.45463  0.00685  0.33015     0.01322  14.14818     20.58787   7311.34795    -4.44811  1.39168  6046.25626  0.21508  58957.78189  52.19423   0.49107  19.31304     59038.19 
    14.31268  1.81463  1.00351        4.3599           2085.308  0.03436  0.23035      0.0696   19.9328     16.99298    9764.2397    -4.66775  0.49177  6713.27585    5e-05  58957.56225  52.31415   2.63438  19.30853     59040.18 
    14.39044  1.74432  0.88277       2.95246         2265.21168  0.01949  0.32999     0.01058   14.5302     16.29231   9109.72305    -5.75679  0.34565  5692.08715    1e-05  58956.47321  52.14413   1.40534  19.31498  59037.56327 
    14.13617  1.87686  1.72616       3.14588         3008.33487  0.44197  0.26938     0.04181  11.17768     19.93555   6192.85083    -7.26254  0.81353  5751.09246  0.04789  58954.96746  52.12961    30.191   19.3249     59040.18 
    14.06139  1.78909   0.7517       4.30363         2005.08676  0.00113  0.21209     0.02651  22.53013     20.51977   4778.93318    -4.39856  0.83457  6875.91971  0.18386  58957.83144  52.34487   0.08842  19.29715     59036.19 
    13.92667  1.79072  0.73583       2.55406         2095.48427  0.00208  0.30209     0.15458   12.3782     20.60596   9406.23389    -5.14659   1.4164  6076.82835  0.22423  58957.08341  52.18675   0.14485  19.33019     59036.17 
    13.82886  1.43206  0.91602       4.07354         2472.36153  0.27016  0.28708     0.01807  12.32582       20.564   9608.44502    -5.94982  1.04046  5683.39994  0.20358  58956.28018  52.12823  18.83663   19.3036     59040.19 
    14.03925   1.9721  1.46947       4.21656         2677.56251  0.01599  0.33349     0.01099  12.04066     18.25944   6714.68811    -7.54833   0.9624  5201.16766  0.00101  58954.68167   52.0491   1.10952  19.33758  59037.56327 
    14.24891  1.64235  0.96875       4.65644         2374.87101  0.01539  0.30397     0.01354  14.81278     18.50338   9690.93981     -4.8461  0.44524  5619.02991  0.00177   58957.3839  52.13458   1.11385  19.31248     59036.19 
    14.04603  1.95218  1.20323       3.76197         2330.59247  0.07492  0.17603     0.04196  22.73206     16.54661   9074.78693     -4.9509  1.38445  6220.71209    2e-05   58957.2791   52.2586   5.88728  19.31927     59038.17 
    13.99108  1.80615  0.84238        4.6227          2295.7608  0.43491  0.29641     0.01092  14.13279     20.32592    4822.3838    -3.88817  1.36882  5783.88095  0.11767  58958.34183   52.1556  31.18389  19.31987   59040.9767 
