 texplosion  fnickel    Pspin  log(Bfield)      Mns  thetaPB   mejecta    kappa  kappagamma      vejecta  temperature    alpha  cutoff_wavelength  log(nhhost)      A_V         MJD0   kenergy  mnickel               TSD   log(L0)  Peak_mag     Peak_MJD  log(E_rad)  log(Peak_lum)  Rise_Time     E_fold  tau_1  delta_m15     r_peak     frac 
  -11.17986  0.15719  1.57296     12.40544  1.51066  0.53515   3.47717  0.19795         0.5  13103.19798   4012.40938  4.15579         4303.09695     16.66546    3e-05  57323.03162   3.56129  0.54657   536463905.93494  43.32504  20.53178  57361.78419    50.58144       43.22224    41.0986  241.05433  155.0    0.24643  -19.50374  0.87394 
   -13.7292  0.07227  1.27989     12.06954  2.04682  1.13248   2.59242  0.19722     0.41979  15807.62299   3620.69467  0.47982         2567.11198     20.16416  0.08108  57320.48228   3.86425  0.18735    2260332992.768   43.0114  20.77028  57361.78419      50.634        43.2834   63.13912  207.17523  107.0    0.26464  -19.51894  0.96938 
  -12.34072  0.25559  1.34207     12.40095   1.5274  0.40751   4.92982  0.26801         0.5  19009.01641   4045.63044   2.6852         2808.00623     20.83987  0.38423  57321.87076  10.62619     1.26    403106620.3548  43.59183  20.72627  57359.42042    50.52548       43.29378   49.32744  147.98231  121.0    0.27277  -19.83363  0.77266 
  -17.92873  0.17112  1.89954     12.54668  1.64603  0.64717   2.40228  0.32964     0.49962  13567.09727    3977.6019  0.13717         2459.49226     19.17783  0.00837  57316.28275    2.6377  0.41107   444824234.56859   43.2798  20.67036  57357.05665    50.60816       43.25344   47.35434  220.98691  146.5    0.21048  -19.43843  0.91799 
  -14.28596  0.02031  1.76313      12.6012  1.90446  0.65912   1.34533  0.27929     0.36322  15581.79423   4068.45923  0.49566         3184.62049     20.82577  0.37196  57319.92552   1.94846  0.02732   344946334.17711   43.5183  20.71635  57364.14796     50.6029       43.24625   53.27363  224.93311   85.0    0.22079  -19.83416  0.99661 
  -12.99228  0.35906  1.85783     12.51477  1.75138  0.32701   3.70276  0.13678     0.49996    10903.059   4847.75802  0.69063         2488.24368     19.59456  0.02184   57321.2192   2.62573  1.32952   524416519.65089  43.25454  20.88273  57361.78419    50.74963       43.38108   65.11221  217.04072  116.5     0.3014  -19.59961  0.49976 
  -12.39184  0.05993  1.72013     12.38138   1.9459  0.83111   4.03025  0.20052     0.45104  17275.02066   3798.90752  3.72474          5962.5527     18.68572  0.00269  57321.81964   7.17458  0.24154     923208137.606  43.12154  20.63884  57359.42042    50.68173       43.24851   49.43411  280.07316  136.5    0.29763  -19.48698  0.95351 
  -13.16656  0.17077  1.31772     12.17585  1.93556  0.78371   3.96233  0.21741     0.49903  16172.25573   3887.52106  1.55878         2293.63477     20.61108  0.22689  57321.04492   6.18185  0.67665  1388577743.38007  43.17344  21.12158  57364.22352    50.64653       43.20973   61.16602   307.8032  142.5    0.24942  -19.68375  0.88546 
  -21.83325  0.40189  5.96724      13.5413  1.26389  0.86752   2.63861  0.28462     0.49982  10629.89471   9557.68209  1.07844         2167.77543     20.35409  0.12555  57312.37823   1.77853  1.06043    34552103.89117  43.28053  20.51476  57361.78419    50.60689       43.18296   49.32744   305.8301  136.5    0.06629  -19.60249  0.69005 
  -16.34971  0.00375  1.34591     12.83072   2.0805   0.1764   9.32196  0.08387         0.5  15213.36698   3775.96703  1.66911         5607.42633     17.59281  0.00022  57317.86177   12.8702  0.03496    76308614.60021  44.44641   21.2095  57361.78419     50.5973       43.32756   61.16602  161.79399  312.0    0.22255  -19.44508  0.99425 
   -8.47398  0.13649  1.83719     12.67956  1.71924  0.41568   2.57549  0.15767     0.49995  13437.43424   3966.47985  1.10893          5373.0662     17.38257  0.00013   57325.7375   2.77408  0.35153   235692423.51894  43.60353  20.86507  57361.78419    50.72455       43.33294   63.13912  238.74479  142.5    0.29796   -19.5512  0.92634 
  -11.90797  0.08438  1.33713     12.28339   1.4123  0.58551   5.25788  0.18111     0.14739  16863.16895   3953.25461  3.82449         4296.65083     16.18102    1e-05  57322.30351   8.91901  0.44367   635791660.62738  43.36311  20.92301  57361.78419    50.72937       43.37922   69.53476  204.72578   90.5    0.25523  -19.50217  0.91619 
  -20.60459  0.05723  1.20736     12.50766  1.96818  0.31714   5.55331  0.33124     0.48471  21445.41812   3378.53262  4.57052         4175.52517     19.58004  0.02112  57313.60689   15.2352  0.31782   257180249.66142    43.989  20.99335  57359.42042    50.76252       43.36131    74.9777  236.77169  133.5    0.20975   -19.3841  0.95448 
  -10.84625  0.16383  1.49708     12.59094  1.64387  0.30914   2.88033  0.16496     0.49955  13343.50384   4217.73567  2.20397         4223.80276     18.35723  0.00126  57323.36523   3.05921  0.47188   225062391.00091  43.78192  21.76285  57361.78419    50.74499       43.41921    73.0046  185.47116  158.5    0.30908    -19.494  0.89221 
  -13.53118  0.00748  1.16867     12.06041  1.70819  0.97413   3.16347  0.22298     0.49986  18873.85664   3542.65334  1.49718         2818.91354     18.88549  0.00427   57320.6803   6.72221  0.02366  1640259706.28224  43.15109  21.74452  57364.22352    50.74621       43.42174   75.36944  185.07941  119.5    0.28198  -19.47728  0.99651 
   -13.4149  0.42203  3.59469     12.63989  2.08505  0.77526   4.18844  0.14596         0.5  10523.12372   7063.73166  0.19309         5652.05819     20.28422  0.10689  57320.79658   2.76674  1.76763  1313643714.85589  42.35816  20.74898  57361.78419    50.61946       43.29607   54.75958  197.79688  106.0    0.19389   -19.7702  0.30801 
  -22.16591  0.00515  1.29168     12.25327  1.68569  0.77075   5.30177  0.32918     0.32179  21259.02283   3339.38732   0.5566         5930.55693     16.41354    1e-05  57312.04557  14.29337  0.02732   813516972.27726  43.36294  20.59635  57361.78419    50.58471       43.26312   43.40814  211.12142  104.0    0.20935  -19.38997  0.99644 
  -15.82873  0.00474  1.00504     12.40088  1.38871  0.29479   3.66444  0.24636     0.48816   20398.4732   3469.45766  0.07358         2670.50352       17.893  0.00043  57318.38275   9.09557  0.01738   205605047.65395  44.09406  20.84559  57364.14796    50.55952       43.24656   61.16602  185.47116  114.0     0.2645  -19.50305  0.99762 
  -18.14414   0.0043  0.94579     12.51446    2.037  0.20376   5.32698  0.25578         0.5  20933.11367   3472.16512  3.77196         5406.13848     20.25122  0.09907  57316.06734  13.92438  0.02292   158300698.53466  44.42676  20.67845  57361.78419    50.52131       43.24832   45.38124  179.55186  149.0    0.23394  -19.52751  0.99707 
  -16.14248  0.00216  2.05122     12.65168  2.01426   0.6971   4.31626  0.15175     0.49789  16228.31253   3681.32958  0.36926         2880.72465     18.75948  0.00319    57318.069   6.78081  0.00931   391369956.61696  43.35635  20.47668  57361.78419    50.37717       43.26592   39.46195  122.33204  179.0    0.24082  -19.45015  0.99848 
  -18.05046  0.00225   0.7238     12.58425  2.13779  0.11502   9.77359   0.2648         0.5  30782.03808   3032.50488  1.82409         3339.86534     16.36449    1e-05  57316.16102  55.24286  0.02197    70553637.65173  45.03105  20.69146  57364.14796    50.64268       43.28291   55.24673   226.9062  123.0    0.24226  -19.39228  0.99784 
   -18.3673   0.0036  0.93296     12.24833  2.02745  0.36832   6.55351  0.20675     0.49738  21320.01222   3360.09991  0.66582          2592.3304      18.2763  0.00105  57315.84418  17.76953  0.02359   522189885.41337  43.91824  20.53505  57361.78419    50.44627        43.2274   43.40814   151.9285  160.0    0.24116  -19.41479  0.99693 
  -14.67601  0.00276  1.03816     12.18357  1.42563  0.50933   4.77383  0.15852     0.47525  19416.36617   3535.49719  2.49998         4043.66019     19.90057  0.04419  57319.53547  10.73569  0.01319   612653248.84594  43.60311  20.53798  57359.42042    50.52471       43.27432   39.52502   177.5157  145.5    0.28824  -19.45092  0.99802 
  -14.60264  0.13488  1.26074     12.11629  1.78273  0.74464   4.29665  0.20394     0.49909  15406.71261   3825.86286  3.29114         3009.38428     19.52036  0.01841  57319.60884   6.08383  0.57952  1540153730.49079  43.13112  20.55668  57353.32366    50.43925       43.17498   33.60573   177.5157  152.0    0.25272  -19.48695  0.88356 
   -9.66535  0.39737  1.47118     12.03856  2.15703  0.61149   3.43486  0.09289     0.49102   9695.69914    6562.4365  3.64757         2134.13371     18.75657  0.00317  57324.54613   1.92617  1.36492  3629812781.07861  42.70748   20.9927  57364.14796    50.74907       43.41664    73.0046  189.41735  128.0    0.31756  -19.59689  0.47214 
  -12.17978  0.45516  2.48031     12.19056  2.03832   1.3499   3.74121  0.29023     0.49852  13507.63138   7292.79176  2.48939         2218.98914     19.19229  0.00865   57322.0317   4.07191  1.70286  4841437470.93092  42.10413  20.96963  57361.78419    50.72139       43.39027   69.53476  192.88719  113.0    0.09119  -19.61564  0.33771 
  -11.39601  0.15176  1.74218     12.22772  1.96796  1.39478   4.16345  0.21877     0.47186   17305.9743   3845.97915  0.58741         3877.99035     16.02139    1e-05  57322.81547   7.43828  0.63185  1943502516.90748  42.79209  20.82731  57361.78419    50.68908       43.22615   43.40814  335.42656  128.0    0.29903  -19.50674  0.86828 
  -14.55989  0.01535  1.39961     12.12037  2.08242  1.43718   4.22176  0.13278     0.49837  15837.87197   3578.88479  1.47598         2421.63676     18.76891  0.00326  57319.65159   6.31704  0.06481  2176038299.42373  42.95773  21.14608  57361.78419    50.71975       43.30605   71.03151  254.52957  167.5    0.24575  -19.46878  0.98969 
  -14.28461  0.10091  0.87993     12.11704  1.61824  0.37518   3.60504   0.2969     0.49973  18360.98303    3689.1647  4.33859          4661.4428     16.65431    3e-05  57319.92687   7.24985  0.36378   678683155.85691  43.75732  20.75354  57359.42042     50.5898       43.29318   47.35434  189.41735  126.5    0.25782  -19.49193  0.93791 
  -13.45088  0.00647  1.64756     12.33598  1.87053    1.107   3.37767  0.24869         0.5  18528.04785   3289.63193  3.58775         2481.07121     17.99964  0.00056   57320.7606   6.91678  0.02186  1003473017.03421  43.10562  21.08239  57361.78419    50.66474       43.21491   63.13912  292.01842   92.5    0.25056  -19.50417  0.99681 
  -14.37559  0.02333  2.01919     12.45723  1.70661  1.30257   3.01642  0.25082     0.49589   17548.2946   3726.69207   3.0878         3393.66421     16.94702    5e-05  57319.83589   5.54101  0.07038   786760570.16156  42.99478  20.94315  57361.78419    50.76076       43.41385    65.3653  202.97594  135.0      0.258  -19.45045  0.98816 
  -16.16574  0.00539  1.53434     12.24788  2.10441  1.45188   4.48664  0.30219      0.4901  21544.96003    3374.4728  0.12945         2403.36623     19.67579  0.02633  57318.04574  12.42337  0.02419  1469060089.99174  43.05309  20.89865  57359.42042     50.6895       43.27939   61.16602  256.50266  120.5    0.23107   -19.4586  0.99683 
  -14.38377  0.00363  1.90257     12.65507  2.02036  0.58877   3.23554  0.19959     0.49829  18242.95026   3589.65806  2.24007         2516.81349     18.50432  0.00177  57319.82771   6.42339  0.01176   332488421.44041  43.49382  20.71166  57359.42042    50.54614       43.25149   56.73268  178.06591  126.5    0.26836  -19.47214  0.99816 
  -15.69006  0.04052  1.09308     12.14175  2.03337  0.67221   4.60361  0.28066     0.49757  22526.17605   3293.03586  3.55974         3646.87808     19.40711  0.01419  57318.52142   13.9348  0.18656  1174438683.03299  43.42993   20.8391  57361.78419    50.60777       43.29755   61.16602  183.49806  100.0    0.26542  -19.52154  0.97534 
    -16.585  0.07479   1.1686     12.32127  1.56261  0.36905   8.05768  0.15244         0.5  14913.58123   3929.97961  1.06915          5842.6644     16.45763    2e-05  57317.62648  10.69058  0.60261   451287027.33034  43.67291   20.3132  57359.42042    50.44273       43.29186   33.54266  126.27823  233.5    0.19875  -19.45518   0.8779 
  -15.36858  0.17643  2.28308     12.49047  1.63474  1.21765   2.19141  0.22522     0.48811  13552.55675   4198.14491  1.22849         2301.29599     18.77336   0.0033   57318.8429     2.401  0.38662   826740438.92356  42.84788  20.89017  57361.78419    50.62466       43.33706   59.19292  171.65947  145.5    0.27755  -19.40744  0.91198 
  -20.28546  0.11383  2.03933     12.46647  2.12329   1.3361   3.45731  0.32429     0.49731  17435.74127   3570.49281  0.72851         3593.63272     20.68888   0.2714  57313.92602    6.2697  0.39354   956867237.87287  42.99603  20.82228  57361.78419    50.66733       43.31997   65.11221  203.22903  116.5     0.2123  -19.61723  0.94023 
  -15.30793  0.00218  1.07993     12.33008  1.88869  0.42904   5.28814  0.28132      0.4975  26126.09626   3291.79688  1.00327          4189.8654     18.11431  0.00072  57318.90355  21.53175  0.01153   447298414.16061  43.82762   20.6585  57359.42042    50.51758       43.26478   49.32744  161.79399  111.5    0.27592  -19.42007  0.99859 
   -12.8463  0.01983   1.3927     12.13725  1.71785  1.48173   2.71129  0.28152     0.49997  20578.24928   3431.33364  0.90123         2712.87894     16.28798    1e-05  57321.36518   6.84888  0.05376   1644433281.7346   43.0001   20.7664  57361.78419    50.59436        43.2938   59.19292  179.55186   88.5    0.30081  -19.49907  0.99212 
  -11.76281  0.41584  3.79469     12.64638  1.41142  1.32371   3.73256  0.08546      0.4997   7076.41104   7833.47258  0.45202         5117.29031     16.57376    2e-05  57322.44867   1.11496  1.55215   961769810.49083  42.27708  20.41497  57361.78419    50.54374       43.29194   37.48885  181.52496  129.0    0.20707  -19.61737  0.42578 
  -21.01933  0.37766  4.26133     12.64468  1.06196  0.24571   6.98901  0.12199     0.49983   6885.59698   8980.18288  2.54489         2762.40034     20.16029  0.08036  57313.19215   1.97663  2.63944   919718130.94917  42.07221  20.86296  57359.42042    50.65945       43.49091    41.0986  128.58778  107.0    0.06586  -19.65185  0.01887 
  -17.29096  0.00249  1.26711     12.08282  1.99361   1.4934   5.25337  0.25117         0.5  22482.91592   3267.87593  1.90384         3263.86193     18.63684  0.00241  57316.92052  15.84056  0.01309  2029816724.72174   43.0554  20.50432  57364.14796     50.5223        43.2665   45.38124  173.63257  117.0    0.25234  -19.46827  0.99833 
  -12.27911  0.37386  2.00943     12.06282   1.2792  0.14464   4.97207    0.058     0.23138   8352.53529   5772.42012  0.66716          2056.6262     16.57228    2e-05  57321.93237   2.06919  1.85887  3591408913.53955  42.21437  20.22055  57356.32482     50.5419       43.41857   20.66536  108.52036  100.5    0.29564  -19.63645  0.01325 
  -11.27637  0.05975  1.13143     12.07101  2.00411   0.7008    9.0794  0.08584     0.49194  17823.69809   3866.55322  1.12035         3431.25816     20.20572  0.08922  57322.93511    17.206   0.5425  1717758051.03854  43.22855  21.06446  57364.14796    50.84837       43.45616   69.05841  234.79859  203.0    0.30207  -19.59065  0.90254 
   -12.4256  0.39389  2.84687      12.4355  1.82181  1.43593   3.42421  0.16216         0.5  10611.08903    4391.8475  0.83997          2808.1598     17.60432  0.00022  57321.78588   2.29989  1.34875  1845199599.44695  42.35457  20.91855  57361.78419    50.62052       43.32258    65.3653  175.35258  105.5    0.26524  -19.61839   0.5317 
  -16.93452  0.31399  2.42819       12.117  1.17452   0.7821   5.66244   0.0748     0.47984   7814.84584    6415.6144  1.31326         2353.87839     16.46794    2e-05  57317.27696   2.06287  1.77797  3751806780.08483   41.9939  20.87774  57361.78419    50.78962       43.23103   57.21982  434.08143  108.5    0.21591  -19.58584   0.1654 
  -16.72969  0.02515  1.19775     12.16719  1.44797  0.73755   3.41742  0.27132     0.49996  17993.20581   3541.98782   2.5189          3498.5761     19.44374  0.01543  57317.48179   6.59998  0.08595   893144989.76781  43.32195  20.60092  57364.22352    50.51988       43.24766   51.30053  161.79399  129.0    0.23311  -19.46073  0.98698 
  -16.86946   0.4129  1.99991     12.29769  1.77801  0.37902   4.03013  0.16481     0.49739   8290.30632   5933.53011  2.11707         2129.05332      17.9878  0.00054  57317.34202   1.65229  1.66403  1676416774.21197  42.69238  20.84912  57361.78419    50.67824       43.31621    73.0046  211.12142  112.0    0.18379  -19.52369  0.22742 
  -14.44385  0.01649  0.98277     12.08596  1.49938  0.58375   4.52213  0.20409     0.48501  20254.13801   3475.49037  4.37766         3010.51346     19.36032  0.01274  57319.76763  11.06617  0.07455   905129896.27746  43.50314   20.8801  57364.14796    50.71096       43.36315   69.05841  203.22903  131.5    0.26587  -19.45098  0.98915 
  -16.25134  0.00373  1.43585     12.30666  1.95638  0.79849   6.43806  0.19031     0.49994  18727.37092   3481.26284   3.6791          4987.7737     16.54304    2e-05  57317.96014  13.46901  0.02398   912370884.25873  43.28591  20.42455  57361.78419    50.46808       43.27567   35.51575   151.9285  184.0    0.22262  -19.43601  0.99649 
  -11.12186  0.05681  1.40608     12.16657  1.98703  1.20537   3.09124   0.3065     0.49342   21619.5042   3447.09462  2.28906         4185.04462     18.11908  0.00073  57323.08962   8.61888  0.17562   1693970380.8719  43.04213  20.69748  57359.42042     50.6445       43.25862   53.27363  240.71788   87.0      0.294  -19.53142  0.97429 
  -16.69266  0.00193  1.55684     12.24378  1.78848  1.24152   3.68518  0.22738     0.49926  16144.39577   3786.56535  0.32124         3325.81737     16.38531    1e-05  57317.51882   5.72967   0.0071  1309892371.19209   43.0196  20.79397  57364.14796    50.67947       43.30585   61.16602   226.9062  182.0    0.21648  -19.41151  0.99888 
  -11.34125  0.00287   1.2818     12.09948  1.46451  1.12147   2.72617  0.22129     0.49977  18874.84524   3599.80005  2.12049         5646.92424     16.11234    1e-05  57322.87023   5.79359  0.00783  1413149803.14802  43.06871  20.91616  57364.22352     50.7819       43.34638    74.9777  266.36815  103.5    0.30311  -19.57868  0.99879 
  -20.56688  0.11095  2.19084     12.56313  1.34921  0.96722   2.35993  0.31673     0.25486  13105.22536    3772.1779   2.6383         2235.39442     16.11776    1e-05   57313.6446   2.41777  0.26184   449623201.48048  43.06486  21.09294  57361.78419    50.79529       43.49955   69.05841  171.65947   92.5    0.19155  -19.43973   0.9479 
  -16.51783  0.00395  1.03911     12.14085  1.68292   0.6498   5.09635  0.31281         0.5  25927.37301   3192.86694  0.01429           2863.723     16.02713    1e-05  57317.69365  20.43637  0.02015   882073626.54083  43.51608  20.24651  57359.42042    50.44566       43.34804   27.01249  111.10433   97.0    0.26147  -19.44223   0.9976 
  -17.67483  0.48151  2.88883     12.19507  1.97784  0.33932   3.99017  0.29753         0.5   9634.92065   8944.98066  1.13291         4426.44275     16.51078    2e-05  57316.53665   2.20961  1.92131  6241759204.72369  41.84829  20.80109  57361.78419    50.59719       43.29722   61.16602  181.52496  105.5    0.06725  -19.45196  0.02891 
  -17.28293  0.01814  1.51179     12.49404  1.91876  0.53267   3.33135  0.30334     0.49981  17403.58843    3723.5982  4.00694         5815.52839     20.54667  0.19561  57316.92855   6.01901  0.06042   418536074.29072  43.57115  20.75356  57359.42042    50.64857       43.30288   56.73268  207.66237  142.0    0.22833  -19.57083  0.99089 
