 texplosion  fnickel    Pspin  log(Bfield)      Mns  thetaPB   mejecta    kappa  kappagamma      vejecta  temperature    alpha  cutoff_wavelength  log(nhhost)      A_V         MJD0  kenergy  mnickel             TSD   log(L0)  Peak_mag     Peak_MJD  log(E_rad)  log(Peak_lum)  Rise_Time    E_fold  tau_1  delta_m15     r_peak     frac 
  -10.93044  0.01636  5.18294     14.26771  1.72727  0.94391    7.2126  0.14073     0.04011   9392.37264   5190.36458  0.71495         3770.53269     17.48093  0.00017  58326.44354  3.79551  0.11801   1255753.52627  44.97815  18.13103  58373.40893     50.7258       43.98512   32.20705  41.20267   40.5    0.23514  -20.87171  0.98327 
  -12.06131  0.28132  5.72083     14.08222  1.63334  1.34903   6.95465  0.10772     0.01567   9419.20358      5158.39   0.4941         2711.17748     18.15415  0.00079  58325.31267   3.6807   1.9565   3399123.60134  44.43564  18.12403    58375.984     50.7385       44.01924   33.64707  39.50988   40.0    0.24771  -20.87938  0.72547 
  -13.02074  0.38836  6.32857      14.1745  1.55942  0.80971   8.19317   0.0915     0.01175   9625.86597   5077.42182  0.73061         2692.87351      18.6321  0.00238  58324.35324  4.52855  3.18192   2596528.83481   44.4448  18.15414  58373.40893    50.74526       44.01845   31.72583  41.43112   41.0    0.25513  -20.86771  0.55093 
  -12.06066  0.22384  5.89385     14.43435  1.73912  0.33395   5.59811  0.10262     0.01897   9748.99424    4939.4492  0.87045         2423.65365     16.84376    4e-05  58325.31332  3.17386  1.25308    759018.00912  45.08812  18.17569    58375.984    50.76072       44.02329    28.7445   42.0285   41.5    0.25163   -20.8655  0.80595 
  -12.71662  0.05276  5.77447     14.10542  1.77923  0.80883    9.2136  0.06748     0.01206    9497.3488   5075.60237  0.28598         3491.50853     16.60968    2e-05  58324.65736  4.95748  0.48615   3390213.16021  44.46583   18.1459  58373.40893     50.7694        44.0407   27.84536   42.1214   40.5    0.25224  -20.84559  0.92055 
  -12.01436  0.03504  6.06404     14.61436  2.12609  0.49787    8.2493  0.11079     0.03745   9713.15341   5039.01952   0.2181         2143.99482     16.29035    1e-05  58325.35962  4.64264  0.28903    428753.15268   45.3987  18.17932    58375.984    50.74765       43.99913   31.18495  43.65794   41.0    0.24123  -20.84808  0.95985 
  -12.33236  0.08816  5.21287     13.99943   1.6336  1.41958   3.93431   0.1528     0.03666   9263.96088   5376.13524  0.02256         2720.90021     19.51058    0.018  58325.04162  2.01414  0.34686   4132943.45905  44.43158  18.15289    58375.984    50.76744       44.03011   29.55575  42.16118   42.0    0.25365  -20.85423    0.947 
  -13.17858  0.21276  5.92567     14.06361  1.67344  1.18507   8.62261  0.08864     0.01302   9642.92167   5111.99771  0.30471         2699.64032     17.70389  0.00028   58324.1954  4.78281  1.83454   4070729.07126  44.33731  18.16757  58373.40893    50.77887       44.03649   29.28538  41.48762   40.0     0.2441  -20.86638  0.72965 
  -11.34502  0.04138  5.21673     14.34789   1.8039  0.82294   7.87297  0.13194     0.04196    9936.2605   5144.48074  0.24061         2528.82665     19.19547  0.00871  58326.02896  4.63673  0.32575    918421.20105  45.12722  18.14195  58373.40893     50.7623       44.02625   30.99577  40.41102   40.0    0.23912  -20.86014  0.95738 
   -8.69077  0.06514   1.8818     14.58898   1.7788  0.93432  14.59802  0.13733      0.0714  10116.75119   5233.08804   0.6913         2558.40247     19.29557  0.01097  58328.68322  8.91257   0.9509     38826.67472   47.3807  18.14452  58373.19945    50.72997       44.00576   30.28581  41.48762   41.5    0.18988   -20.8216  0.98625 
  -11.74183  0.22253    5.388     14.06927  1.42819   0.8006   7.91399  0.09684     0.01421   9777.33108   5091.72031  1.28549         2637.81926     16.14775    1e-05  58325.63215  4.51298  1.76106    2798391.4591  44.51387  18.13427  58371.42283    50.77829       44.08336   27.84536  37.62177   40.0    0.25743  -20.87094  0.72792 
  -10.99443  0.15821  5.32155     14.31854  1.69529  0.92673   8.72116  0.10828     0.02158   9465.03578   5317.08964  0.46091         3067.60104     17.92471  0.00047  58326.37955  4.66064  1.37975   1028128.35968  45.03397  18.16133  58373.40893    50.76262       44.05154   29.55575  39.46501   41.0    0.23677  -20.84124  0.82298 
  -10.23756    0.123  3.70713     14.39381  1.71277  1.12795   9.14781  0.13143     0.03774   9259.62517   5075.81446  0.16142         4175.48644      19.1107  0.00717  58327.13642  4.67876  1.12518    356423.67642   45.8125  18.14551  58373.40893    50.73141       43.99372   33.64707  41.19582   41.0    0.22885  -20.82563  0.92366 
  -13.15312  0.03961  4.76031     14.00911  1.45979  1.22624   8.21342  0.08938     0.02481   9421.25114   5143.90835  0.16377         2676.91749     18.72661  0.00296  58324.22086  4.34879  0.32533   2945534.86383   44.6087  18.13166  58373.25501    50.75545       44.04825   31.72583  38.73494   42.0      0.248  -20.85123  0.95112 
  -11.62176  0.01784  5.42998     14.14154  1.73455   1.2963   5.44006  0.16527     0.04436    9729.2727   5197.97589  0.35673         4126.35034     17.10296    7e-05  58325.75222  3.07179  0.09705   2474648.38863  44.64492  18.17925  58373.40893    50.68346       43.91995   36.29534  43.81274   39.5    0.24243  -20.87857  0.98488 
  -11.43995  0.01735    5.585     14.35619  1.87729  0.80955   6.45165  0.13865     0.05809   9695.86828   4955.49916  0.78458         3013.17642     17.49782  0.00017  58325.93403  3.61802  0.11196   1054433.32687  45.02531  18.14079  58373.40893    50.77402        44.0425   28.55532  40.41102   41.5    0.25474   -20.8688  0.98371 
  -10.23821  0.38617   5.9945     14.25357  1.65102  1.24355   7.83164    0.101     0.01451   9710.54259   5119.60648  0.26112         2839.62996     17.70419  0.00028  58327.13577  4.40522  3.02435   1713712.40368  44.69715  18.13249  58373.19945    50.80214       44.10624   27.84536  39.04717   39.5    0.26664  -20.86985   0.6158 
  -10.49778  0.22939  4.84462      14.2412   1.5724  1.34066   7.17686  0.13398     0.02802   9524.76184   5213.04367  0.32594         3394.34202     18.96261   0.0051   58326.8762  3.88392   1.6463   1128496.43652  45.04239   18.1385  58373.27571    50.76374       44.04093   29.55575  39.77724   41.0    0.23918  -20.83259   0.8083 
  -11.90411   0.4629   7.4906     14.09864  1.95123  1.56617    6.1696  0.10985     0.01488   9726.25821   5152.47124  2.28446          2517.3388      17.8236  0.00037  58325.46987  3.48157  2.85588   6454805.35317  44.00024  18.13982  58373.40893    50.74521       44.02243   31.72583  39.68096   41.5    0.24739  -20.85962  0.57323 
  -11.45309  0.14437  5.67191     14.21226  1.77967  1.22192   7.27551  0.11588     0.02313   9442.65971   5287.92647  0.07953         4299.86851     19.03541  0.00603  58325.92089  3.86972  1.05039    2000279.0366  44.71064  18.17203  58373.40893    50.78505       44.06007   29.28538  41.18224   40.0    0.24282  -20.84095  0.85183 
  -12.93494  0.17697  5.75654     14.29117  1.87401  0.70811   8.98322  0.08137     0.01277   9467.01815    5391.4774  0.06579         5391.97985     20.30889  0.11314  58324.43904   4.8027  1.58974   1508560.52154  44.84273  18.13935  58373.40893    50.73579        44.0105   32.20705  39.56638   40.5    0.25901  -20.97467  0.79757 
  -11.73176  0.18159  5.28626      14.1346  1.60134  1.24674   6.68522  0.11281     0.02505   9507.42679   5288.02863  0.07557         2362.42052     17.95193   0.0005  58325.64222   3.6047  1.21396   2235593.17415  44.67764  18.16639  58373.40893    50.75638       44.02484   31.18495    41.972   41.0    0.24465  -20.84809  0.83004 
     -9.796  0.02161  4.70255     14.23456   1.7355  1.30223   6.92891  0.13978     0.28704   9591.95324   4934.97709  0.55653           2000.657     19.00919  0.00567  58327.57798  3.80283  0.14973     1209994.205  45.08082  18.13751  58373.40893      50.781       44.06083   29.28538  41.17539   39.5    0.25558  -20.85196  0.98275 
  -11.79027  0.08284  6.42051     14.29925  2.06543  1.06091    8.7529   0.0838     0.02208    9522.1311    5026.0115  0.27204         3631.96625     18.61916  0.00231  58325.58371  4.73421  0.72511   1992808.09255  44.66925  18.13214  58373.40893    50.75429       44.01861   30.28581  41.48762   42.0    0.24781  -20.86594  0.88998 
  -12.70532  0.36098  5.71427     14.02117  1.62641  1.47093   4.23109  0.14638     0.03083   9580.03116   5064.79665  0.01926          2669.9746     18.04464  0.00062  58324.66866   2.3164  1.52733   4473250.63633  44.31553  18.15297  58373.40893    50.74523       44.00845   34.16628  41.48762   42.0     0.2529  -20.85811  0.76998 
  -13.07404  0.01029  5.30416     14.20934  1.86333  1.54035   6.98656   0.1524     0.05041   9751.00117   5065.13475  0.02152          4516.5369     18.67927  0.00265  58324.29994  3.96268  0.07192   1856301.02767  44.82125   18.1614  58373.40893    50.70708       43.96133   36.29534  40.35297   40.0    0.23184  -20.84757   0.9904 
   -12.6758  0.32411  5.60405     13.89747  1.85833  1.19066   4.89852  0.11979     0.01267   9329.67232   5316.44703  0.33195         3714.47045     17.46407  0.00016  58324.69818  2.54346  1.58764    8689732.1065  44.10196  18.15903  58373.40893    50.74809       44.01477   31.72583  41.43112   40.5    0.27083  -20.89007  0.79613 
  -10.99488  0.04687  5.42864     14.36829  1.96388  0.96085   8.14753  0.11779     0.03815   9773.32301   5036.44773  0.02517         2958.35954     18.56514  0.00204   58326.3791  4.64235  0.38191    985690.00696  45.09884  18.16552    58375.984     50.7505       44.02511   33.64707  39.50988   39.5    0.25191  -20.86098  0.95268 
  -12.32104  0.12591  6.21437     14.07628  1.83376  1.21496   6.92081  0.09918     0.01896   9483.60027   5054.42286  2.67072         2427.00203     17.65329  0.00025  58325.05294  3.71305  0.87141   4627970.45617     44.28  18.15111    58375.984      50.792       44.06051   27.84536   42.1214   42.5    0.23785  -20.84698  0.85489 
  -12.60518  0.09921  5.14586     14.21925  1.54738   0.7093   9.51059  0.08353     0.01618   9462.07019   5103.44778  0.23982         3039.58614      18.5941  0.00218   58324.7688  5.07933  0.94354   1386178.53883  44.89371  18.14479  58373.40893    50.80987        44.1069   30.99577  37.33679   40.0    0.24279  -20.86761  0.86233 
   -11.9681  0.36422  5.09117     13.76937  1.59591   1.2668    4.4169  0.14276     0.01734  10129.94885     5058.984  0.22359         3932.02846       18.375  0.00132  58325.40588   2.7037  1.60873  11110290.26097  44.01249   18.1486  58373.40893     50.7494       44.02604   31.18495  40.22183   40.0    0.27109  -20.90046  0.78639 
   -9.89703  0.27813  3.90245     14.25316  1.49746  1.46032   5.36795  0.20409     0.04238   9319.32807   5272.04046  0.15551         5173.76722     17.68662  0.00027  58327.47695  2.78102  1.49297    659981.47852    45.442  18.13369  58373.40893    50.88889       44.20904   27.84536  35.81763   40.5    0.23465  -20.83466  0.87011 
   -13.5545   0.4679  5.68921     14.17375  1.54934  0.53057   6.02007  0.10534     0.01327    9550.4243   5185.20347  0.45334         2170.71857     16.22357    1e-05  58323.81948  3.27547  2.81679    2091977.0822  44.62833  18.15087  58373.40893     50.7811       44.02538   29.55575  40.41102   41.5    0.26133  -20.87215  0.62395 
  -11.23986  0.20943  6.24439     14.02996  1.73847  1.47789   7.70093  0.07935     0.01527   9701.01299   5102.62914  0.90216         2640.51977     16.65014    2e-05  58326.13412  4.32319  1.61278   5483290.50017  44.17899  18.18717    58375.984     50.7421       44.00847   30.28581  41.48762   41.5    0.25594  -20.85813  0.74407 
  -10.58493   0.0611  4.65512     14.40503  1.69748   0.7452   9.33624  0.12089     0.03931   9954.01265   5167.97839  0.11927         2596.01943     18.16394  0.00081  58326.78906  5.51817   0.5704    528953.18219  45.43937  18.15646  58373.40893    50.73191       43.99877   33.64707  39.56638   39.5    0.23828   -20.8492  0.93664 
   -8.83895   0.0126  4.35191     14.15889  1.51881  1.46789   7.60472  0.15818     0.07577   9715.59183   5125.75633  1.15832         3096.12263     16.49671    2e-05  58328.53503  4.28202  0.09584   1284956.73028   45.0641  18.15558  58373.19945    50.72156       43.97879   30.28581  43.12391   40.0    0.22503  -20.84496  0.98839 
  -10.96006  0.45277  6.00343     14.39663  1.42638  0.51927   7.81143  0.09899     0.01195   9599.51463   5135.53304  0.87094         2538.82777     18.31705  0.00115  58326.41392  4.29394  3.53678    768387.33571   44.9807  18.14673  58373.19945    50.74829       44.02106   31.18495    41.972   40.0    0.25829   -20.8571  0.52126 
  -11.11321  0.02924  5.26922     14.17008  1.72308  1.25442   7.79219  0.11284      0.0351   9598.60614   5112.24312  0.52639         2764.99609     19.02412  0.00587  58326.26077  4.28256  0.22787   2029775.87049  44.75421  18.15532  58373.19945    50.76427       44.04589   30.99577  39.77724   41.0    0.23366  -20.84976  0.96696 
  -11.21731      0.1  5.62932     13.91072  1.74075  1.14986    5.0933  0.09418     0.01633   9078.31746   5109.40252  1.11573          3350.3545     16.78672    3e-05  58326.15667  2.50401  0.50932   7727289.45251  44.12064  18.16001    58375.984    50.77368       44.04831   29.55575  40.41102   42.5    0.26457  -20.84765  0.91688 
  -13.24858  0.11739  5.65205     14.00234  1.66918  1.27537   7.12081  0.11046     0.01758    9675.7185   5137.89159  1.14567         2578.75835     17.03485    6e-05   58324.1254   3.9767  0.83591   4898301.87332  44.29689  18.16969  58373.40893    50.70401       43.95958   34.68018  41.96813   40.5    0.24319   -20.8581  0.86588 
  -10.56673  0.03875  6.32849     14.88433  2.03166  0.21737   7.30571   0.0964     0.03487   9892.37385   4959.06407  0.59504         2664.59976     18.18788  0.00086  58326.80725  4.26472  0.28306    128708.05442  45.86449  18.17379    58375.984    50.78784       44.06057   30.99577  40.41102   42.0    0.25929  -20.85476  0.95409 
  -13.97157  0.41986  6.44171     14.09196  1.77855  1.14545    6.0958  0.12657     0.01351   9020.73393   5246.47254  0.31791         4031.03271     19.54674  0.01956  58323.40241  2.95898  2.55938   4487017.19965  44.24895  18.15592  58373.40893    50.75774       44.03183   31.18495  40.22183   41.0    0.25615  -20.85784  0.64058 
   -8.74777   0.1626  5.28094     14.71236  1.91674  0.52226  10.89532  0.09754     0.02107   9904.61955   5000.81619  0.73666         3099.95449     17.09344    7e-05  58328.62621  6.37592  1.77153     186671.9293  45.83491  18.15357  58373.40893    50.75857       44.02535   31.18495    41.972   41.0    0.23928  -20.85477  0.81665 
  -13.64714  0.44857  6.46578     14.15099  1.85976  0.99859   5.62134  0.14135     0.01567   9532.33723   5161.62415  0.00333         3777.49963     18.02836  0.00059  58323.72684  3.04695  2.52159   3601931.98577  44.36052  18.14544  58373.40893    50.73135       44.01221   32.72626  39.04717   39.5    0.25264  -20.86704  0.65787 
  -12.79185   0.2685  5.91501     14.28012  1.61941  0.54058     8.477  0.08212     0.01124   9552.41524   5126.24305  0.06618         3003.30116     18.12439  0.00074  58324.58213  4.61419  2.27605   1448274.32521  44.77344  18.14788  58373.40893     50.7422       44.00804   30.28581  41.48762   40.0    0.26296  -20.85739  0.67408 
  -12.52627  0.30701  4.61544     14.12905  1.28921  1.05207   9.16351  0.10582     0.01294   9519.51771   5264.13432  0.07702         3573.55381     18.70698  0.00283  58324.84771  4.95357   2.8133   1407569.30908  44.90227  18.14182  58373.40893    50.78441       44.05687   27.84536  41.18224   40.0     0.2377  -20.86147  0.66775 
  -14.60398  0.31224  6.20747     14.16452  1.84821  0.98537   4.99314  0.16552       0.023   9483.06923   5172.62206  0.05943         3045.51647     18.14579  0.00078     58322.77  2.67854  1.55907   3099901.15956  44.45842  18.14603  58373.40893    50.73041       43.99828   31.72583  43.11707   40.0    0.25002  -20.84824  0.77066 
  -11.62277  0.09642  5.19456     14.02301  1.52833  1.18538   5.14711    0.111     0.03151   9133.44297   5025.78339  0.15849         4983.99625     18.69321  0.00274  58325.75121   2.5613  0.49628   3444430.19604  44.48485  18.13468  58373.40893    50.76182       44.03827   31.72583  41.43112   43.0    0.25275  -20.84301  0.91942 
  -11.31462  0.31409   6.7676     14.41225   2.0455  1.06737   7.56985   0.1085     0.02055   9824.61666   4966.70543  0.11434         3403.74786     17.36275  0.00013  58326.05936  4.35859  2.37758   1303112.58913  44.80379  18.15489    58375.984    50.75903       44.03093   29.74493    41.972   41.0    0.24913  -20.86497  0.68811 
  -13.14043  0.02181  4.82911     13.90868  1.57736  0.82959   4.80411  0.08779     0.01708   9053.93523   5097.10861  0.13879         4799.78277     17.60491  0.00022  58324.23356  2.34917  0.10476   5201355.08675  44.38293  18.16498  58373.40893    50.75785       44.03285   30.99577  40.41102   43.0    0.24556  -20.85527  0.98436 
  -12.13816  0.23252  5.15316     14.07117  1.55073  1.53974   5.77352   0.1142     0.02356   9008.39892   5098.91306  0.07718         5904.25278     19.59531  0.02188  58325.23582  2.79488  1.34246   2755252.41361  44.59507   18.1659  58373.40893    50.77531        44.0451   29.55575  40.41102   41.5    0.24283  -20.86698  0.81554 
   -9.48317  0.48946  4.02384     14.36847  1.40879  1.19721   8.72898  0.11314     0.01092   9473.36867   5285.36524  0.15843         3899.36821     17.54327  0.00019  58327.89081  4.67304  4.27251    388147.80065  45.61941  18.16393    58375.984    50.76629        44.0336   29.55575  42.16118   40.0    0.24964  -20.84749  0.66884 
  -10.31249  0.13415  4.76154     14.25042  1.57797  1.19556   10.4404  0.09089     0.02039    9450.5734   5021.78801  0.29092         4124.99741     18.50816  0.00179  58327.06149  5.56238  1.40063   1048481.21299  45.09089  18.15926    58375.984    50.72373       43.98484   33.68465  41.96925   40.5    0.24524  -20.85698  0.83758 
  -11.13104  0.10076  5.20323     14.21662   1.6767  1.24337  10.16081  0.08824     0.02066   9490.74619   5155.64781  0.15996         4318.44725     18.67116  0.00261  58326.24294  5.45954   1.0238   1554439.59325  44.86918   18.1658    58375.984     50.7241       43.98176   34.16628  41.48762   40.5    0.23639  -20.85202  0.86559 
  -11.58631  0.09733  5.46351     14.19743  1.69707  1.02379   7.94392  0.10018      0.0236   9576.20335   5147.53066  0.80181         2424.57341     17.93258  0.00048  58325.78767  4.34559   0.7732   1894945.65103    44.746  18.15397  58373.40893    50.75251       44.02372   31.72583  41.43112   41.0    0.24762  -20.85746  0.88663 
  -12.47726   0.0128  4.99396     14.61284  2.15292  0.61565   7.98707  0.15202     0.14029   9676.81099   5026.62663  0.05642         3167.17553     19.40943  0.01426  58324.89672  4.46148  0.10224    296519.79123  45.73293  18.15668  58373.40893    50.74494       44.01302   30.28581  41.48762   39.0     0.2319    -20.881  0.99034 
  -10.19539  0.05137  5.01249     14.36343  1.86701  1.10664   8.15319  0.16412     0.06243   9692.16612   5002.95947  0.57415         3820.09257     19.38158  0.01338  58327.17859  4.56874  0.41885    816993.10242  45.22767  18.13779  58373.40893    50.85757       44.13471   25.40491  40.06906   41.0    0.21875  -20.82987  0.95248 
  -11.85351  0.23117  5.85153     14.16562   1.7682  1.28152   5.84633  0.12007     0.02496   9505.90288   5178.64377   0.0189         5132.60675     17.91611  0.00046  58325.52047  3.15135  1.35149   2622057.25745   44.5632  18.13992  58373.40893    50.75322       44.03253   33.64707  39.50988   40.5    0.24725  -20.85794  0.80536 
