 log(Bfield)      Mns     Pspin  cutoff_power  cutoff_wavelength  fnickel    kappa  kappagamma   mejecta  log(nhhost)  temperature  texplosion  thetaPB     vejecta      A_V        MJD_0   log(KE)      M_Ni  Peak_mag     Peak_MJD 
    13.81159  1.86615   2.27725       3.64178         2988.14111  0.05367  0.01684     0.18013  56.38702     16.19671   9818.80742   -29.11165  0.36067  3049.32095    1e-05  58308.23835  51.70647   4.92231  19.43467     58430.22 
    13.58884  1.85626   2.14301       3.50496         2992.82589  0.00983  0.02838     0.08987  45.94327     16.58899    9824.2524   -34.27119  0.64132  3183.47406    2e-05  58303.07881  51.72961   0.87265  19.39724  58440.03957 
    13.38085  1.84177   2.31517       3.80275         2728.49297  0.12859   0.0198     0.02528  57.28288     16.61361   9791.46123   -29.42916  1.31187  3470.06867    2e-05  58307.92084  51.81982  11.82311  19.42699     58433.17 
    13.33482  1.69951   2.15059       4.21579         3067.02549  0.04311  0.01249     0.01452  88.13471     16.83011   9976.73878   -25.58369  1.51314  3122.23647    4e-05  58311.76631  51.75655   4.23234  19.41718     58429.13 
    13.37627  1.69892   2.06691       4.04185         3028.14994  0.02832  0.01815     0.17758  55.02818     16.51496   9887.35521   -36.23961  0.94417  2676.93414    2e-05  58301.11039  51.59167   2.58749   19.4389  58436.56594 
    13.57393  1.63537   2.17186       2.19713         3170.80306  0.24556   0.0288     0.06843   36.2234     17.71664   8988.76202   -29.80962  0.57889  3284.51017  0.00029  58307.54038  51.73959  20.94956  19.44935     58429.13 
    13.55794  1.74967   2.01702       2.06416         3173.02359  0.02887  0.02338     0.17668   49.4474     16.37749   9315.35236   -32.45164  0.66021  3015.78622    1e-05  58304.89836  51.68778   2.59297  19.45163     58434.22 
    13.53033  1.94526   2.40006       3.40913           3013.331  0.07483  0.01326     0.19499  90.71316     16.73444   8565.36485   -32.88646  1.08419  2754.63334    3e-05  58304.46354  51.64959   7.37778  19.42018     58432.13 
    13.68608  1.84354   2.13755       3.24361         2848.60688  0.01575  0.03554     0.27116  34.88495     16.21014   8874.95682    -30.6829  0.51278    3375.077    1e-05   58306.6671  51.76044   1.33513  19.41476  58443.51321 
    13.39294  1.78303   2.31013       4.28895         3064.05146   0.0421  0.01338     0.10898  68.00638     17.07341   8219.03546   -26.34188  1.37373  2803.21636    7e-05  58311.00812  51.64602    3.9748  19.41332  58429.61867 
    13.45612  1.70571   1.98592       3.64775         2899.37057   0.0024  0.03234     0.02365  42.31668     17.04467   9422.23126   -30.84835  0.92827   3010.6082    6e-05  58306.50165  51.67526   0.21003  19.41208  58440.03957 
     13.5345  1.74445   2.03413       2.94572         3056.96647  0.00892  0.03185     0.02898  35.42067     17.79136   9843.61096   -32.74042  0.58016  3471.69087  0.00034  58304.60958  51.78608   0.75796  19.43257     58430.22 
    13.07431  1.83492   6.80946       4.86721         2954.89978  0.49956  0.01954     0.10215   83.1124     17.50937   7417.49015   -18.51289  0.90162   4465.5644  0.00018  58318.83711   52.0636  48.61984  19.44212  58431.36597 
    13.59225    1.654   2.78281       3.57291         2667.52859  0.39081  0.01946     0.17987  53.04977     17.49427   8642.05166   -22.50912  0.63861  4008.19111  0.00017  58314.84088  51.93976  35.49805   19.4341     58429.13 
    13.62998  1.55021   1.63464       0.44824         3450.67842  0.04821  0.02262     0.28998  66.26566      17.4688   9683.93058   -36.40226  0.51959  3287.44002  0.00016  58300.94774   51.7827   4.53375  19.43916  58426.14504 
    13.52937  1.77295   2.10517       2.12085         3058.86229  0.08287  0.01844     0.13665  68.91402     17.57416   8554.31018   -32.91634   0.8709  2888.46412  0.00021  58304.43366  51.67292   7.84038  19.43216     58432.13 
    13.53963  1.71549   2.12033       3.28732         2699.97721  0.07346  0.01321     0.12968  77.71332     16.79699   8898.52775   -29.21046  0.63563  3301.93487    3e-05  58308.13954  51.79703   7.07851  19.42824     58426.21 
    13.70439  1.88149   2.23707       1.62258          3408.0172  0.07901  0.01834     0.40431  51.09453     16.01381   9656.67324   -33.03298  0.53223  2893.65989    1e-05  58304.31702  51.65416   7.13329  19.39249     58434.22 
    13.30585  1.63349    2.0883       2.43075         3157.75797  0.10898  0.01604     0.48471  60.85239     18.83973   8282.28334    -32.5662  1.53254  2865.22532  0.00384   58304.7838  51.65757  10.11515  19.39155     58430.22 
    13.39248  1.92016   2.33508       4.40993         3020.63274  0.03871  0.01513     0.16096  76.20717     16.14143   9722.72021   -30.47627  1.53648   3159.3458    1e-05  58306.87373  51.75741    3.7186  19.44195     58429.13 
    13.34317  1.87839   2.17833       3.49038         2970.98677  0.01051  0.02543     0.10535  46.79092     16.98148   9355.80732   -33.21531  1.56757  3353.18036    5e-05  58304.13469  51.77601   0.93523  19.40385     58432.13 
    13.28049  1.59156   2.03297       3.52225         2885.52065  0.04352   0.0124     0.14699  75.68828     17.18997   8627.69706   -26.49335  1.38787  3223.12579    9e-05  58310.85665  51.77432   4.17654   19.4207     58434.22 
    13.34986  1.78687   2.14052       1.47177         3333.68487  0.08506  0.01405     0.06662  67.52948      16.7842   8730.55483     -32.475  1.47783  3122.98083    3e-05    58304.875  51.73938   8.02276  19.39482     58433.17 
     13.8072  1.90986   1.84467       4.73292         2799.18109  0.00395  0.11978     0.05869  29.28429     17.20283    9829.8578   -26.79553  0.52995  3816.65575    9e-05  58310.55447  51.85407   0.32452  19.41416  58436.56594 
    13.40011  2.01603   2.19243        4.5177         2340.51496  0.00373  0.02333      0.1534  47.79673     16.45168   8502.12827   -29.62838  1.38235  3584.89718    2e-05  58307.72162  51.83555   0.33338  19.44295     58429.13 
    13.37127  1.56753   2.11753        1.5642         3299.98563  0.22892  0.01801     0.23465  59.31998     16.17862   8655.17205     -31.845  1.27246  2845.47063    1e-05    58305.505  51.64983  21.16271  19.43754  58436.56594 
    13.37604  1.76528   2.14839       4.74553         2952.98168  0.01663  0.01147     0.20478  94.67419     17.08603   8742.53855   -32.17061  1.14467  2871.08888    7e-05  58305.17939  51.68827   1.65004  19.42913     58429.21 
    13.82056  2.06125   2.47986       3.43244         3023.95994  0.14894  0.02931     0.17368  40.81258     16.70706    8975.2818   -34.15095  0.43016  3057.10937    3e-05  58303.19905  51.68597  12.96383  19.41727  58436.56594 
    13.58343  1.81033   5.26621       4.99303         2902.30879  0.49815  0.01713     0.01988  68.25026     17.76145   8537.32458   -13.71264  1.01937  4460.62043  0.00032  58323.63736  52.04974  47.06285  19.45683     58432.13 
    12.85674  1.54702   6.84722       4.82826         2895.82586   0.4105  0.01412     0.39499  98.05641     16.09689   5230.27233   -12.06974  1.00212  4846.41574    1e-05  58325.28026  52.14523  40.93321  19.44786     58430.22 
    13.52672   1.3526   1.61064       1.89021         2621.74085  0.00415  0.01703     0.45307  58.52887     17.43878    7869.3834   -28.14985  0.40215  3876.83463  0.00015  58309.20015  51.91756   0.38267   19.3485  58436.56594 
    13.34261  1.69362   2.14562       3.44942         3021.55187  0.07108  0.02458     0.18938  42.23958     17.29222   8779.44522   -28.99614  1.56122  3071.53503  0.00011  58308.35386  51.69253   6.22201  19.34297     58434.22 
     13.3284  1.77578     2.114        2.8194         2943.98021  0.04237  0.01767     0.05528  63.01391     17.37176   8911.72788   -31.56495  1.46059  3405.11117  0.00013  58305.78505  51.80987   3.95427  19.42099     58433.17 
    13.59891  1.78392   2.03082       1.91027         3277.72774  0.01803  0.01643     0.28189  62.04894     17.16311   8995.66044   -33.79802  0.58982  2760.36592    8e-05  58303.55198   51.6265   1.67848  19.42391     58430.22 
    13.49723  1.87276   2.20763       3.18257         3165.26947  0.02118  0.01312     0.49923   74.8656     16.23454   9421.50009   -36.03878  0.83682  2538.21519    1e-05  58301.31122  51.56611   2.02928  19.41864     58435.16 
    13.48226   1.6669   2.15804       4.34444          3003.4746  0.05032  0.01081     0.31579  99.73413     16.94012   9277.10512   -31.83591  0.89491  2419.67276    5e-05  58305.51409  51.54297   5.03011  19.43495     58434.22 
     13.8201  1.97649   2.37497       4.94927         3117.92812  0.01288  0.01331      0.1728  71.56601     16.79493   8176.85656    -30.8304  0.39672  2659.31551    3e-05   58306.5196  51.60363   1.22553  19.41715     58433.17 
    13.58235  1.76055    2.3284       2.31687          3087.7743  0.27254  0.02658     0.29295  40.95745     18.55675   9340.27195   -30.75875  0.67482  3210.16239    0.002  58306.59125  51.72865  23.73552  19.42377     58436.12 
    13.47089  1.80032   2.03207       0.25235         4078.62547  0.25438  0.01921     0.03726  55.65037     19.87932   8802.02305   -31.55629  1.22236  3534.29462  0.04208  58305.79371  51.83377  23.28165  19.43691     58429.13 
    13.77838  1.73067   2.07766       4.13157         2918.55066  0.00262   0.0201     0.08878  48.63684     17.70222   9890.38305    -32.0725  0.32505  3027.03042  0.00028   58305.2775  51.68985   0.23513  19.38949  58436.56594 
    13.56697  1.94497   2.15141       4.98937         2629.62623  0.01153  0.02244     0.01827  59.43926      16.4542   7489.02872   -33.97941  0.82548   2829.1826    2e-05  58303.37059  51.64498   1.06625    19.433     58429.21 
     12.8305  1.58989    2.4226       4.92538         3123.95726  0.46538  0.01823     0.13649  74.32241       16.269   6222.23362   -14.19557  1.08275  4265.59886    1e-05  58323.15443  52.01654  44.54118  19.40764  58436.56594 
    13.30231  1.66776   2.07904       3.79066         3083.43498  0.02352  0.01257     0.25687  78.05751     16.60791   9360.76009   -32.93096  1.31729   2862.7101    2e-05  58304.41904  51.67334    2.2681  19.44679  58436.56594 
    13.71573  1.88262   7.13072       4.45652         2936.67853    0.482  0.01708     0.02141   78.0789     18.19636   8741.74236   -14.42108  1.00875  4590.59755  0.00087  58322.92892  52.08354  46.47492  19.42641     58436.12 
      13.329  1.76791   2.15739       3.53557          3067.1424    0.052  0.01975     0.12141  48.19878       17.456   9663.55214   -29.39057  1.41281  2851.45058  0.00016  58307.95943  51.63732   4.65097  19.40575  58436.56594 
    13.67417   1.7925      2.14       3.40827          3073.7633  0.04247  0.02284     0.17118  52.42969     17.33463   9829.41368   -34.77769  0.52179  2725.10404  0.00012  58302.57231  51.60382   3.85046  19.31335     58435.16 
     13.4422  1.87687   2.17898         3.297         2862.29154  0.01045  0.02829      0.3545  36.65041     17.46618   8315.11635    -29.7086  0.94139   3410.2578  0.00016   58307.6414  51.77309   0.89345  19.37562  58433.09231 
    13.61725   1.8094   1.90688       0.41733         4188.65598  0.03926  0.02114     0.22054  50.18167     18.75203   9647.92797   -30.19457  0.66492  3238.77283  0.00314  58307.15543  51.75077   3.53411  19.41811     58429.13 
    13.44324   1.7872   2.49857       2.82873         2930.37147  0.17305  0.01283     0.08993  72.32829     18.04779   9260.33744   -26.34063  0.94687  3672.21599  0.00062  58311.00937  51.88464  16.49436  19.45219  58433.09231 
    13.48326  1.82701     3.494       3.85829         2854.74059   0.4444   0.0195     0.03833  63.70004     18.30542    8904.1415   -20.35473  0.98066  4637.73394  0.00112  58316.99527  52.07895  41.54112   19.4273     58434.22 
    13.81545  2.08217   2.47797       4.26364         3097.51992  0.02414  0.01343     0.24417  61.10915     16.03271   9899.41171   -29.21072  0.43119  2536.67479    1e-05  58308.13928  51.55207   2.24215  19.35591     58433.17 
     13.2864  1.60954   2.11365       3.03672         2953.33814  0.07841  0.01145     0.14809  78.21802      16.7007   6250.13126    -24.8449  1.14524  3752.57164    3e-05   58312.5051  51.90857   7.56209  19.39652     58434.22 
    13.48981  1.63763   2.21548       3.19724          3079.7397  0.13649  0.01445     0.35831  67.53482     18.33526   8833.26084   -31.22552  0.79849  2698.57902   0.0012  58306.12448  51.61252  12.87453  19.32519     58434.22 
    13.13511  1.30669   1.64454       2.18468         3295.57375  0.01609  0.01909     0.15404  53.86277      16.3107   8140.49749   -32.13998  1.49683  2958.48578    1e-05  58305.21002  51.67706   1.46535   19.4295     58430.22 
    13.79692  1.76806   2.19393       4.29262         3045.46562  0.03689   0.0109     0.19721  84.02529     16.62241    8780.3883   -32.93146  0.32948  2755.53452    2e-05  58304.41854  51.64497   3.59647  19.41945  58440.03957 
    13.48149  1.39038    1.7337        2.8615         2951.83518  0.01555  0.01692     0.01189  58.92379     17.42069   9605.97441     -29.703  0.50491  3103.06716  0.00015    58307.647  51.72465   1.43573   19.4463     58432.13 
    13.58111  2.02036   2.40163       3.98324         2855.67863  0.25641  0.05076     0.03387  41.66968     16.51278   8420.41579   -30.94507   1.5097  3344.82001    2e-05  58306.40493  51.76559  22.39527  19.41962     58432.13 
    13.27812  1.55258   2.11483        3.4369         3015.52869  0.17611  0.02079     0.06144  46.44755     16.96948   8191.70216    -28.7703  1.30042  2971.35175    5e-05   58308.5797  51.67049  15.65833  19.34702  58455.29668 
    13.69619  1.84818   2.37689       3.42684          2973.8485  0.13568  0.01935      0.1666  68.80392     17.30391   8689.49614   -31.44359  0.58603  3091.70408  0.00011  58305.90641  51.73188  12.83399  19.43301     58436.12 
    13.38648  1.77157   2.19937       4.33011         3120.59139  0.03142  0.01365     0.33699  76.95319     17.10029   8163.04593    -32.9001  1.27717  2571.49673    7e-05   58304.4499  51.57923   3.02268  19.44389  58431.36597 
    13.74701  1.70202     2.021       2.89983         3104.80856  0.02328   0.0202     0.12953  58.97246     16.76419   9484.32449   -36.69127   0.3721  2933.42564    3e-05  58300.65873  51.67587   2.15053  19.43895  58436.56594 
    13.40001   1.7863   2.16535       2.16491         3200.14536  0.05205  0.01328     0.24115  68.55987     16.12407   8447.83889   -29.28352  1.26369  2765.83996    1e-05  58308.06648   51.6349    4.9205  19.45033     58429.13 
    13.94063  1.56958   1.82886       0.47909         3857.32679  0.12621  0.01708     0.23972  54.62282     16.62254   9584.79569   -30.52462  0.17818   4084.1168    2e-05  58306.82538  51.95808  11.51705  19.42389     58434.22 
      13.574  1.88321   2.19631       3.49705         3141.44497  0.02291  0.02227     0.11591  58.99009     16.43621   9282.78673   -32.34711  0.85397   2632.8702    2e-05  58305.00289    51.582   2.11625  19.36407  58453.93411 
     13.4043   1.9153   2.18975        4.4587         2708.35951  0.00208  0.03548     0.03017  33.00679     18.60914   9651.02553   -30.12693  1.17624  3409.07069  0.00226  58307.22307  51.76502   0.17447  19.44712  58429.61867 
    13.69739  1.84118   2.19925        3.5386         3118.87705   0.0487  0.01554     0.04498   92.0918     16.52025   9975.51622   -37.31773   0.6116  2524.67806    2e-05  58300.03227  51.57483   4.81231  19.43893     58429.13 
    13.48396  1.50152   1.84339       1.32171         3522.70831  0.07956  0.01063      0.0817  96.44237     17.45986   8768.30921   -35.31979  0.70827  2570.02038  0.00016  58302.03021  51.59322   7.91457  19.44008     58430.22 
    13.50519  1.84642   2.21247       4.27941         3052.38711  0.03711  0.02512     0.02444  50.04064     17.27994   9312.97271   -32.93281    0.884  2814.73227  0.00011  58304.41719  51.62868   3.33953  19.41194     58435.16 
    13.39995  1.75158   1.95133       1.10699         3451.31157  0.00815   0.0202     0.09165  45.39787     16.11721   8779.68426   -31.03921  0.94379  3200.06823    1e-05  58306.31079  51.73328   0.72233  19.41363     58435.16 
    13.76345  1.84792   2.24708       4.19596         2980.97167  0.02041   0.0145     0.08062  68.11114     16.29474   9517.33998   -31.39378  0.41043   2941.8451    1e-05  58305.95622  51.68805   1.92758  19.45125     58432.13 
    13.56169  1.77167   2.22098       4.83741         3055.07965  0.00365    0.011     0.02219  78.52256     16.64731   6962.46981   -26.04858  0.76726  2350.08739    2e-05  58311.30142  51.50234   0.35199  19.39409     58432.13 
     13.7524  2.06112   2.28351       3.67222           2775.194  0.00169  0.02555     0.38625  48.94681     16.91404   9715.10529   -32.20879  0.50625  3244.74358    5e-05  58305.14121  51.75062   0.15116  19.41461  58431.36597 
    13.42922   1.6998   2.11931       0.97768          3508.7545  0.14153  0.01347     0.09112   79.9132     17.83261   8799.88651   -30.73566  1.13132  3150.83529  0.00038  58306.61434  51.75816  13.69367  19.42918  58436.56594 
    13.52041  1.86259   2.29559       3.75391         3078.11089  0.04125  0.01258     0.11111   82.5085     16.66841   8636.83355   -32.97217  0.93151  2512.39487    3e-05  58304.37783  51.56356   4.01034  19.43668     58426.21 
    13.54083  1.86793   7.33221       4.79463         3039.44784  0.49711  0.01716     0.01607  72.57674     18.13711   8786.57142    -17.2443  1.01243  4347.46377  0.00076   58320.1057  52.03149  47.40705  19.36827     58430.22 
      13.762  2.03684   2.46093       3.51748         3117.51815  0.04876  0.01796     0.43936  47.91796     18.65381   7101.25545   -30.36614  0.47646   2872.2038   0.0025  58306.98386   51.6432   4.35736  19.44286     58432.13 
    13.78961  2.01463   2.35619       3.69358         2944.74541  0.09399  0.03115     0.17669  45.64857     17.12471   8836.99826   -32.85332  0.50784  2981.48253    7e-05  58304.49668  51.67221    8.3334  19.42921     58432.13 
    13.82606  1.89753   2.26612       4.16139         3044.29438  0.02221  0.01771     0.16965   53.2906     16.25103   9056.44697   -33.67114  0.33723  2864.19322    1e-05  58303.67886  51.64818   2.01868  19.43919     58429.21 
    13.54189  1.90242   2.25287       2.84732         3257.08656  0.02536  0.02183     0.43201  48.99981     16.12576   9154.80236   -30.55189  0.87345    2753.143    1e-05  58306.79811    51.608   2.27447  19.42171  58431.36597 
    13.67613  1.72366   2.01208       2.96406          2892.9734   0.0187  0.03156     0.06543  39.05237     16.72917   9520.26613   -30.68354  0.48881  3164.37872    3e-05  58306.66646  51.71273   1.61599  19.33905  58453.29037 
    13.46784  1.41992   1.75495       2.98588         3253.03404  0.00559  0.01378     0.02284  78.34303     17.17119   9307.17136   -34.33192  0.58242  2590.89861    8e-05  58303.01808  51.58692   0.53969  19.44541     58432.13 
    13.67241   1.9136   2.21492       4.62004         2934.72839  0.01768  0.02409     0.30181  55.17407     16.16551   9723.56037   -31.72308  0.60953   2805.7612    1e-05  58305.62692  51.63267   1.61587  19.42663  58436.56594 
     13.1982  1.45236   1.76579        1.2287         3143.23354  0.02006  0.01971     0.09204  48.44422     17.52679   8671.91751   -28.87913  1.44976  3770.02758  0.00019  58308.47087  51.88023   1.79569  19.42686     58432.13 
    13.46917  2.00275   2.27717       3.47073         2925.02029  0.03184  0.02059     0.40681  63.54303     16.00239   8152.92238   -34.46751   1.3226   2827.2089    1e-05  58302.88249  51.64889   2.97514  19.42227     58435.16 
    13.57258  1.73106   2.07781       3.11494          3098.4229  0.03265  0.01435     0.16966  73.84168     19.76617    8409.6454   -33.60156  0.57853  3084.18354  0.03243  58303.74844  51.73443   3.12144  19.35861  58433.09231 
