 texplosion  fnickel     Pspin  log(Bfield)      Mns  thetaPB   mejecta    kappa  kappagamma     vejecta  temperature    alpha  cutoff_wavelength  log(nhhost)      A_V         MJD0   kenergy   mnickel             TSD   log(L0)  Peak_mag     Peak_MJD  log(E_rad)  log(Peak_lum)  Rise_Time     E_fold  tau_1  delta_m15     r_peak     frac 
  -29.44047  0.38266   1.88403     13.36306  1.30539  1.22489  31.48309  0.03794     0.01612  3709.03795   9840.65088  1.46308         3448.62579     16.47295    2e-05  58307.90953   2.58361  12.04741   8083683.37488   44.9268   19.4433  58429.39731     51.6808       44.56002   69.24301  101.12868  129.0    0.03878  -21.82785  0.73202 
  -27.95519  0.40183    2.4044     13.88636  2.13882  0.56493  15.93978  0.12313      0.1702  5330.89366   9644.73193  3.32582         2185.76363     17.69915  0.00028  58309.39481   2.70215   6.40503   1937652.03981  45.54973  19.36577  58429.39731     51.7471       44.59726   70.49863   97.91476  104.0    0.04129  -21.97555  0.86906 
    -17.669  0.24724   1.69344      13.8639  1.93603  0.86668  26.17513  0.15424      0.0193  4016.61841   9624.03512  3.66695         3240.73001      17.5678  0.00021    58319.681   2.51905   6.47147    964850.05807  46.11376  19.40033     58441.24    51.60817       44.44354   71.07101  116.92533  110.0    0.02807  -21.94988  0.92265 
  -34.69934  0.08006   2.12069     13.52659  1.90363  1.44073  30.00059  0.06396     0.18236  3741.70639   8996.14357  1.90901         3374.28098     17.98637  0.00054  58302.65066   2.50551   2.40174    7033548.3595   45.0483  19.38178     58432.13    51.69688       44.56598   70.49863   99.87306  128.0    0.03259  -21.89269  0.95026 
  -31.90603  0.00174   1.81463     13.50916   1.4679  0.61473  15.21622  0.11137     0.02973  4631.10029   9086.73127  2.08255         3118.73646       17.488  0.00017  58305.44397   1.94671   0.02654   4303000.09941  45.28419  19.40052     58430.22    51.65434       44.49882   72.15613  110.38024  124.5    0.03934  -21.93792  0.99936 
  -18.89969  0.42261   1.80252     13.89548  1.79933  0.97541  45.00079  0.07362     0.19536  4641.44743   9400.09839  2.18131         3258.81597     17.41104  0.00014  58318.45031   5.78301  19.01783    878456.53967  46.06848  19.39349  58435.02663    51.67237       44.51338   74.41522  105.74794  108.0    0.03046  -21.97451  0.76318 
  -24.06109  0.02642   1.72908     13.89138  1.75643  0.52865  41.25616  0.08452     0.16168  4076.32838   9575.56617  3.20196         3184.16592     18.13438  0.00076  58313.28891   4.08935   1.09003    804109.18544  46.13253  19.37596     58441.24    51.61872       44.45056   74.44327  115.53942  106.0    0.03255  -21.93535  0.98306 
  -25.68174  0.19646   2.38616     13.59126  1.96628  1.35022  34.58477  0.04769     0.02921  4452.76444   9537.12459  3.02047         2675.05969      16.4558    2e-05  58311.66826   4.09045    6.7944   6828895.21661  44.97274  19.43234     58432.13    51.68257       44.51193   76.37351  105.74794  118.0    0.04362  -21.89212  0.84835 
  -31.72123  0.09124   2.13805     13.75749  1.96022  0.69246  33.07045  0.05837     0.06157  3552.81705   9695.33918   2.1217         3436.42874     16.95369    5e-05  58305.62877   2.49008   3.01738   2541976.17534  45.49594  19.39775  58435.02663    51.78243       44.64696   69.55753   96.39503  120.0    0.03458  -21.91906  0.94026 
  -28.98365  0.28189   1.87296     13.37008  1.42204  1.23594  38.35766  0.02839      0.0145  3612.17861   9608.50456  1.16541         3688.20788     16.14569    1e-05  58308.36635    2.9855  10.81275    8426110.8567  44.95107  19.40713     58433.17    51.62109       44.45066   79.98909  117.79873  139.0    0.03478  -21.85794  0.77703 
  -27.12851  0.00108    1.9659     13.42294  1.55185  0.97839  38.90912  0.03805      0.0131  3617.79118   8535.08052  4.29748         3147.44873     18.04595  0.00062  58310.22149   3.03785   0.04221   7941711.70209  44.97266   19.4152  58437.84129    51.62055       44.46537   71.09142  111.62283  143.0    0.03401  -21.90239   0.9989 
  -35.88747  0.33994   1.54026     13.84209  1.41048  0.35858  26.88753  0.06883     0.06933  4358.54119   8594.95543  0.41351         3917.14135     18.78595  0.00339  58301.46253   3.04692   9.14024    642981.84174  46.23482  19.39064     58436.16    51.64088       44.48859   76.35149  104.22658  122.0    0.03284  -21.93534  0.86114 
  -15.89618  0.44246    7.5071     14.06338  1.71671  1.06021  71.83732  0.01823     0.02516  4782.49651    7803.8587  3.53624         3186.13035     17.95324   0.0005  58321.45382   9.80137  31.78525   6709655.39647   43.9259  19.41429  58440.65594    51.67414       44.51464   76.64555  107.70624  136.0    0.03707  -21.91506  0.08902 
  -13.98254  0.44278   5.97336     13.79803  1.77247  1.13909  69.18546  0.01639     0.01565  4574.07719   8258.17251  4.70606         3082.84289     17.92191  0.00046  58323.36746   8.63473  30.63385  14886032.18587  43.79221  19.39607  58432.21197    51.65805       44.51856    75.6439  110.39415  140.0    0.04191  -21.93851  0.13557 
  -29.50581  0.03782   1.91518     13.56282  1.69079   0.8812  41.12781  0.03474     0.18108  3466.21887   9685.27052   1.6095         3574.24677     18.56402  0.00204  58307.84419   2.94764   1.55539   4312021.20556  45.29783   19.3775  58437.84129    51.65853       44.50488   79.85318  106.18487  126.0    0.03251  -21.87623  0.96811 
  -33.07702  0.23236   1.83442     13.51506  1.43981  0.83663   28.9074  0.07524     0.43356   3838.2076   9298.44453  2.78917         3218.13961     18.22487  0.00093  58304.27298   2.54035   6.71686   4197625.99699  45.27715  19.39111     58436.16    51.67643       44.51238   76.37351  103.78965  124.0    0.03556  -21.91559  0.85778 
  -29.83781  0.15611   2.09804     13.55579  1.72457  0.98418  37.99044  0.03797     0.06203  3377.34384   9276.08447  2.07207         3376.07635     16.85074    4e-05  58307.51219   2.58495   5.93057   5451861.23389  45.12536  19.40974     58432.13    51.66579       44.46801   78.33181  113.58112  134.5    0.03476  -21.85377  0.87178 
  -32.43238  0.03425   2.16737     13.67516  1.88335  0.65539   31.9371  0.03822       0.411  3040.66125   8993.81216  2.35222         3423.58876     17.64107  0.00024  58304.91762    1.7614   1.09369   3666813.19787  45.30762   19.4075     58435.16    51.63371       44.46754   75.24796  121.41431  155.5    0.03538  -21.83297  0.97481 
  -30.42738  0.39983   1.96941     13.48893  1.52703  1.01301  33.59133  0.03582     0.02033   4060.5364   9978.51416  0.78014         3789.99041     19.12674  0.00744  58306.92262   3.30386  13.43093   5787303.46413  45.10154  19.40405     58433.17    51.68469       44.53738   74.41522  103.78965  126.0    0.03539   -21.8923  0.73994 
  -30.21156  0.03004   1.95901     13.56915  1.70679  0.86483  58.31403  0.03241     0.12642  3878.37821   9440.84128  2.07368          3352.8257     16.76054    3e-05  58307.13844   5.23239   1.75152    4423531.8048  45.27118  19.42036     58434.22    51.62215       44.44019   80.03083  109.92381  122.0    0.03823  -21.92906  0.96303 
  -30.26334  0.06969   2.21285     13.52339  1.77509  1.12247  57.34605  0.02745     0.05733  3455.77919   9930.27354  2.95906         3283.07752     18.46301  0.00161  58307.08666   4.08529    3.9966   7247143.18615  44.96799  19.39443  58437.84129     51.7144       44.53318   80.29011  109.66453  127.0    0.03731  -21.86287  0.90372 
  -30.79455  0.05985   2.19358     13.63376  2.01213  0.86641  29.26686  0.06979     0.01777  4864.84389   9370.48703  3.22291         2413.77976     16.94059    5e-05  58306.55545   4.13182   1.75174   4855856.07402  45.20393  19.39901  58437.84129    51.70359       44.55315   76.37351  103.78965  112.0    0.03101  -21.95304  0.96338 
  -11.30888  0.00943   1.27848     13.87677  2.12917  1.17379  22.90962   0.2435     0.31422  4569.19926   9718.86943  2.65088         3321.59237     18.43939  0.00153  58326.04112   2.85315   0.21611    570003.03857  46.62779   19.4069  58431.36597    51.72314       44.60486   68.10177   96.39503  100.0    0.02251  -21.98235  0.99863 
  -14.13018  0.00583   1.43114     13.86689  1.80933  0.74084  23.40307  0.22862      0.1288  4787.14859   9582.84294  4.11349         3140.79099     17.18267    8e-05  58323.21982   3.19929   0.13652    635213.80338  46.41208  19.39849   58443.4706    51.67357       44.51029   74.25033  114.01805  102.0    0.02717  -21.98943  0.99861 
  -24.32693  0.06575   1.82801     13.43833  1.48201  1.33781  27.22336  0.07955       0.022  3757.43972   9645.29058  3.96503         3195.22063     16.84699    4e-05  58313.02307   2.29273    1.7899   6108940.89894  45.12977  19.40354  58437.84129    51.63435       44.46128    82.2484  113.58112  112.0    0.03215  -21.91256  0.95997 
   -30.4692  0.36824   2.05904     13.57864  1.64953  1.07805  30.21298  0.05984     0.07221  3824.75241   9461.83548  1.64879          3467.3742     18.01569  0.00058   58306.8808    2.6365  11.12565   4520846.81933  45.20366  19.42382     58434.22    51.65031       44.49862   81.74587  113.58112  120.0    0.03051  -21.90686  0.78159 
  -20.07693  0.15982   1.49139     13.72246  1.76771  1.20668  46.19063  0.09135     0.25529  4601.62458   9718.95495  2.15619         3279.60594     16.14534    1e-05  58317.27307    5.8345   7.38214   1310655.86094  46.05159  19.42001     58436.16    51.69687       44.51987   80.29011  105.74794  100.0    0.02799  -21.99454   0.9218 
  -25.88718  0.07007   1.85065     13.69166  1.48563  0.53133  24.49851  0.08294     0.02987  4189.24398   9018.33386  2.96453         3176.40188      17.0422    6e-05  58311.46282   2.56471   1.71651   1954614.10994  45.61505  19.40248   58443.4706     51.6232       44.46775   76.33062   115.7254  118.0    0.03396  -21.93033  0.96045 
  -17.03153  0.44795   5.50655     13.89694  1.77255  1.14894  61.62339  0.01702      0.0104  3993.00647   8546.70924  4.51045         3125.94355      17.6658  0.00026  58320.31847   5.86101   27.6043   8022317.23648  44.13138   19.3935     58435.16    51.72691       44.58765   74.41522   99.87306  138.0    0.03703  -21.84268  0.17886 
  -15.80098   0.4425  14.51802     14.79579  1.72283  0.87686  78.33597  0.01787     0.01589  5831.40659   8610.50278  2.88728         2912.27681     18.82415  0.00371  58321.54902  15.89041  34.66381    863559.81134  44.24498  19.40869   58443.4706    51.60015       44.42004   71.89571  123.93381  122.0    0.04354   -21.9222  0.02487 
  -32.64566  0.00867    2.0885     13.67995  1.71233  0.59707  34.32869  0.05694     0.04352   3955.5967    9607.7451  4.00854         3076.12048      16.3347    1e-05  58304.70434   3.20412   0.29767   3028151.66567  45.38159  19.49874  58437.84129    51.63146        44.4373   76.94698  127.54847  124.0    0.03524  -21.89383  0.99257 
  -26.47327  0.11483    2.1366      13.5351  1.73829  1.21867  28.41668  0.06273     0.03393  3613.42069   9823.02105  3.29124         3254.59052     16.90949    5e-05  58310.87673   2.21329   3.26299   6268847.91242  45.05233  19.46184  58431.36597    51.60837       44.45244   70.77067  121.41431  118.5    0.03376  -21.89346   0.9238 
  -20.58134  0.18043   1.83248     13.85323  2.06544  0.94977  27.98646  0.13159     0.19013  3935.84255   9653.93142  3.51582         3210.37479     16.13141    1e-05  58316.76866   2.58613   5.04958    1266060.3702  45.95533  19.39775     58433.12    51.63194       44.49179   73.28967   99.87306  110.0    0.02512  -21.94162  0.93484 
  -25.75104  0.43841   2.05525     13.78075  1.91318  1.00372  27.50707  0.10866      0.2323  4405.32821   9341.78711  2.09645         3209.41838     17.09634    7e-05  58311.59896    3.1844  12.05939   2059646.16674  45.61108  19.43253     58434.22    51.69817       44.55321   76.37351  105.74794  108.0    0.02816  -21.96327  0.80862 
  -34.12941  0.32235   1.91062     13.52414   1.6707  1.10642  25.85508  0.07083     0.06101  4320.56391   9595.99319  0.74918         3743.28793     17.56978  0.00021  58303.22059   2.87908   8.33429   5067315.11767  45.22462  19.39131   58443.4706    51.61991       44.45433   79.14145  114.87287  114.0    0.03234  -21.94059  0.84921 
   -30.7876  0.02749    1.8975     13.52213  1.64351  1.16141  79.52528  0.02647      0.1343  3112.53948    9990.0397  3.48669         3264.66737     16.14762    1e-05   58306.5624   4.59581    2.1861   4962295.37819  45.23257  19.42663  58440.65594    51.65651       44.48522   79.98909  108.00726  122.0    0.02692  -21.84101  0.95519 
  -33.66027  0.00851   1.77428     13.57821   1.4917  0.62525  53.06741  0.03704       0.049  3680.18853   9026.17938  2.72266         3212.07471     17.63457  0.00024  58303.68973   4.28741    0.4517   3041720.81318  45.46136  19.43321  58440.65594    51.73014       44.55809   79.05796  104.51927  130.0      0.031  -21.89219  0.99011 
  -30.26643  0.21938   1.97496     13.58493  1.86401  1.16502  20.44849   0.1335     0.15196   4963.7272    9055.3485  2.60439         2475.06193      18.9993  0.00555  58307.08357   3.00541   4.48604   4565808.54104  45.28866  19.40833     58434.22    51.63597       44.47511   78.33181  107.70624  108.0    0.03365  -21.98785   0.9206 
   -33.9208  0.14028   1.92257     13.56778  1.86214  1.09399  35.33116  0.04369      0.0949  4108.67849   8576.37783  0.56555         3996.61642     19.41497  0.01444   58303.4292   3.55786    4.9562   4677791.30345  45.30105  19.40558     58430.22     51.7062       44.56381   70.49863   97.91476  132.0    0.03821  -21.92266  0.91675 
   -26.6158  0.03941   2.26894     13.87058  2.12486  0.60326   42.0217  0.04805     0.20198  3635.04151   9949.55252  2.80836         3265.55358     19.61865  0.02309   58310.7342   3.31222   1.65591   1843411.72492  45.61891  19.37724     58436.16    51.69845       44.53851   74.41522  105.74794  114.0    0.03578  -21.93273  0.96644 
  -30.59222  0.15857   2.01255     13.59016  1.75206  0.98507  33.75254  0.06353     0.04126  3967.90088   9702.54267  1.94743         3387.78294     18.64761  0.00247  58306.75778   3.16997   5.35213   4350549.86663  45.26636  19.40755  58429.39731     51.6438        44.4776   74.41522  109.66453  114.0    0.03066  -21.94634  0.89455 
  -19.28852  0.46752   5.82172     13.93513  1.92615  1.16846  63.77219  0.01956     0.01272    4465.831   8866.46529  4.32274         3001.65529     18.22093  0.00092  58318.06148   7.58688  29.81456   8172467.74825  44.11108  19.41679     58433.17    51.67418       44.50618   74.41522  107.70624  132.0    0.04015  -21.88894  0.16925 
  -27.66821  0.11452   1.81078     13.53527  1.48977  0.84528  38.55234  0.05156     0.02937  4298.37392   9395.51714  1.83931         3251.17932     16.18095    1e-05  58309.68179     4.249   4.41519   3855827.47125  45.34011  19.41064  58437.84129    51.66046       44.48725   80.29011  107.70624  114.0     0.0411  -21.93702  0.90871 
  -20.97201  0.19818   1.80884     13.72051  1.65609  1.02607  51.80654   0.0547     0.05671  4376.61069   9688.36671   2.2853         3309.57256     17.93568  0.00048  58316.37799   5.91953  10.26716   1822513.33302  45.71246  19.40243   58443.4706    51.63696       44.46173   75.01565  118.88363  102.0    0.03814  -21.94991  0.83832 
  -16.06215  0.49181   1.80602     13.84931   2.0885  1.28913  19.47597  0.20597     0.26703  4323.40471   9291.30613  3.52745         3215.87534     19.04004  0.00609  58321.28785   2.17159   9.57843   1266123.96894  45.97276  19.40056  58446.28526    51.62032       44.44143   80.52599  121.32151  110.0    0.02438  -21.97714  0.88835 
  -17.97763  0.20249   1.51362     13.78241  1.76885  0.99742  30.82676  0.14362     0.37863  4061.66715    8661.7986  4.62718          3151.0408     17.46288  0.00016  58319.37237   3.03364     6.242   1024980.81823  46.14579  19.50638  58431.36597    51.59513       44.44016   71.33137  119.45601  116.0     0.0265  -21.93628  0.93128 
  -30.93335  0.22071     1.837     13.57133  1.71135   1.0157  51.48662  0.02633     0.04918  4233.53165   9724.45741  0.45931         4271.80651     19.83871  0.03832  58306.41665   5.50462  11.36366   3861150.94748  45.38725  19.50799     58429.21    51.58018       44.42535   71.33137  121.41431  118.0    0.04297  -21.96351  0.82347 
  -32.58934  0.42431   1.65528     13.47428  1.60153   1.4152  48.07134  0.02726     0.03463  4484.61242   8528.49742  0.26756          4212.7059     20.38157  0.13375  58304.76066   5.76718   20.3972   4586983.61687  45.37411  19.40536  58437.84129    51.68994       44.54539   79.05796  104.51927  140.0    0.03144  -22.04412  0.74461 
  -20.40033  0.48486   6.32048     13.90683  2.05627  1.11649  69.47432  0.02366     0.01446  5033.89485   9353.99988  4.13484         2975.89183      18.4937  0.00173  58316.94967   10.5017  33.68507   11714895.9014  43.91169  19.40172  58432.21197    51.66192       44.48264   76.37351  107.70624  122.0    0.03954  -21.99218  0.13939 
  -20.48133  0.46397   5.63892     13.97816  1.88322  0.98303  65.71989  0.02178     0.03007  5005.41616   8682.84337  3.70328         2860.95958     18.39146  0.00137  58316.86867    9.8221  30.49177    6148772.0369  44.25257  19.38888   58443.4706    51.69109       44.50838    82.2484  113.58112  128.0    0.03445  -21.89726  0.17128 
   -9.90018  0.26038   0.87455     14.10291  1.62335  0.45181  28.42919  0.17135     0.25024  4284.09779   9355.77467  2.19742         3379.46998     18.59851   0.0022  58327.44982   3.11251   7.40235     71775.36048  47.73971  19.40008  58431.36597    51.64596       44.49861   73.69952  102.54706  106.0     0.0224  -21.95039  0.96833 
  -28.67441  0.10237   2.33856     13.51663   1.7947  0.99819  50.39312  0.02238     0.02853  3344.46785    8718.2136  2.96645         3311.51777     16.50702    2e-05  58308.67559   3.36242   5.15851   8441951.62918   44.8585  19.38727   58443.4706    51.60428       44.42343   77.79865  118.05893  155.5    0.03809  -21.84751  0.86609 
  -28.25277  0.19129   2.20326     13.72072  1.72929  0.62808  44.10608  0.03292     0.30006  3941.82477   9320.59012  1.80664          3283.5291     19.05191  0.00626  58309.09723   4.08809   8.43685    2820786.5645  45.37021  19.48443     58436.12    51.60778        44.4428   72.60001  121.41431  128.5    0.04153  -21.88428  0.81277 
  -29.12538  0.48419   1.84575     13.53756  1.54139  1.42865  28.19482  0.07611     0.03172  4194.62379   9371.52639   1.1983         3428.40757     16.77324    3e-05  58308.22462   2.95926  13.65156   4101500.65848  45.31147  19.41319  58431.36597    51.66677       44.46587   78.33181  115.53942  112.0    0.03442  -21.92312  0.76867 
  -28.27911  0.14869   2.19599     13.62497  1.82419  0.92065  34.00135  0.04052     0.03658  3343.55347   9922.03177  2.11531         3512.77309     18.78425  0.00338  58309.07089   2.26746   5.05572   4594244.10199  45.18444  19.38614  58440.65594    51.59827       44.43639   74.98867  112.21143  125.0    0.03508   -21.8765   0.8882 
  -25.93767   0.0146   1.72417     13.69416  1.65502  0.74794  51.35134  0.05078      0.0487  3156.70185    9890.8781  3.79638         3262.87034       16.701    3e-05  58311.41233   3.05243   0.74973   1868375.82141  45.74303  19.40216   58443.4706     51.6645       44.48628   80.29011  115.53942  116.0    0.02699  -21.87866   0.9872 
  -31.74353   0.3356   2.21438      13.3952  1.77463  1.44389  28.65658  0.05053     0.01175  4719.53893   8810.40383  2.11347         2626.39482     18.47542  0.00166  58305.60647   3.80759   9.61711  13092800.30125  44.71041  19.38799  58431.36597    51.65291       44.45555   79.85318  112.05976  124.0    0.03741  -21.93494  0.79029 
  -32.45719  0.03686   1.97272     13.54201  1.73996  0.84516  36.63967  0.04046     0.03654  4018.45138   9544.20254  1.17738         3605.38204     18.89466  0.00436  58304.89281   3.52936   1.35044   5181663.17781  45.20478  19.38039  58446.28526     51.6363       44.45291   79.87198  118.05893  130.0    0.03213  -21.90659  0.97131 
