 texplosion  fnickel    Pspin  log(Bfield)      Mns  thetaPB  mejecta    kappa  kappagamma     vejecta  temperature    alpha  cutoff_wavelength  log(nhhost)      A_V         MJD0  kenergy  mnickel            TSD   log(L0)  Peak_mag     Peak_MJD  log(E_rad)  log(Peak_lum)  Rise_Time    E_fold  tau_1  delta_m15     r_peak     frac 
    -3.4692   0.0039  2.15093     13.62606  1.45192   1.2029  1.39064  0.12227     0.01134  2955.87536   9755.94265  2.04369         2231.04544     20.95785  0.50417  59223.97144  0.07248  0.00543   3490469.2137  45.22265  17.55498  59270.30959    51.45488       44.76607   29.47572  37.41003   81.5    0.12314   -21.0303  0.99982 
   -3.24411  0.00132  1.98683     13.59833   1.5141  1.16634  0.67444  0.21373     0.01746  2982.89023   9964.72184  1.71454         2138.05882     20.98116  0.53198  59224.19652   0.0358  0.00089  3528858.41052  45.30504  17.54122  59270.38247    51.45761       44.76855   29.23258  37.59051   79.5    0.12362  -21.05945  0.99998 
    -3.0234  0.00248  2.71491     13.77293  1.92123  1.06999  0.81626  0.19119     0.01647  2997.87243   9966.25031  2.58238         2076.45293     20.96295  0.51012  59224.41724  0.04376  0.00203  3741476.36721  45.11187  17.56607  59270.94141    51.49925       44.82614   28.65085  36.73121   81.0     0.1193  -21.02679  0.99993 
   -3.56224  0.00154  2.23103     13.66628  1.63996  0.87054  0.57959  0.25718     0.01655  2949.50381   9963.53387   2.2347         2021.37849     20.95711  0.50332   59223.8784  0.03008  0.00089  3524540.14674  45.23956  17.57751  59270.38247    51.49184       44.81125   28.99091  37.19183   80.5    0.12153  -21.01821  0.99997 
   -3.59163  0.00162  2.36497     13.71553   1.7199  1.12172   0.8586  0.18811     0.01578  2944.95711   9728.07675  2.17065         2096.44565     20.96835  0.51651    59223.849  0.04442  0.00139  3310592.89537  45.23679  17.56732  59270.38247    51.50388       44.82924   29.47572  35.90634   81.5    0.12115  -21.02933  0.99996 
   -3.24787  0.00256  2.02297     13.57518  1.54623  1.24327   0.9461  0.16503      0.0116  2972.66143   9855.62525  2.08509         2004.93309     20.99502  0.54922  59224.19277  0.04987  0.00242  4156346.53381  45.22743  17.56619  59271.86468    51.48994       44.80902   29.50283  37.16472   81.0    0.12323  -21.07043  0.99994 
    -2.8465  0.00109  2.28077     13.61113  1.57184  1.52219  0.50301  0.28269     0.02936  3101.35115   9718.33015  2.02519         2134.51749     20.96674   0.5146  59224.59414  0.02886  0.00055  4551246.97889  45.09096  17.58731  59270.30959    51.42761       44.72687   29.96678  38.13954   82.0    0.11977  -21.01893  0.99998 
   -3.20396   0.0017  2.07598     13.68672  1.54119  0.71551   0.4521  0.31711     0.02149  2994.99726   9921.60777  2.20473         2018.12588      20.9908  0.54391  59224.23668  0.02419  0.00077  2610190.66238  45.40558  17.56082  59270.94141    51.49154       44.80802   28.99091  37.41003   81.0    0.12912  -21.05759  0.99998 
   -2.69693  0.00217  2.23101     13.71861  1.67986  1.11926  1.37518  0.11639       0.011  3057.00102   9932.35431  1.91719         2070.88431     20.98429  0.53582  59224.74371  0.07666  0.00299  2837134.80561  45.34423  17.56155  59270.30959    51.54674       44.88594   28.65085  35.28542   81.0     0.1184  -21.03949  0.99992 
   -3.12316  0.04068  2.12669     13.65575  1.26476  0.70778  1.45299  0.10311     0.01027  3058.57247   9872.60943  2.14236         2308.60561     20.94569  0.49025  59224.31747  0.08108  0.05911  2592575.79508  45.30171  17.55091  59270.94141    51.46897       44.78388   28.19249  38.04305   78.5    0.11971   -20.9955  0.99765 
   -2.94206  0.00164   2.0668     13.57028  1.68592  1.37838  0.44423  0.26274     0.02046  2952.27973   9936.60399  1.71651         2046.41926     20.99254  0.54609  59224.49857   0.0231  0.00073  4838250.88338   45.1804  17.58149  59270.94141    51.48643       44.81751   28.65085  36.73121   82.0    0.11812  -21.04841  0.99998 
   -3.32277  0.00379  2.51908     13.72231  1.73396  1.08303  1.06664  0.15901     0.01491  3132.03525   9970.88763  2.68242         2057.67583     20.98452  0.53611  59224.11787  0.06242  0.00404  3670501.52269  45.14068  17.57388  59270.94141    51.58113       44.93075   28.16604  33.66773   79.5    0.11971  -21.06164  0.99986 
   -3.08507  0.00111  2.52824     13.87826  1.81591  0.95835  1.26342  0.11781     0.01454  2920.01964   9959.51228  1.26929         2748.53625     20.93773  0.48135  59224.35556  0.06426   0.0014   1888112.9757  45.44628  17.57169  59270.30959    51.57436        44.9223   26.98956   34.8442   81.5    0.12035  -20.99009  0.99996 
   -3.34977   0.0013  2.32945     13.69933  1.69254  1.12148  1.06135  0.15424     0.01339  3020.38536   9965.92051  2.01291         2178.62017     20.99182  0.54519  59224.09087  0.05776  0.00138  3405680.62395  45.23067  17.56851  59270.30959    51.44524       44.74556   29.96678  38.13954   79.0    0.12057  -21.06723  0.99996 
   -3.13442  0.00241  2.31349     13.65177  1.75363  1.55444  0.56985  0.24921     0.02083  2964.47317   9933.64817  1.82142         2207.66547     20.99022  0.54319  59224.30621  0.02987  0.00137  4332585.54612   45.1475  17.57825  59270.94141    51.50911       44.83711   28.19249  35.90634   79.5    0.12225  -21.06465  0.99996 
   -2.87269  0.00854  1.91951     13.52666  1.45029  1.25831  0.68429  0.19492     0.01455  2904.71247   9880.79036  1.86206         2034.77585     20.96181  0.50879  59224.56795  0.03444  0.00584  4388631.26145  45.22159  17.55656  59270.30959    51.49831        44.8242   28.16604  36.73121   81.5    0.12096  -21.02254  0.99985 
   -3.10078  0.01582  2.30772     13.62754  1.60826  1.08121  0.85786  0.16931     0.01219  2845.51224   9928.47107   2.3184          2179.2945     20.96202  0.50903  59224.33986  0.04143  0.01357  4420423.62384  45.10337  17.57566  59270.30959    51.45476       44.77298   28.19249  37.19183   81.0    0.12463  -21.03895  0.99956 
   -4.10778  0.00481  1.85075     13.52253  1.41282  1.02411  0.78515  0.18791     0.01179  2934.73916   9893.27659  1.70083         2144.49742     20.99623  0.55075  59223.33286  0.04034  0.00378  4050736.17155   45.2767  17.57815  59270.38247    51.52249       44.85487   27.36762  36.73121   78.5    0.12677  -21.06999   0.9999 
   -3.07792  0.01233   2.7023     13.75953  1.88369  1.54661  0.58198  0.32929     0.03102   3130.0167    9808.8435  2.48048         2111.57353     20.97544  0.52501  59224.36272  0.03401  0.00717   3865722.5161  45.09316  17.56947  59270.94141    51.53194       44.86558   28.16604  35.38765   80.0    0.11704  -21.04736  0.99975 
   -2.86659  0.00161  2.14675     13.88923  1.60135  0.59538  0.96982  0.14833     0.01402   3014.6282    9685.3814  1.57518         2231.50855     20.96276  0.50991  59224.57405  0.05258  0.00156  1141298.76169  45.75237  17.55825  59270.30959    51.52779       44.87656   26.97533  34.73452   81.5    0.12302   -21.0226  0.99996 
   -2.73756  0.00782  2.05064     13.62729  1.62282  1.51111  0.93896  0.16473     0.01311  2989.78499    9719.6856  1.81209         2039.70262     20.98533   0.5371  59224.70308  0.05007  0.00734  3525948.36619  45.30806  17.56211  59269.35103    51.56483       44.92392   25.53431  33.52007   81.5    0.12824  -21.05548  0.99982 
   -2.98137  0.00185  2.26741     13.61822  1.66982  1.28404  0.87791  0.14468     0.01267  2982.97151   9982.66382  1.76899         2155.94851     20.95781  0.50412  59224.45927   0.0466  0.00162  4624928.51987  45.11535   17.5638  59269.35103    51.58153       44.94539   25.53431  33.11602   81.0    0.11316  -21.00516  0.99995 
   -2.58224  0.00287  2.16391      13.7217   1.6592  1.06979   1.4332  0.11014     0.01037  3036.20301   9951.70094  1.89021         2058.35607     20.98846  0.54099   59224.8584  0.07881  0.00411  2598958.13509  45.40347  17.56336  59269.35103    51.40003       44.69265   30.03099  39.93176   81.5    0.12167  -21.04579  0.99989 
    -3.6483  0.00306  1.56819     13.53552  1.19723  0.74949  0.58228  0.24417     0.01732  2983.29411   9993.89514  1.45108          2194.7565     21.01349  0.57308  59223.79234  0.03091  0.00178  2321354.60057  45.59048  17.56239  59269.35103    51.63451       44.99829    27.3875  33.11602   78.5      0.126  -21.08836  0.99996 
   -3.65631  0.00421  2.16183     13.75236  1.82712  1.07936   1.1022  0.13848      0.0114   2993.9373   9968.91632   1.6279         2044.92341     20.99937  0.55475  59223.78433  0.05894  0.00464  2480303.77229  45.46646   17.5638  59270.30959    51.54896       44.89776   26.98956   34.8442   81.5    0.12219   -21.0578  0.99989 
   -3.34597  0.00258  2.52233     13.80628  1.90497  0.88763   0.6512  0.21501     0.01779  2944.23995   9977.82654  1.82138         2229.67974      20.9704  0.51896  59224.09467  0.03367  0.00168  2746267.12464  45.30639   17.5496  59269.35103      51.581       44.93013   28.16604  34.00696   81.0    0.12039  -21.03891  0.99995 
   -2.80468  0.00215  2.34001     13.98333  1.91803  0.57081  0.65487  0.21279     0.01811  3005.67918   9962.02782  1.49849         2258.62788     21.00162  0.55763  59224.63596  0.03529  0.00141  1053028.99999  45.79083  17.55837  59269.35103    51.47036       44.78657   28.99091  37.41003   79.0    0.12288  -21.07625  0.99996 
    -2.8895  0.00431  2.40693     13.64156  1.81825  1.42304   0.5183  0.28864      0.0234  3023.35197   9947.98011  2.63635         2050.95589     21.04371  0.61438  59224.55113  0.02826  0.00223  5096565.07042   45.0583  17.56005  59270.94141    51.52341       44.85617   28.65085  35.38765   82.0    0.12629  -21.13577  0.99993 
   -3.43553   0.0021  2.23364     13.67182   1.5591  1.30837  1.48793  0.11311      0.0112  3055.32612   9858.42871  2.09688         2027.35701     20.92812  0.47082   59224.0051  0.08286  0.00313  3274027.72639  45.24861  17.57702  59270.30959    51.57172       44.91697   27.10627  35.06672   80.0    0.12119  -20.97267   0.9999 
   -3.04012  0.00148  2.57872     13.82327   1.7522  0.83736   1.1889  0.15759     0.01346  3030.89007   9862.88442  3.29102         2001.12995     20.97659   0.5264  59224.40051  0.06515  0.00176  2441568.15839  45.30195  17.56694  59270.30959    51.52707       44.85883   28.65085  35.38765   81.0    0.12682  -21.04995  0.99994 
   -3.20722  0.00111  2.82673     13.69155  1.88158  1.52816  0.64057  0.24724     0.01914  2991.23318   9542.01953   3.0051          2120.9363     20.93607  0.47951  59224.23342  0.03419  0.00071  5778409.89656  44.87899  17.54857  59270.38247    51.56008       44.89507   28.16604  35.38765   79.0    0.12738  -21.01873  0.99997 
   -3.09515  0.00104  2.17836     13.67397  1.65492  1.42359  0.88509  0.18141      0.0177  3099.22017   9925.63442  1.85926         2065.28838     20.98185  0.53282  59224.34549  0.05071  0.00092  3272771.83476  45.29644  17.55914  59269.35103    51.41786       44.71074   30.03099  40.31476   80.0    0.12165  -21.04735  0.99997 
    -3.4001  0.01532  2.14988     13.85063  1.66236  0.59003  0.56891  0.26829     0.01755  2897.68838   9962.89008  1.84197         2068.87422     20.97222  0.52113  59224.04054   0.0285  0.00871  1419381.01657  45.67264  17.55509  59269.35103    51.49876       44.83383   26.30786  36.34518   80.0     0.1264  -21.02372  0.99977 
   -3.75099   0.0011  2.41515     13.99897  1.94113  0.50667  0.74202  0.18439     0.01551  3077.48234   9999.29339  1.84049         2035.81743     20.99991  0.55545  59223.68965  0.04192  0.00081  1056393.92332  45.76719  17.56787  59270.30959    51.51883       44.84786   28.16604  36.73121   81.5     0.1132  -21.05425  0.99998 
   -3.70364  0.00267  2.19248     13.65079  1.78988  1.50639  0.79372  0.18318     0.01291  2968.41621   9797.48266  1.75199         2010.99966     20.97096  0.51962    59223.737  0.04172  0.00212  3989564.23024  45.23888  17.57417  59270.30959    51.52402        44.8664   26.30786  35.62375   79.5    0.12415  -21.03418  0.99995 
   -3.29467  0.00106  2.30548     13.72582  1.77725  0.96418  0.60105  0.25718     0.01866  2944.37592   9951.17294  2.22382         2036.20183     21.00188  0.55796  59224.14597  0.03108  0.00064    3100610.641  45.30162   17.5543  59270.94141    51.49411       44.81411   31.08577  36.15175   81.0    0.12432  -21.07393  0.99998 
   -3.67159  0.00174  2.41419     13.79205  2.00283  0.98103  0.85635  0.19618     0.01283  3046.77892   9923.72012  1.76551         2056.88234      20.9884  0.54091  59223.76904  0.04742  0.00149  2824239.59162  45.35405  17.55896  59267.46421    51.49498       44.83837   26.17692  35.75469   77.5    0.12494  -21.07546  0.99996 
   -3.04556  0.00109  2.30098     13.73989  1.58885  0.84492  0.96245  0.18152     0.01452  2947.49133    9943.6213   2.4876         2114.82502     20.98875  0.54135  59224.39508  0.04988  0.00105  2587919.79877  45.33315  17.57057  59270.94141    51.45917       44.77546   28.99091  37.23802   80.5      0.126  -21.05464  0.99997 
   -2.88658  0.00135  2.56599     13.79392  1.87293  1.01803  1.15315   0.1251      0.0117  2959.38696   9948.16105  2.15345         2113.18206     20.95925   0.5058  59224.55405  0.06024  0.00155  2958094.45704  45.25185  17.57654  59270.94141    51.40831       44.70045   30.61476  39.73099   82.0    0.12205   -21.0152  0.99995 
   -2.75687   0.0021  2.24229     13.67087  1.82011  1.46485  0.62545  0.22458      0.0168  2961.89161   9960.50164  1.68348         2108.74476     20.98245  0.53355  59224.68377  0.03273  0.00132   3868672.4189     45.24  17.55453  59269.35103    51.42466        44.7214   29.23258  39.93176   79.0    0.12656  -21.05077  0.99997 
   -4.77311   0.0064  2.18946     13.68515  1.56839  0.99147   0.5043   0.3215     0.02724  2904.45705   9965.26325  1.63433          2399.3813     20.99075  0.54385  59222.66752  0.02538  0.00323  2976060.21716  45.30998  17.55827  59270.30959     51.4733        44.7912   28.21961  37.38292   80.5    0.11764  -21.05354   0.9999 
   -3.20033  0.00153  2.00702     13.62955  1.42816  1.11581  0.50221   0.3262     0.03286  3059.02129   9856.11607   1.7545         2111.07171     20.96831  0.51646  59224.24031  0.02803  0.00077  2941631.29162  45.34993  17.55347  59270.30959    51.56717       44.92355   25.53431  34.59902   80.5    0.11776  -21.00115  0.99998 
    -3.2229  0.00207  2.06624     13.62157  1.54438  1.43657  0.71529   0.2052     0.02153   3133.2024   9802.78595  1.38839         2255.03492     20.97225  0.52116  59224.21774  0.04189  0.00148  3497743.45622  45.28345  17.56004  59269.35103    51.47553       44.79699   28.16604  36.73121   80.5    0.11218   -21.0245  0.99996 
   -3.90497   0.0059  1.75361     13.41863  1.31677   1.4248  0.67495  0.20791     0.01384  2968.97556   9915.14699  1.71076         2076.06354     20.98416  0.53566  59223.53566  0.03549  0.00398  5469407.67871  45.16255  17.57447  59269.35103    51.58956       44.95423   24.50344  32.82539   79.0    0.12585  -21.04763   0.9999 
   -3.61507  0.00273  1.88651      13.7241   1.5164  0.73606   0.6532  0.23243     0.01646  2953.29344   9971.03046  1.62985         2047.09365     20.98415  0.53564  59223.82556  0.03398  0.00178   1785458.0073  45.64659  17.56131  59270.30959    51.44852       44.75487   28.99091  38.63059   79.0     0.1212  -21.05043  0.99996 
   -3.20172   0.0012   1.8922     13.56516  1.33383  0.97378  0.50574  0.27606     0.02512  3070.17291    9923.3566  1.79041         2090.38698     20.96784  0.51591  59224.23891  0.02844  0.00061  3284963.73898  45.32348  17.57628  59268.87345    51.57122       44.92584   26.33272  34.59902   79.5    0.11399   -21.0197  0.99998 
    -3.3398  0.00435   2.3532     13.73177  1.87335  1.49559  0.81379  0.18018     0.01673  2988.46628   9968.37136  1.47772         2289.75258     20.98863   0.5412  59224.10083  0.04335  0.00354  3312859.88533  45.27795  17.55068  59270.38247    51.49613       44.82548   28.16604  36.73121   81.0    0.11661  -21.04662  0.99991 
   -3.18314   0.0012  2.35212     13.69657  1.59453   1.0157   1.4519  0.10485     0.01024  2980.44607   9830.44443  1.94643         2325.31189     20.98045   0.5311  59224.25749  0.07694  0.00175  3313106.30311  45.20832  17.56163  59270.38247    51.53562       44.89033   25.35671   34.4731   81.0    0.11782  -21.04342  0.99994 
   -3.11266  0.00281  2.51027     13.77277  2.10607  1.03635   0.5663  0.24807     0.01535  2902.79187   9989.46695  1.81223         2092.02843     20.98664  0.53872  59224.32798  0.02846  0.00159  3509131.55814  45.24768  17.55836  59270.38247    51.52828       44.86363   27.59109  36.44741   80.5    0.12356  -21.05035  0.99996 
   -2.72582  0.00117  2.26913     13.85228  1.75866  0.64076  0.87669  0.15821      0.0129  3029.94825   9897.65432  1.92444         2159.21171     21.01797  0.57902  59224.71482  0.04801  0.00103  1660192.99993  45.58215  17.54363  59270.94141    51.58277       44.92343   28.16604  35.28542   79.5    0.12689  -21.10932  0.99997 
   -3.59874  0.00104  1.89725     13.39454  1.48698  1.38789   0.7089  0.16897     0.01015  2988.16687   9978.73496  1.63217         2201.86966       20.988  0.54041  59223.84189  0.03776  0.00073  8077627.19788  44.97762  17.55303  59270.94141    51.46049       44.76783   30.61476  37.00674   80.5    0.12328  -21.05411  0.99998 
   -3.75107  0.00386  2.60923     13.77142  2.01092  1.15936  0.91242  0.20191     0.01357  2941.33109   9956.87831  2.49041          2060.4736     21.01366  0.57331  59223.68956  0.04709  0.00352  3642428.03583  45.17783  17.57707  59270.30959    51.42904       44.73817   28.65085  38.86792   80.0    0.12663  -21.09155   0.9999 
   -3.16126  0.00907  2.06039     13.55887  1.41528  1.35882  0.46203  0.32236     0.02946  3018.76487   9919.79596  1.90393         2052.51142      20.9184   0.4604  59224.27938  0.02512  0.00419  4254146.20091  45.16298  17.58238  59270.94141    51.48563       44.80938   28.19249  37.19183   81.0    0.11797   -20.9602  0.99987 
   -3.16162  0.00221  2.45475     13.69757  1.84639  1.33528  0.53918  0.24574     0.02116  2918.21142   9910.09873  1.76418           2225.317     20.96306  0.51026  59224.27901  0.02739  0.00119  4159256.79107  45.13614  17.55293  59270.30959    51.49922       44.81283   29.01802  38.01594   81.5    0.12046  -21.01755  0.99996 
   -3.58716   0.0021  2.06604     13.62904  1.55488  1.48664  0.85933  0.22161     0.01663  2953.09062   9994.39622  1.92217         2119.13587     20.98937  0.54212  59223.85347   0.0447   0.0018  3401834.76515  45.29855  17.55959  59270.94141     51.6212       44.97594   27.73674  34.17404   78.0    0.12275  -21.05851  0.99995 
   -3.16638  0.00278  2.27891     13.58828  1.61651  1.44327  0.56732  0.24516     0.02027  3055.63455   9863.13973  2.21089         2002.72634     20.93713  0.48068  59224.27426   0.0316  0.00158  5191385.29677  45.04669  17.55993  59270.30959    51.50135       44.82143   28.99091  37.19183   79.5    0.12254  -20.99563  0.99995 
   -3.45289  0.00267  2.38382     13.67608  2.00797  1.48809  0.70579  0.16524     0.01312   3045.3961    9865.1643  1.57214         2031.60803     20.97554  0.52513  59223.98774  0.03905  0.00189  4709341.47154  45.14409  17.57253  59270.30959    51.60809       44.96935   26.33272  33.55644   81.5    0.11098    -21.014  0.99995 
   -3.41978  0.01052  2.13906     13.66736  1.68901  1.09683  0.64608  0.18099      0.0166  2879.91445   9955.76235  1.45818         2344.45866     21.00005  0.55562  59224.02086  0.03197   0.0068   3320256.6387  45.31486    17.549  59270.94141    51.53023       44.85296   29.64936  35.73271   82.5    0.11676  -21.05368  0.99982 
   -2.94222  0.01375  2.23184     13.90339  1.62684  0.61938  0.69222  0.27003     0.01996  2849.91342   9862.88889  2.17781         2113.04165     20.95821  0.50458  59224.49842  0.03354  0.00952   1174098.5832  45.71316  17.57109  59270.30959    51.53371       44.87412   27.36762  35.28542   80.0    0.12156  -21.02393  0.99972 
