 log(Bfield)      Mns    Pspin  cutoff_power  cutoff_wavelength  fnickel    kappa  kappagamma  mejecta  log(nhhost)  temperature  texplosion  thetaPB      vejecta      A_V        MJD_0   log(KE)      M_Ni  Peak_mag     Peak_MJD 
    13.64747  1.25768  2.80696       3.29338         3394.22431  0.00732  0.26788     0.01111  1.99747     17.84014    3207.4342    -6.34332  0.90486   9720.15923  0.00038  58861.04224  52.38852   0.31782   18.4644     58895.25 
     14.0279   1.7339  4.06649       2.67449         3535.63444  0.01525  0.33015     0.02595  1.65825     19.49512   3600.12178     -5.5355  1.01075  10054.24887  0.01737  58861.85007  52.39007   0.62082  18.47696     58896.23 
    14.02785  1.75741  4.09427       3.12793         3256.24899  0.00996  0.14978     0.01023  3.19131     17.32749   3148.53708    -5.33463   1.0845   9447.08338  0.00012  58862.05094  52.42677   0.49962  18.47394     58896.25 
    14.41647  1.87563  4.59251       2.49214         3500.01715  0.00837  0.20769     0.02478     2.17     17.02736   3921.63894    -5.12225  0.52267   9455.01842    6e-05  58862.26332  52.37633   0.37325  18.46296     58896.25 
    14.03761  1.81914  4.32604       2.27106         3476.34146  0.04529  0.22897     0.02576  2.02463     18.24013   3295.26732    -4.53947  1.24976  11047.94689  0.00097   58862.8461  52.50169   1.97479  18.41115     58895.25 
     14.5192  2.11093  4.87336       1.90514         3631.68835  0.06086  0.16786     0.01905  2.86836     17.91605   3998.31881    -4.79548   0.4483  10410.73186  0.00046  58862.59009  52.49758   2.96031  18.45092     58895.25 
    13.72187  1.52156  3.49099       4.29601         3252.90957  0.00472  0.19363     0.01741  2.37177     18.97081   3988.94683    -5.64462  1.05414  11689.68222  0.00519  58861.74095  52.57295   0.21638   18.4741     58896.25 
     13.8264  1.70193  3.55206       2.15286         3542.38303  0.00435  0.30151     0.01381  2.06543     19.36189   6615.11953    -6.53548  1.41865  10160.33677  0.01278  58860.85009  52.43181   0.19092  18.44742     58896.23 
     14.2249  1.57197  3.86326       1.37064         3395.70086  0.19268   0.3244     0.08643  1.40765     18.58045    7086.0466    -2.78425  0.71657  12786.71952  0.00211  58864.60132  52.57285   7.38846  18.47094     58895.25 
    13.98652  1.81864  3.61854       1.71334         3815.63412  0.22119   0.3089     0.01045  2.10734     17.86395   5047.92069    -5.81352  0.88304   9991.73918  0.00041  58861.57205  52.42014   9.77244  18.42714     58896.25 
    14.27305  1.40437  3.66272       2.34208         3571.77772  0.00541  0.19163     0.02456  2.08653     17.51798   3877.58906    -4.48263  0.33509  10825.60827  0.00018  58862.90294  52.48835   0.23809  18.40152     58895.25 
    13.86371  1.60307  3.87168       3.20523         3212.96625  0.44399  0.17886     0.01252  2.71977     16.62084   4574.67135    -6.59245   1.2278  10331.26343    2e-05  58860.79312    52.484   21.2537  18.52131     58896.23 
    13.87391  1.47813  3.56018       2.17171         3672.28718  0.00168  0.17998     0.01214  2.42873     19.38531   3491.70902    -5.34992  1.39656   8669.26105  0.01349  58862.03565  52.31654   0.07777  18.42995     58895.25 
    14.07423   1.7554  4.20536        2.2467         3447.15853  0.05768  0.25278     0.02348  1.76214     17.34594   4594.65774    -4.56561  0.85932  10348.93906  0.00012  58862.81995  52.42444   2.39898  18.45432     58896.25 
    14.24054   1.8558  4.50869        2.4927         3362.83533  0.00498  0.13718     0.01839  2.98033     17.16877   3115.89978    -4.29797  0.59319  11309.42638    8e-05   58863.0876  52.57441   0.24503  18.46189     58895.25 
    14.09794  2.17072  4.65241       4.00439         3257.70092  0.41746  0.24949     0.01088  3.13759     18.25692   5716.83732    -5.93537  1.28507  10523.72022    0.001   58861.4502  52.51839  20.84676  18.43762     58896.25 
     13.9194  1.60661  4.09046       3.76445         3272.89617  0.02698  0.15936     0.01665   3.0068     18.31572   4443.46901    -4.65535  1.38633  10640.64846  0.00115  58862.73022  52.52259   1.33054  18.44787     58896.23 
    14.24243  1.87808  4.71538       1.71611         3555.82986  0.19137  0.06736     0.01031  8.66709      17.7458   4152.62857     -3.7367  1.17935  11749.11831  0.00031  58863.64887  52.72608  12.36865  18.47558     58896.23 
    14.06722  1.73962  4.59862       2.10121         3541.38836  0.43524  0.10171     0.01143  4.18404     18.84878   7318.84282    -3.81593  1.15514  10790.36722  0.00392  58863.56964  52.57489  23.54622  18.40822     58896.25 
    14.06366  1.78375  3.81049       2.66017         3269.18678  0.13898  0.19481     0.01093  2.84808     17.95357   8994.11993    -6.06624   0.6662  10905.48075   0.0005  58861.31933  52.53699   6.74556  18.49118    58897.729 
    13.98339  1.57985  4.08037       3.65464         3359.08346  0.00254  0.26248     0.03009  1.55005       16.971   7845.07642    -4.26292  1.02086  10071.09066    5e-05  58863.12265  52.38099    0.1009  18.45328     58895.25 
    14.17798  1.79277   4.0942        2.7735         3512.98279  0.38175  0.29001     0.01761  1.88801      19.2482   4978.94535    -3.87854  1.02612   8597.36793  0.00984  58863.50703  52.27368  16.25902  18.47953  58897.18403 
    14.05466  1.76166  4.21103       2.30302          3521.9081  0.01038  0.24885     0.02676  1.62914     16.32227   3758.77784    -3.87761  0.91451  10844.70097    1e-05  58863.50796  52.45307   0.41988  18.47143     58895.25 
    14.29627  1.70977  4.12983       1.75308         3793.44427  0.06154    0.088     0.01739  4.99754     19.09426   4141.23598    -2.85974  0.78406  10100.98393   0.0069  58864.52582   52.5377   3.48729  18.43858  58897.18403 
     13.9132  1.35688   3.4104       2.80001         3418.26469  0.05932  0.23076     0.01673  2.30358     18.27187   5027.69077    -4.23346  1.02259   9624.70169  0.00104  58863.15211  52.40011   2.69717  18.42585  58897.18403 
     13.9558  1.42433   3.3418       1.35083         3725.67215   0.0322  0.27088     0.02103    1.897     18.41975   3965.27578    -5.19072  0.90478  10224.23268  0.00146  58862.19484  52.42491   1.37354  18.44989  58897.18403 
    13.86533  1.30879  3.29814       2.16551         3731.40311  0.00182  0.24187     0.01838   1.5351     17.63449    9707.2502    -4.12787  0.88444   9156.27833  0.00024  58863.25769  52.29674   0.07193  18.41935     58895.25 
    14.07582  1.63053   3.9314       3.83867         3336.88107  0.00103  0.27676     0.01828  1.51178     19.50337   4879.81741    -5.31315  0.64933   8818.86953   0.0177  58862.07241   52.2617    0.0406  18.46472     58896.23 
    13.89367  1.55635   3.4556       1.21941         3725.29836  0.40824  0.17735     0.01506  1.95833     18.96417   7905.14119    -3.97423  0.82563  11071.29375  0.00512  58863.41134   52.4987  17.60341  18.40705     58895.25 
    13.95786  1.72115  3.76439       2.61938         3569.25923  0.02247   0.2843     0.01169  2.43612       19.516   5876.36232    -5.83657  1.52898   8885.75119  0.01823    58861.549  52.33838   1.03979  18.48195     58896.25 
    14.06206  1.81178  4.10626         1.768         3578.28931  0.00109  0.17449     0.01406  3.08844     16.83173   4280.47269    -4.99605  1.03878  10681.74151    4e-05  58862.38952  52.52934   0.05437  18.45045     58896.23 
    14.09711  1.93505  4.17853       1.21939         3334.94628  0.00162  0.19838     0.02415  2.29907     18.35518   3909.55484    -5.59838   0.7088  13001.10766  0.00126  58861.78719  52.66102   0.07366  18.43913     58895.25 
    14.16109  1.82178  4.00305       2.83511         3346.28438  0.04895  0.21705     0.01052  2.37717     19.65441    5949.5872    -5.46385  0.76186   8564.19004  0.02507  58861.92172  52.30303   2.24774  18.46697     58896.23 
    13.75454   1.5897  3.39287       3.98608         3286.96786  0.16816  0.26934     0.01025  1.89808      17.3703    3797.6217    -4.76065  1.21805   9751.37541  0.00013  58862.62492  52.38386   7.17486  18.47829  58897.18403 
    14.03423  1.95864  4.37364       2.47896         3470.78456  0.24675  0.31199     0.01763  1.76435     16.62709   3499.91218    -5.94218  1.03533     9857.111    2e-05  58861.44338  52.38234  10.26755  18.43676     58895.25 
    14.22868   1.6621  4.26987       3.22177         3344.41303  0.10393  0.20085     0.02747  2.46035     19.54697   6599.58927    -3.73929  0.79305   9902.05434  0.01957  58863.64627  52.43378   4.82439  18.45921     58895.25 
    14.09704   2.0417   4.6721       2.14136         3467.77587  0.06429      0.1     0.01134  3.76586     17.89096   3502.12513    -3.55374  0.92363  11332.76472  0.00043  58863.83183  52.60509   3.38032  18.49783  58897.18403 
    13.91262  1.40486  3.39062       2.17229         3522.76225  0.32719  0.28495     0.01742  1.73477     17.17061   5803.55312    -4.64188  0.81625  10072.98671    8e-05  58862.74368   52.3986   13.5349  18.46781     58896.23 
    14.05105   1.7767  4.32962       1.97246         3495.26327  0.00827  0.10271     0.01426  4.39116      17.8979   5452.48512    -4.45213   1.2954  10699.45792  0.00044  58862.93344  52.57311   0.45294  18.46343     58895.25 
    14.19325  1.94018  4.13398        1.7752         3647.17749   0.1848  0.23469     0.01168   2.5755     16.20065    5278.2874       -5.66  0.84601   9158.30665    1e-05  58861.72556  52.37211   8.70085  18.48728     58896.23 
    14.27064    1.996  4.77201       2.84617         3396.91236  0.00178  0.26321     0.03041  1.65459     17.74626   5347.66032    -4.19662   0.7325  10176.31613  0.00031  58863.18894  52.40021   0.07245  18.47071     58896.25 
    14.01077  1.56811  4.01822       3.23469         3432.47958  0.31197  0.16923     0.01291  2.75397     18.22865   6521.25913    -4.35206  1.03951   9397.96986  0.00094   58863.0335  52.40339  14.99018  18.50424     58896.23 
    13.81199  1.47589  3.28918        2.8533         3365.51599  0.01869  0.23234     0.01305   2.3672     19.00075   3861.98128    -5.58703  0.83465  10867.19055  0.00557  58861.79854  52.50931   0.85702  18.47534     58896.25 
    14.11857  1.66172  3.82438       3.63554         3364.56567  0.02868  0.20037     0.01001  2.83556     18.89115   3915.73354    -5.39217  0.65195    9278.1922  0.00432  58861.99339  52.39605   1.39039  18.41674     58896.23 
    13.82827  1.69867   3.5589       2.72465         3304.54627  0.23251  0.26405     0.01243   2.3793     18.46298   4330.03213    -4.75352  1.12251  11510.39146  0.00161  58862.63205  52.55996  10.68031  18.46977     58895.25 
    14.14132  2.18213  4.96418       2.48298         3325.13515   0.1893   0.2623     0.02339  1.85344     16.38145   5907.11203    -5.49331  1.19106  10235.17187    1e-05  58861.89226   52.4224   8.01178  18.43796     58896.23 
    14.08488   1.7939  3.91998       3.11798         3509.95727  0.07896  0.33317      0.0125  1.92322     17.65277   7568.35692    -4.36361  1.06438   8690.09183  0.00025  58863.02196  52.28571   3.38417  18.42086     58896.25 
    13.83046  1.54887  3.32389       2.47693         3346.26704  0.01445   0.3214     0.01417  1.97405     16.86233   4576.61435    -5.84337  1.13161  10384.28049    4e-05   58861.5422  52.44422   0.62476  18.42867     58896.23 
    13.95172  1.72244  4.05003       4.33537         3318.24426  0.05766  0.30019     0.01633  1.84072     16.08157   4519.48193    -5.40649  1.22105   9434.78153    1e-05  58861.97907  52.35065   2.43453  18.45921     58895.25 
    14.24063  2.10617  4.15728       1.83207         3865.29738  0.15319  0.25087      0.0136   2.1518     20.38335   6026.11468    -5.63248   0.7123   9283.40932   0.1343  58861.75309  52.35923   6.81429  18.44656  58897.18403 
    13.86583    1.439  3.80533       3.27229         3414.82321  0.00608  0.09985     0.01256  3.93129     16.53732   3460.99007    -3.93544   1.4633  10185.13549    2e-05  58863.45012  52.51746   0.32368  18.46089     58896.25 
    14.25342  1.90475  4.47672       2.25782          3656.4353   0.1342  0.24503     0.02207  1.98014     16.18703   3021.96062    -4.71306  0.66518  10257.02182    1e-05  58862.67251  52.43396   5.80804   18.4859     58895.25 
    14.25787  1.90569   4.4996       2.41876         3290.81271  0.02633  0.19331     0.04507   2.7104     19.25871   4314.84458    -3.24452   1.0756  11277.63442  0.01008  58864.14104  52.55967   1.25907  18.44907     58896.23 
    14.17283  1.71462  3.94914       2.43913         3464.25065  0.00794  0.19101     0.01374  3.23065     16.34142   8344.81833    -5.31522  0.56988  11259.08775    1e-05  58862.07035  52.58071   0.40009  18.47729     58895.25 
    14.39611  1.61169  4.04274       3.53229         3377.32964  0.01083  0.25482     0.02499  1.85981     19.29359   3585.61032    -4.94752  0.34814   10002.1464  0.01092  58862.43805  52.40291   0.45909  18.45548     58895.25 
    13.68604  1.51081  3.23825       2.11286          3490.3592  0.05682  0.30293     0.01509  1.63328     16.17631   3306.49275    -5.94881  1.40621  10096.71646    1e-05  58861.43675  52.39139   2.30082  18.42354     58896.23 
    14.03824  1.86059  4.51897       2.29656         3452.82643  0.36243  0.26131     0.02658   2.0637     18.47443    9019.8438    -5.69159  1.34033  10878.33008  0.00166  58861.69398    52.491  15.90264  18.44472  58897.18403 
    13.88892  1.19129   3.1612       2.00067          3340.4561  0.05503  0.08364      0.0151  6.04533     18.08818   5787.35967    -3.49971  1.27834  11289.53139  0.00068  58863.88586  52.65492   3.27005   18.4708     58896.25 
    14.01972  1.51023  3.78106        2.3621         3647.65706  0.00513  0.24172     0.02329  2.21647      16.2705   3577.88657    -4.91392  0.91511  10422.81112    1e-05  58862.47165  52.46395   0.23061   18.4562     58896.23 
    14.19942  1.90874  4.22209        3.2623         3361.80509  0.23517  0.26945      0.0128  2.31882     17.24515   5315.01421    -6.39146  0.62937   9634.97677   0.0001  58860.99411  52.40194  10.71503   18.4842     58896.25 
    14.02984  1.73391  4.32679       1.77369         3330.85409  0.00712  0.25413     0.05748  1.76539     18.19732   6585.54592    -3.34581  1.39128  13261.86532  0.00088  58864.03975  52.64014   0.29646  18.41768     58896.23 
    13.92311  1.71697  3.66008       2.79478         3376.87494  0.03474  0.31203     0.01108   1.9861     16.30948    5850.1717    -5.93121  1.18353   9126.95475    1e-05  58861.45436    52.333    1.5052  18.45387     58895.25 
    14.46214  1.87081  4.15816       1.56222         3806.67752  0.22823  0.24761     0.01986  1.60439     18.62927   3660.92939    -5.33827  0.30209   9969.16515  0.00237   58862.0473  52.37757   9.18335  18.48814     58896.25 
    14.09245  1.64783  3.75882       3.10903         3219.09176  0.01847  0.17832     0.01866  2.54976     17.22462   4256.12398    -5.04205  0.48582  12792.22235    9e-05  58862.34351  52.66103   0.86678   18.4831     58896.25 
    13.91875  1.59879  3.76055       2.47833         3372.55785   0.0041  0.23597     0.01448  2.04414     17.74697   3010.36919    -5.74275  1.28797   9022.18404  0.00031  58861.64282  52.32713   0.17933  18.44496     58896.23 
    14.43304  1.98353  4.66921       1.79123         3609.85203  0.03601      0.1     0.02082  4.72022     19.71396   6661.26104    -3.14385  0.61403  11430.63162  0.02875  58864.24172  52.63874   2.01085    18.447     58895.25 
    14.11384  1.70766  4.18618       2.86082         3544.01574  0.03687  0.27531     0.02312  1.64203     19.16878   4154.08494    -4.81549  0.89345   8848.37551  0.00819  58862.57008  52.27758   1.49602  18.44739     58896.23 
    14.13529   1.7666  4.37481       2.16554         3476.30955  0.03577  0.33418     0.06793  1.52048     18.91764   4019.80212    -3.17246  1.44451  11193.04396   0.0046  58864.21311  52.46968   1.41162  18.45091  58897.18403 
    13.90796  1.92857  4.10443       1.95622         3529.89074  0.48891  0.23698     0.01342  2.06813     16.69327   4614.25223    -5.39113  1.34381  10461.83194    3e-05  58861.99443  52.45739  21.46749  18.46788     58896.23 
    13.95131  1.74346  3.94381       1.75945         3982.13792  0.00195  0.22555     0.01259  1.87667     18.14311   4959.85036    -5.32908  1.21222   8530.81637  0.00077  58862.05649  52.26604   0.08301  18.48508     58896.25 
    13.82665  1.61765  3.60143       2.51921         3421.98477  0.00256  0.26468     0.01237  1.98464       18.348   4681.94798    -6.30695  1.40689    9463.6662  0.00124  58861.07861  52.36436   0.11102  18.48635     58896.25 
     14.3888  1.79079  4.01865       2.15327         3567.29917   0.0414  0.26144     0.02088   2.2849     19.76354   4925.13834    -3.79187  0.49233  10385.30768  0.03223   58863.5937  52.46505    1.8777   18.4543     58895.25 
    13.80121  1.45308  3.68217       3.54271         3394.55073  0.19491  0.19662     0.01514  2.45611     18.38966   3168.50798    -5.14316  1.49211  10227.85235  0.00136  58862.24241  52.46167   9.04282  18.45249     58896.23 
    14.06084  1.68003  4.08485       2.34027         3392.46993  0.26773  0.21655     0.02165  2.39134     16.94991   6428.51218    -4.91246  0.85052  11306.82104    5e-05  58862.47311  52.54515  12.31784  18.46814     58896.25 
    14.06911  1.74745  4.12666       2.33385         3444.41388  0.00472  0.31832     0.03325  1.62967     17.63907   3351.02971    -3.58226  1.50171  10471.04863  0.00024  58863.80331  52.42266   0.19105  18.44536     58896.25 
    14.10963  1.72205  4.01146       1.95972         3385.33186  0.02167  0.25571     0.02547   1.9612     17.85367   9682.09866    -5.47519  0.66514  11441.87885   0.0004  58861.91038  52.52751   0.93473  18.43921     58896.25 
    13.94971  1.26645  3.31701       1.88339         3579.77195  0.21545  0.33815     0.03983  1.09633     16.72754   7341.84031     -4.1207  0.60306   11000.3519    3e-05  58863.26487  52.39914   7.48244  18.43396     58895.25 
    14.21461  1.73335  3.97453       2.85172          3506.4456  0.20809  0.22107     0.01126  3.31265     17.93071   5157.20235    -4.23971  0.79042   9756.66918  0.00047  58863.14585  52.45943  10.55467  18.46851  58897.18403 
     13.9246  1.44124  3.58536       3.13277         3360.08967  0.04901   0.2093     0.01575  2.13451     17.91697   9305.21598      -5.007  0.84606   9803.56109  0.00046  58862.37857  52.40544   2.17438  18.40278     58895.25 
    13.87938  1.60007  3.56877       2.87671           3524.827  0.00287  0.29771     0.01243   2.4988     16.96919   5401.80488    -6.45334   1.3167   9776.55083    5e-05  58860.93223   52.4248   0.13404  18.46814     58895.25 
    13.79212  1.32024  3.33792       3.09407         3386.78029  0.13006  0.33766     0.02706  1.16826     19.89863    3067.9465    -5.04854  1.08009   9282.73785  0.04399  58862.33703  52.26303   4.63649  18.46723  58897.18403 
    14.03544  1.74281  4.03736        3.1007         3509.79052  0.00811   0.3321     0.02035  1.69287     19.31467   9520.65298    -4.54698  1.03621   9550.14615  0.01147  58862.83858  52.34857    0.3327  18.46559  58897.18403 
    13.81549  1.41467  3.51068       2.26404         3433.89463  0.01033  0.26114     0.02638  2.08949     18.62054   6255.37158     -4.3851  1.55263  11796.16042  0.00232  58863.00047  52.56313   0.45496  18.41209     58895.25 
    14.06718  1.83079  4.32483       2.26779         3448.65167  0.21052  0.23892     0.02373  2.03873      18.3939   5915.72277    -3.92259  1.54702  10156.01066  0.00138  58863.46297  52.42957   9.20007   18.4885     58896.23 
    13.93714  1.73001  4.11742       4.48703         3190.91198  0.14192  0.26645     0.02276  1.72328     18.82665   5180.25086    -4.43691  1.03864  11058.54088  0.00373  58862.94866  52.47866     5.857  18.41791     58894.23 
    14.12021  1.79761   4.0831       3.11557         3460.50637  0.00297  0.21451     0.01117  2.36655     17.40988   3105.81109    -5.36359  0.70728    9146.3742  0.00014  58862.02198  52.35954   0.13625   18.5076    58897.729 
