 texplosion  fnickel    Pspin  log(Bfield)      Mns  thetaPB  mejecta    kappa  kappagamma      vejecta  temperature    alpha  cutoff_wavelength  log(nhhost)      A_V         MJD0  kenergy  mnickel            TSD   log(L0)  Peak_mag     Peak_MJD  log(E_rad)  log(Peak_lum)  Rise_Time    E_fold  tau_1  delta_m15     r_peak     frac 
   -4.97651  0.00608   3.9006     13.82488   1.7831  1.15329   1.7932  0.21421     0.01825  10876.59702   4021.59417   3.0675          3441.3115     17.39266  0.00014  58862.40906  1.26544  0.01091  5642770.81653  44.58627  18.43741     58895.25    50.88923       44.35759   23.75045  25.88626   31.0    0.50352  -21.67112  0.99912 
   -5.26789  0.00248  2.93145     13.75008  1.34364   0.9312  1.93304   0.2989     0.01269  10355.14637   3087.41311  2.72027         3454.91594      17.8232  0.00037  58862.11767  1.23646  0.00479  3389306.46857  44.93285  18.49478     58895.25    50.92191       44.38767   19.76313  26.34276   29.5    0.47611  -21.64585  0.99967 
   -4.52511  0.00145    4.606     14.20389  1.86583  1.00186  2.15026  0.23783     0.04254  11179.52986   4778.22989   3.0175         3468.57929     16.64719    2e-05  58862.86046  1.60312  0.00312  1437303.48887  45.05552  18.45586     58896.23    50.87233       44.32221   24.53539   26.1811   30.0    0.41998  -21.63882  0.99968 
   -5.66807  0.08814  3.79825     14.12728  1.55566  0.56717  3.11228  0.16172     0.01469  10797.93775   4335.41769  3.78313         3282.87512     19.79196  0.03441   58861.7175  2.16465  0.27431   1159650.8164  45.23727  18.42825     58896.23    50.88115       44.34446   25.27227  25.44421   30.0    0.46295  -21.67727  0.97539 
   -4.96163  0.00602  4.56133     14.16158   1.8933    0.814  1.78706  0.23535     0.02365   9879.34813   4150.04902  3.00669         3528.75056     19.14909  0.00783  58862.42394  1.04045  0.01077  1738068.15769  44.98782  18.48066     58896.25    50.90343       44.36908   24.48733  25.14938   29.5    0.47863  -21.62776  0.99894 
    -6.0226  0.00119  4.05839     14.22759  1.83126  0.46371  1.59888  0.24655     0.01558   9162.74577   3146.70562  2.51673         3723.49822     17.83287  0.00038  58861.36297  0.80075  0.00191   981954.11345   45.3228  18.48142     58896.25    50.86082       44.30513   22.96698  26.84742   30.0    0.46468  -21.62557  0.99984 
   -5.57819  0.10866  3.99318     13.88627  1.69868  0.92591  2.89453   0.1135     0.01449  11072.52849   4544.70936  3.21439         3361.11741     19.26867  0.01031  58861.80738  2.11689  0.31451  4246526.36539  44.66829  18.47032     58896.23    50.90555       44.36829   24.48733  25.14938   31.5    0.48937   -21.6716  0.97217 
   -4.71111  0.48427  4.98365     14.24284  2.02279  0.93498  3.52652  0.16322     0.01545  10998.45438   4622.13787  3.31407          3479.0316     18.66953   0.0026  58862.67445   2.5447  1.70778  1524694.96184  44.99652  18.45464  58897.17549    50.87884       44.32175   25.35824  26.76145   29.5    0.46968   -21.6789  0.84706 
   -5.02957  0.01251  4.36266     14.00904   2.0207  0.93014  3.19281  0.14357     0.01351  11883.45534   4898.02162  2.57901         3450.50979     18.57982  0.00211    58862.356  2.68959  0.03995  3425562.34202  44.76011  18.48336  58897.17549    50.90264        44.3551   24.53539   26.1811   30.0    0.49369  -21.68593  0.99669 
   -5.18768  0.03765  3.64277      13.9555   1.6398  0.76176  2.49054  0.17264     0.01365  11009.95065   3556.99506  2.26977         3514.15557     18.16172  0.00081  58862.19788  1.80091  0.09377  2480154.95171  44.96629  18.43237  58897.17549    50.92594       44.39833   23.75045  24.66075   29.5    0.49755  -21.67414  0.99265 
   -4.54809  0.01139  3.84313     14.32407  1.52391  0.39582  2.15727  0.20983     0.02545  10785.37061   3649.19454  2.49581         3605.97905     17.59875  0.00022  58862.83748  1.49693  0.02457   469894.58367  45.61043  18.46688  58897.17549    50.88056       44.32724   25.35824  26.76145   29.0    0.46685  -21.66577  0.99764 
   -5.44449  0.00481  4.23624      14.0444  1.80469  0.94326  2.56564  0.19303     0.01777  10820.42126   5115.13061  3.06391         3402.48972     17.67097  0.00026  58861.94107  1.79189  0.01234  2451134.53943  44.88192  18.47572     58898.23    50.88306       44.33141   25.35824  26.76145   29.5    0.47429  -21.65413  0.99887 
   -3.77679  0.19779  4.75821     14.12625  1.89316  1.21414  3.95414  0.11346     0.01572  11069.61172   3417.20637  3.34073         3375.85265      18.7042  0.00281  58863.60878   2.8903   0.7821  2225347.83645  44.84375  18.43202     58896.23    50.93006       44.41027   23.47812  24.93307   29.5    0.47867  -21.66984  0.92309 
   -3.56805   0.1269  4.27079     14.04217  1.68373  1.33638  1.26633  0.28928     0.04081   9642.52019   5157.72559  2.58446         3659.80408     16.64021    2e-05  58863.81752  0.70235  0.16069  2348309.59809  44.86334  18.45979     58896.25    50.91838       44.37928   23.75045  25.88626   30.0    0.46966  -21.62998  0.98385 
   -4.00376   0.0085  4.36069     14.04866  1.72879  1.01216  1.67099  0.27469      0.0488  12443.92257   4108.85472  3.35872         3324.42641     18.04965  0.00062   58863.3818  1.54353   0.0142  2439772.64534  44.84013  18.47532  58897.17549    50.86724       44.31135   25.35824  26.76145   29.5    0.47693  -21.70716  0.99854 
   -5.77755  0.05979  3.73545     13.82584  1.52685  1.53269  2.19245  0.30493     0.02484  12089.83328   4365.36812  4.85086         3165.17587     17.47445  0.00017  58861.60802  1.91161  0.13108  4411708.52179  44.66335  18.46221     58896.23    50.87389       44.31867   24.48733  26.22916   30.0    0.47303   -21.6639  0.98812 
    -5.7493  0.01313  4.67084      14.1316  1.93519  1.14778  2.21943  0.22646     0.03676  11306.63647   3043.39973  2.53072         3478.78319     19.03483  0.00602  58861.63627  1.69253  0.02915  2138591.01533  44.88665  18.44017     58895.25    50.91398       44.37372   23.05295  25.35824   31.0    0.41574    -21.635  0.99711 
   -3.86369  0.03783  4.67652     14.14302   1.8116  1.03514  3.12284  0.14909     0.02698  11441.21781   3411.20831  3.64757         3325.43947      16.2699    1e-05  58863.52187  2.43849  0.11813  1904106.29094  44.90737  18.49403    58897.729    50.91344       44.35006   25.27227  26.84742   30.5    0.44937  -21.63272  0.98718 
   -4.43902  0.01532  3.51245     13.77139  1.38219  1.32133  2.66515  0.14717     0.01686  10809.80002   4943.60696  2.34726         3764.70536     16.14704    1e-05  58862.94655  1.85774  0.04084  4537516.93689  44.66138  18.49617     58896.25    50.87518       44.31619   24.53539   26.1811   29.5    0.48983  -21.69983  0.99617 
   -7.12977  0.01141  4.36909     14.35192  1.90486  0.47303  2.31181  0.22752     0.02307  10857.50652   4310.95376  1.87985         3705.70617     17.24864   0.0001   58860.2558   1.6257  0.02639   667748.46124  45.44331  18.51134    58897.729    50.87496       44.31607   22.96698  26.84742   30.5    0.45885  -21.62212  0.99764 
   -4.50807  0.00204  4.28156     14.09082   1.7788  1.02233  2.70743  0.13329     0.01893  10269.41715   3936.68423  2.18457         3499.89446     17.57666  0.00021   58862.8775  1.70324  0.00554  1992974.57071  44.95627  18.49688  58897.17549    50.88915       44.33782   22.18204  26.22916   30.0    0.48239  -21.61066  0.99948 
   -4.67192   0.1503  4.82408     14.22746  2.07304  0.83003  1.62959  0.31287     0.03694  11263.43184   3279.30374  2.36474         3656.11156     19.12481  0.00741  58862.71365  1.23324  0.24493  1571535.59842   45.0223  18.46083     58895.25    50.91563        44.3806   23.05295  25.35824   29.5    0.47162  -21.68351  0.97704 
   -6.24442  0.01545  4.42321      14.3882  2.09023  0.47563  3.13068  0.17557     0.01356  10976.36255   5692.07382  1.80979         3781.73791     19.08735  0.00679  58861.14115     2.25  0.04836    635455.7556  45.49448   18.4839     58896.25    50.88441       44.34131   24.48733  25.14938   29.0     0.4832  -21.68516  0.99616 
   -3.21178  0.02905  4.04927     14.30243   1.7193  0.83658  3.28612  0.18855     0.03669   10697.7479   4723.01811  3.10004         3633.20928     19.73771  0.03037  58864.17378  2.24334  0.09547   650208.77311  45.47639  18.47161     58895.25    50.93071       44.40991   19.76313  24.23092   31.0    0.37879  -21.64665  0.99166 
   -5.50486  0.06903  4.65371     14.22461  1.94369  0.59653  2.68186  0.13519     0.02008  11072.52427   3737.36028  2.48388         3528.88221     16.91461    5e-05  58861.88071  1.96136  0.18512   1389401.2692  45.07905  18.42295     58896.23    50.91556       44.39434   21.44515  24.66075   31.0    0.46037  -21.64647  0.98191 
   -4.93479  0.00284  4.06289     14.24535  1.58237  0.56105  2.46363  0.15746      0.0241   9834.04479   3282.47067  2.53712         3664.18902     18.73036  0.00299  58862.45077  1.42124  0.00699    783613.2226  45.35638  18.47073     58896.25    50.88093       44.33537   22.18204  26.22916   31.0    0.44876   -21.6268  0.99929 
   -6.03616  0.01967  3.90629     14.40944  1.72849  0.33578  4.25811  0.14917     0.01072   11068.3301   4739.52607  2.56983         3502.08772     19.11611  0.00726  58861.34941  3.11177  0.08374     371655.672  45.75284  18.44013     58896.23    50.88289       44.34246   24.53539   26.1811   29.5    0.45012  -21.66614  0.99311 
   -5.63679  0.05733  4.17722     14.36501  1.83835  0.39241  2.01799  0.24098     0.01827  10131.66655    3214.3013  2.50182         3603.77685     17.83564  0.00038  58861.74878  1.23568  0.11569   554616.31057  45.54751  18.47372     58896.23     50.9516       44.43754   22.06843  24.23092   30.0    0.45413  -21.64585  0.99007 
   -5.25608  0.01563  4.20539     14.08309  1.79878  0.83739  3.19551  0.16119     0.01526    11238.317   4286.51974  3.09176         3363.69915     17.70913  0.00028  58862.12949  2.40752  0.04993  2014799.38512  44.97198   18.4211     58896.23    50.89047       44.35817   22.18204  25.14938   29.5    0.47653   -21.6736  0.99549 
   -3.85285  0.01748  3.98183     14.44511  1.50532  0.33422  2.29522  0.16537     0.02789  10242.07183   3975.55618  2.61408         3646.22913     18.55557    0.002  58863.53271  1.43624  0.04013   285358.46259  45.79092  18.44999     58896.25    50.91455       44.38428   21.44515  24.66075   30.0     0.4624  -21.63709   0.9958 
   -5.39971  0.02225  4.02469     14.06863  1.71182  0.70266  2.16029  0.23268     0.01847    10665.812   3299.93544  3.26876         3457.47225     18.07469  0.00066  58861.98586  1.46597  0.04806  1877047.81502  45.01936  18.48795     58896.25    50.89216       44.35022   24.48733  25.14938   30.0    0.46645  -21.66013   0.9957 
    -6.1006  0.00516  3.08311     13.78081  1.30757  0.68086  1.40781  0.28254     0.02842  11479.70994   4181.78457  2.68434         3497.46683     16.82247    4e-05  58861.28497  1.10671  0.00727  3166968.60503  44.90669  18.45209    58897.729    50.90642       44.35386   24.53539   26.1811   31.5    0.46919  -21.69707  0.99942 
   -3.48632  0.00798  4.27515     14.25466  1.70227  0.77976  4.53831  0.11036     0.01784   10316.1379   3122.77139  3.48717         3458.67849     19.57793  0.02102  58863.89925  2.88108  0.03622   894198.76669  45.28654  18.47644     58895.25    50.87277       44.34345   21.17283  24.93307   30.5    0.41025  -21.62486  0.99639 
   -4.90689  0.09423  4.51814     13.97404  2.14123  1.24078  1.73941   0.2677     0.01894  10932.54858    4156.0389  4.10116         3294.19243     17.88229  0.00042  58862.47868  1.24014   0.1639   4574157.3739  44.62928  18.44357     58896.23    50.90531       44.36449   24.48733  25.14938   29.5    0.49731  -21.69937  0.98677 
   -6.25336  0.17702  4.45361     14.00048  2.03769   1.3344  2.63907  0.20238     0.01553  11182.60667   3381.91251  1.90907          3658.7343      19.0343  0.00601   58861.1322  1.96863  0.46717  3744776.05485  44.70713  18.48011     58896.25    50.93198       44.37631   22.96698  26.84742   29.5    0.46859  -21.63461  0.96195 
   -2.57981  0.01222  3.94172     14.26075  1.55392  0.71919  1.47324  0.30572     0.07728  10911.13221   5027.95169  2.73635         3507.65104     19.65852  0.02531  58864.80576  1.04626  0.01801   674707.56137  45.43979  18.45252     58896.23    50.90894       44.39017   23.48613  24.92506   30.5    0.43945  -21.62485  0.99825 
   -5.28569  0.02724  3.60095     13.72239  1.61228  1.44099   1.5593   0.2534     0.02374  11356.56753   3404.73385  3.01495         3303.73552     18.60039  0.00221  58862.09988  1.19964  0.04248   6971117.3573  44.52015  18.48158  58897.17549    50.88529       44.32234   25.27227  26.84742   31.5    0.49676  -21.66025   0.9966 
   -5.43128  0.00181  3.67802     13.85328  1.63962  0.97274  1.39288  0.33689     0.02437  10963.90068   3570.89373  2.62087         3529.59026     17.92718  0.00047  58861.95429  0.99878  0.00253  4047901.65348  44.74513  18.49185     58896.23    50.89302       44.35518   23.75045  25.88626   30.0    0.49328  -21.65073   0.9998 
   -4.14378  0.07192  4.05514     14.09348   1.5994  1.03498  3.54326  0.13979     0.02254  11130.73823   4462.05137  2.39656         3572.87993     18.96608  0.00514  58863.24178  2.61865  0.25482  1587931.99232  45.05596  18.47223     58895.25    50.92873       44.39567   19.76313  26.34276   29.5    0.43292  -21.63426  0.97535 
   -4.56326  0.00504  4.45422     14.12427  1.77065  0.96085  1.26295  0.33402     0.06697   11568.2749   3130.55918   2.3639         3599.68154     18.20746   0.0009  58862.82231  1.00821  0.00636  1840526.75913  44.95449  18.48255     58896.25     50.8707       44.32573   24.53539   26.1811   30.5    0.46147  -21.66696  0.99934 
   -5.29193   0.0029  3.89695     13.81183  1.61137  1.38533  2.48716  0.16879     0.01758  11142.16513   4281.80873  4.03351         3258.60356     18.31068  0.00114  58862.09363  1.84192   0.0072  5405145.87987  44.56178  18.46322     58896.25    50.87749       44.31736   25.27227  26.84742   30.0    0.49698  -21.66378  0.99933 
    -6.2254   0.0407  3.99411     13.81411  1.75814  1.50413  3.52108  0.11679     0.01029  10530.02448    4182.9406  2.93484         3496.25354     18.83912  0.00384  58861.16017  2.32896  0.14329  6130335.94574  44.52357  18.48738  58897.17549    50.93632       44.39865   22.94148  25.46972   31.5    0.45732  -21.64869  0.98779 
   -5.22325  0.04162  4.14638     13.95136  1.89159  1.04708  1.99905  0.20768     0.02016  11559.99842   3563.04175  2.66763         3344.28374     17.12186    7e-05  58862.16231  1.59355   0.0832  3778053.83509  44.73307  18.46792     58896.23    50.89008       44.34076   24.48733  26.22916   30.0    0.49366  -21.68783  0.99317 
   -5.94655  0.00671   4.1242     14.19084  1.85782  0.54232  2.91183  0.17641     0.01059   9982.70755   4902.12201  3.70381         3459.47364     19.15404  0.00792  58861.43902  1.73097  0.01954  1218464.46128  45.22136  18.43839     58895.25    50.90105       44.37263   21.44515  24.66075   30.0    0.46433  -21.66843  0.99837 
   -4.53284  0.09503  4.51855      14.0167  1.80848  1.02582  1.79778  0.20275     0.03232  11567.89188   4622.51526  3.85196         3273.53515     16.18077    1e-05  58862.85272  1.43507  0.17084  3174900.55565  44.71443  18.45525     58896.23    50.89222       44.34781   24.48733  26.22916   30.0    0.50061  -21.68393  0.98248 
   -4.74468  0.00317  4.13895     13.89497  1.61202   1.0559  1.24729  0.31882     0.05098  11989.07307   3208.69477  3.66991         3376.21802     16.13107    1e-05  58862.64088  1.06946  0.00396  4159432.35823   44.6234  18.45844     58896.25    50.86924       44.32291   25.27227  25.44421   30.5    0.47116  -21.67076  0.99959 
   -4.71063   0.1108  3.93125     14.19501  1.71993  0.63879  1.59515  0.33588     0.01577   8467.06029   3496.31904  3.32006          3674.6032     18.41168  0.00143  58862.67494  0.68217  0.17674  1005449.14474  45.31294   18.4572     58896.23    50.88044        44.3379   22.23009   26.1811   29.5    0.45778  -21.64697  0.98536 
   -4.71163  0.12138  4.29427      14.1062  1.77053  0.82429  4.05896  0.11767     0.01417  11545.13324   3202.70434  2.42958         3464.78437     18.03208   0.0006  58862.67393   3.2273  0.49267  1859066.85293  44.98188  18.47208     58896.25     50.9136       44.36427   21.44515  26.96604   30.0    0.47798  -21.66399  0.95458 
   -3.61481  0.46962  5.00486     14.27591  2.00302  0.93472  3.19381  0.15696     0.01835  10956.20231   3482.90891  3.07651         3468.78108     19.13748  0.00762  58863.77076  2.28695  1.49988  1307583.89887  45.05528  18.47763     58896.23    50.92538       44.39298   23.47812  24.93307   29.0    0.48566  -21.66228  0.86072 
   -5.65407  0.04288  4.44045     14.14845  1.97718   0.9494  2.18619  0.21765     0.02488  10722.37999   5009.94078  2.09283         3657.44526     19.91262  0.04543   58861.7315  1.49933  0.09374  1827342.15954  45.00822  18.44356     58896.23    50.88799       44.35064   24.53539  25.10132   29.5    0.45734   -21.6918   0.9919 
   -3.49573  0.00226   4.6893     14.00635  1.86437  1.28244  1.82364  0.17238     0.03104  11122.91499   5042.42619  3.51695         3352.92304     18.82615  0.00372  58863.88983  1.34587  0.00413   3697190.1742  44.62929  18.44371     58896.25    50.88937       44.34738   24.53539   26.1811   30.5    0.48856  -21.66971  0.99956 
   -6.71321  0.15292  3.98799     14.05336  1.66877  0.78839  4.05993  0.12219      0.0119  10874.35046   3222.92491  2.15759         3580.71545     18.86233  0.00405  58860.67235  2.86386  0.62085  1927567.43807  45.00472  18.44315     58896.23    50.90267       44.38207   21.44515  24.66075   30.5    0.45185  -21.64496   0.9464 
   -3.01416   0.0051  4.21783     14.19072  1.79021  1.13576  2.58174  0.19444     0.04705  11795.88689   3238.14689   2.8893          3336.9192     19.74576  0.03094  58864.37141  2.14289  0.01318   1228751.5705  45.18211  18.47928     58895.25     50.8967       44.33816   21.44515  26.96604   30.5    0.43652  -21.68475  0.99881 
   -6.78581   0.0082  3.71491     13.95873  1.70918  0.77106  2.58679  0.18969     0.01571  11529.32543   3098.89237  2.18626         3494.70892     16.01709    1e-05  58860.59976  2.05115  0.02121  2648797.74615  44.93869   18.4541     58896.23    50.90403       44.37051   23.75045  25.88626   30.5    0.46561  -21.67917  0.99836 
   -4.85439   0.0469  3.33163     14.13781  1.23547  0.38658   2.1282  0.19758      0.0224  10750.92833   3897.68817  3.90719         3369.61512     18.90517  0.00447  58862.53118  1.46734  0.09981   675067.08945  45.48602  18.50006     58896.25    50.92735       44.38648   23.47812  26.15859   29.5    0.49593  -21.68392   0.9901 
   -6.07149  0.00959  2.97178     13.76021  1.49745  1.08003  2.50047  0.32411     0.01317   12597.8858   5061.23963  2.03187         3428.59128     16.16758    1e-05  58861.31407  2.36725  0.02399  3704900.07436  44.92939  18.51164  58897.17549    50.86331       44.30916   22.23009   26.1811   29.5    0.45482  -21.69295  0.99857 
   -4.81827  0.07939  4.50183     13.98114  1.87059  1.51927  1.53045   0.2569     0.03116  10765.05234   3860.18601  3.44919         3361.98072     19.35543  0.01259   58862.5673  1.05798   0.1215  3839643.58485  44.64976   18.4409     58895.25    50.88266       44.34103   24.48733  25.14938   30.0    0.50435  -21.67972  0.98822 
   -4.21811  0.02959  3.87018     13.99378   1.5356  1.27052  4.06265   0.0986     0.01797    10830.272    3966.0099  2.26161         3453.99934     19.02722  0.00591  58863.16746   2.8426  0.12021   2197893.0884  44.93766  18.49025     58896.25    50.88215       44.33731   24.48733  25.14938   30.5    0.45319  -21.62596  0.98857 
   -6.65892   0.0066  3.33147     13.78685  1.25083  1.04335  1.94268  0.27963      0.0268  10713.79566   4911.38573  3.80208         3313.18808      18.1255  0.00074  58860.72665  1.33019  0.01282   3440168.8244  44.78419  18.44049     58896.23     50.9448       44.43259   23.47812  22.82123   30.5    0.45027   -21.6053  0.99874 
