 log(Bfield)      Mns     Pspin  cutoff_power  cutoff_wavelength  fnickel    kappa  kappagamma   mejecta  log(nhhost)  temperature  texplosion  thetaPB      vejecta      A_V        MJD_0   log(KE)      M_Ni  Peak_mag     Peak_MJD 
    13.52959  1.32905   6.17046       3.96876          3481.2158  0.22407  0.12427     0.02123  28.17773     18.48125   5548.22562   -91.22812  1.50698   9533.59272  0.00168  51201.17188  52.64627  18.30213  17.21229  51286.13434 
    13.78565  1.44926   7.28257       1.05798         2825.00373  0.17387  0.11628     0.01793  92.07612      16.1206   8629.82371  -105.44108  0.42793    6684.1252    1e-05  51186.95892   52.4205  17.17936   17.1001   51288.6406 
    12.80548  1.33962  10.43804        3.7072         5537.64061  0.31866  0.18379     0.37028  54.18765      17.7963   7511.83476   -68.02785  0.84692  17511.63167  0.00035  51224.37215  53.22198  29.04205  17.10091  51301.17193 
    13.47576  1.81818   5.21919       1.64754         4948.90939  0.20736  0.16077     0.01847  90.09587      18.7514   8310.52336  -116.57412  0.95722  21605.40877  0.00313  51175.82588  53.43815  20.42298  17.04151  51278.61554 
    13.50252   1.7014   14.1894       0.92181         2558.08227  0.42661  0.28311     0.01089  60.64713     19.45486   6906.05159    -85.5901  1.18335   11052.5354  0.01583   51206.8099  52.82995  39.57578  17.32785  51323.72832 
    13.41856  1.35299  17.57614       3.53592         3785.33107  0.48008  0.26999     0.08936  29.31171     17.42513   9987.95878  -108.38738  1.10006  10360.99334  0.00015  51184.01262  52.72158  39.48805   16.7836  51306.18446 
    13.19595  1.77508  19.30832       0.14451         2087.34384  0.10888  0.02751     0.40154  70.27911     18.97666   3978.14206   -71.37097  0.92536   9804.46863  0.00526  51221.02903  52.73574   10.3325  16.80489  51321.22206 
     12.9234  1.97688  10.10166       2.80065         3079.97353  0.44927  0.29215     0.01787  70.99282     17.48141    4156.9241  -128.71841  0.12524  20757.60027  0.00017  51163.68159  53.38791   42.7012  16.67086  51261.07168 
    13.93723  1.59851  10.39483       4.78575          4370.1846  0.20777  0.11556     0.20827  94.60271     16.76664   3473.40915  -146.62417  0.68517   7269.04281    3e-05  51145.77583  52.49508  20.61034  16.44108  51328.74085 
    13.94661  1.90489   2.78839       3.11915         5731.78426  0.24357  0.16732     0.02568  16.38152     19.38539   9008.23553   -32.78751  0.13986  23344.78672  0.01349  51259.61249  53.38029  17.98459  16.28231  51381.37243 
    13.96696  1.91832  21.45587        0.4274         2702.46666  0.16407  0.02522     0.01473    50.194     18.52273   5720.75813   -83.47387  1.49504  11365.53999  0.00185  51208.92613   52.8412  14.77181  16.76349  51241.02155 
    13.74816  1.33974  12.17965       0.98744          2783.5562  0.22615  0.04042     0.02395  27.69692     16.48454   8213.59749   -89.64539  1.42284    3522.4787    2e-05  51202.75461  51.78012  18.41579  17.24288  51316.20952 
    13.69914  1.58166  10.95144       2.93208         3332.42697  0.45658  0.18897     0.17593  56.35978     16.04255   6799.03393  -173.04068  0.39009    2550.6775    1e-05  51119.35932  51.55134  41.87173  16.90564  51353.80351 
    14.62067  1.76779  29.33072       3.48524         2433.31342  0.28394  0.03183     0.25146  43.66518     16.44512   7487.80942  -145.11081  0.69259   1611.09623    2e-05  51147.28919  51.13443  24.99175  17.16145   51281.1218 
    12.84902  1.49623   7.87034       2.94829         2934.11014  0.45323  0.01761     0.10805  93.55216     20.76948   9841.25512   -71.46082  1.26486   1069.25336  0.32674  51220.93918  50.82958  44.88646  17.20569      51292.4 
    13.69435  1.55379   25.9285       1.50289         3841.21462  0.43009  0.11844     0.01463  42.47755     19.82201   3050.04587    -61.4061  0.59353    6412.5541  0.03688   51230.9939  52.33228  37.68379  16.83666  51213.45263 
    14.23995   1.6348   8.67975       0.52549         5811.04874  0.41886  0.14979     0.08144  46.05015     20.29998   7074.96642  -102.96568  0.58133   3685.61422  0.11084  51189.43432  51.85699   37.1889  17.02948  51268.59048 
    13.51758  1.56739  24.53273       4.42816         2656.58001  0.32695  0.27031      0.1491  74.91117      20.3663   9013.88518   -94.76643  1.28021  18845.39121  0.12913  51197.63357   53.3075  31.32897   16.9265  51241.02155 
    13.69568  1.53578  28.25895       4.09761         5931.51952  0.32215   0.0527     0.01595  98.59234     20.34059   7480.80528   -70.19672  0.54802   3016.98134  0.12171  51222.20328  51.73388  32.14846  16.64909  51251.04662 
    14.28253  1.56171  24.68631       3.79489         5615.28351  0.27279  0.06392     0.02378  69.54152     19.06756   9293.05248   -108.7141  1.02512   2401.81719  0.00649   51183.6859  51.51327  25.84559  16.41078  51228.49023 
     13.6085  1.60228  29.14013       0.94757         4710.04125  0.41033  0.22367     0.30302  24.14113     18.79688   4813.48704   -42.11746  0.42316  20915.95552  0.00348  51250.28254  53.31665  32.59932  17.22162  51358.81604 
    12.70663  1.59503  18.70941       0.24472         2297.11961  0.28955  0.14246      0.1526  40.42535     16.82002   9229.54311   -65.68163  0.42626  32775.30501    4e-05  51226.71837  53.74575  25.16235  16.81163  51301.17193 
    13.49889   1.7464   14.3223       1.58774         4432.15654  0.29865  0.23903     0.09782  75.36083     17.29551   8633.93346  -151.29501  0.49032  11814.48294  0.00011  51141.10499  52.90232  28.64326  16.08392  51195.90877 
    12.77147  1.70388  12.08189       2.11331         4259.07517  0.38192  0.08444     0.13363  40.34006     17.76784   7173.81136   -136.5162  0.38965   1693.09368  0.00033   51155.8838  51.17186  33.17807   17.2852  51313.70326 
    14.27282  1.68901  27.07672       3.83032         2226.84533  0.44277  0.30532     0.35741  73.60663      17.9447   8223.97933  -171.99641  0.59269  28108.21566  0.00049  51120.40359  53.65361  42.31489  17.04945  51283.62807 
      13.537  1.79392  19.33362       1.90447         4374.65544  0.30123  0.04614     0.33712  45.96466     18.37663   4584.43621  -168.78625  0.29612    5889.5259  0.00132  51123.61375    52.264  26.73698  16.60495  51338.76591 
    12.63457  1.85171  18.06069       0.64189         3580.68187  0.46471  0.24184     0.04665  57.71419     19.22977   5903.11602   -54.90799  1.08977  12697.05447  0.00943  51237.49201  52.94706  42.77709  17.24493  51313.70326 
    14.50512  1.50266  21.18062       0.48769         4015.39365  0.25693  0.07865     0.05305  58.79781     16.97831   4437.65485  -134.57875  0.39336   3137.13393    5e-05  51157.82125  51.73399  23.72002  17.05681  51273.60301 
    13.81962  1.62672  21.38334       3.84804         3422.27936  0.15916   0.0795     0.21693   57.2661     19.17326   7404.03998   -53.10299  1.13686  17881.40997  0.00828  51239.29701  53.24393  14.63322  16.92638  51308.69073 
    13.10252  1.70244   3.47407       4.25921         2553.09304  0.43004  0.20813      0.2705  24.02166      18.5549   4920.72977   -67.72704  0.29264  12704.85391  0.00199  51224.67296  52.88325  34.13366    16.649  51241.02155 
    13.17098   1.5928   15.7888       0.69856         2413.27215  0.27148   0.1048     0.01368   68.4769     17.71202   6259.63419   -73.86754  0.86227   6619.76475  0.00029  51218.53246  52.39285  25.66143  17.02406  51331.24712 
    14.47457  1.27892   9.37959       1.31067         3498.59563  0.42141  0.10275     0.31648  39.41569     17.19717   9449.54276  -100.72781  1.04688   3008.41015    9e-05  51191.67219   51.6695  36.46671  17.18498   51303.6782 
    12.36523  1.30601   1.04674       3.01285         2705.44922  0.12204  0.12643     0.39186  97.12635     19.10035   8678.95788  -135.41194  0.57219   9046.80351    0.007  51156.98806  52.68678  12.15255  16.77753  51308.69073 
    14.07808  1.71069  21.62431       4.61688         3930.49028  0.34609  0.05527     0.02223  11.43193     16.09226     5021.147   -26.08588  1.51411  15345.34559    1e-05  51266.31412  52.98413  23.75419  16.46979  51230.99649 
    12.50596  1.43886   12.2268       2.25369          3515.1625  0.24646  0.02526     0.01147  38.34708     20.50565   5403.43573   -97.27595  0.30966   4148.64612  0.17798  51195.12405  51.94664  21.22944  16.98017  51276.10927 
    15.00112  1.58431  26.81902       3.53349         5602.35361  0.46647   0.2628      0.1537  41.47547     19.00208   8900.18035  -151.57553  0.71826   4310.79446  0.00558  51140.82447  51.98562  40.71023  17.23576  51378.86617 
    13.35273  2.04686  28.60602       2.82217         4983.26347  0.47281   0.1136     0.14204  17.04877     19.32475   7185.93626   -71.80382  0.03503   8362.17289  0.01173  51220.59618  52.49193  35.18442  16.83543  51311.19699 
    14.43204  1.42285  17.80173       2.12031         2102.60808  0.31342  0.29544      0.4557  40.80143     18.80973   8090.57018  -117.07446  0.28953  23627.17851  0.00358  51175.32554  53.46215  27.27837  17.03108  51331.24712 
    13.40036   1.9213   2.87793        1.0723         2742.60684  0.26949  0.23965     0.19456  35.71909     17.75004   6849.05254  -142.32529  0.51912   5663.33821  0.00031  51150.07471  52.21176   22.9365  16.73832  51313.70326 
    13.13195   2.0331  11.89967       4.59145         3777.25001  0.42753  0.03987     0.01728   23.2438     19.98803   7402.78961  -103.05239  1.56803   6824.16186  0.05404  51189.34761  52.34079  33.73135  16.61549  51336.25965 
    14.40179  2.04032  23.78274        4.6265         3656.78223  0.43743   0.1191       0.137  76.76645     16.97618    8541.7899  -126.33718  0.52455   1983.31308    5e-05  51166.06282  51.35348   42.0705  16.96868  51311.19699 
    15.05917  1.29521  10.96896       4.16601          4083.6935  0.27138  0.12095     0.02389  36.75046     17.14005   3421.52432   -81.40868  0.53485   17853.6541    8e-05  51210.99132  53.21117  23.20951  16.24693  51358.81604 
    13.54727  1.65538   5.50344       3.51137         2840.36843  0.18689  0.18556     0.32667  97.13479     17.92977   7639.77421  -154.36969  1.44497  19224.78736  0.00047  51138.03031  53.34152  18.61081   16.9992  51291.14687 
    14.33508    1.873   8.37679        2.1282         4115.93858  0.39618  0.17721     0.16893  34.24141     19.18438   4379.59081   -33.10809  0.22924   3235.64597  0.00849  51259.29191  51.72241  33.47729  16.81642  51323.72832 
    13.84509  1.64435   6.93566       0.20114         3390.14215  0.17881  0.06441     0.32512   37.4115     17.41221   6118.99306   -18.94366  1.53397  24315.64339  0.00014  51273.45634  53.48079  15.33812  16.80081  51326.23459 
    13.03597  1.44031   27.0708       1.00539         4525.70185  0.41774  0.12369     0.14665  59.11572     20.64705   8275.11281  -171.69532  0.13769   3263.31811  0.24648  51120.70468  51.76861  38.59855  17.07918  51311.19699 
    14.42918  1.52267   8.40079        0.7043         5137.68284  0.28915  0.27188     0.15288  73.97694     18.97924   4269.79271  -134.86535   0.6386  16752.98776   0.0053  51157.53465  53.20446  27.65479  16.63059  51248.54035 
    12.72751  1.63604  10.40028         2.094         5068.23912  0.21032  0.04754     0.15469  71.96879     17.01792   8145.96223   -188.2048  1.52951   3942.73503    6e-05   51104.1952  51.94605  20.03127  17.02848   51303.6782 
    12.29552  1.48515  10.92538       3.90955         4914.20018  0.38927   0.2607     0.16605  70.16854     20.65246    7001.2596  -124.52494  1.52187  14287.03746  0.24957  51167.87506  53.06267  36.93222  16.81712   51296.1594 
    12.54605  1.90799  28.30204       0.81226         5946.35616  0.44904  0.28212     0.06997  64.30382     20.37845   4600.74366  -106.86851  0.19749  38854.46127  0.13279  51185.53149  53.92585    42.037  16.82401  51343.77845 
      12.057  1.52472  14.02902       2.53665         2484.77339  0.27805  0.07055     0.36837    57.796     18.64591   6323.07006  -132.21353  1.33033   2191.95235  0.00246  51160.18647  51.42141  25.60029  16.93297  51253.55288 
    14.88945  1.85473  24.96987       4.76749         4160.10262  0.37031  0.15288     0.01508  28.97968     20.00165    5880.3033  -105.51496  0.47908   7132.49956  0.05577  51186.88504  52.39639  30.39778  16.29041  51356.30977 
    13.31998  1.60684  21.61276       3.02104          2877.0448  0.18727  0.04473     0.01023  80.03617     20.86965   5610.18322   -69.42403  0.52069   7746.54522  0.41151  51222.97597  52.53963  18.12399  16.57145  51276.10927 
    13.96493  1.91285  16.25088       4.86173         2299.59704   0.4345  0.13086     0.02057  36.05705     20.74433    9189.5841  -130.16232  1.05302   6075.10964  0.30836  51162.23768  52.27342  37.04031  16.72576  51248.54035 
    13.93037  1.60589  20.66651       2.48658         3565.35492  0.49664  0.29828     0.36186  22.88442     17.98745   4044.55085   -50.38514  1.22514  32987.82707  0.00054  51242.01486  53.70816  39.07211   16.9776  51256.05915 
    14.42746  1.73709  26.08771       1.95864         4448.54133   0.4306  0.16592     0.26616  37.02866     17.06144   3456.06696  -133.24498   1.1212   5030.74878    6e-05  51159.15502  52.11153   36.8736  17.07962  51268.59048 
    14.41256  1.88208  15.61931       1.88082         3604.67435    0.147   0.0496     0.03242  91.79856     19.60444   5073.22015  -127.72733  1.28612   9962.66348  0.02234  51164.67267  52.76697   14.5182  16.87847  51261.07168 
    12.49691  1.35601  26.21623       2.50126         2208.60023  0.48881  0.11258     0.48173  92.97802     17.50212   5860.68687  -127.07762  1.52426   1960.83563  0.00018  51165.32238  51.35591  48.36638  17.17088  51258.56541 
    12.30142  1.72668     21.09       4.35742         2225.56975  0.26328  0.14996     0.07613  60.59285      17.4264   4090.45156  -127.52333  0.02119   6300.06081  0.00015  51164.87667  52.34165  24.42003  17.01516   51281.1218 
    14.73245  1.44424  23.76039        0.7524         5555.29687  0.36589  0.07718     0.37121  69.48226     17.19303   9389.89522  -126.34888  1.04763   1935.62133    9e-05  51166.05112  51.32578   34.6623  16.68312  51236.00902 
       12.31  1.77056  25.75734       0.91201         3497.17035  0.27175  0.01232      0.0204  43.05963     16.18545   6109.04668  -137.21341  0.83351   5243.50825    1e-05  51155.18659  52.15844  23.86316  17.30473  51323.72832 
    14.91294  1.67802  18.51099       4.67405         3526.54658  0.41653  0.26239     0.08869  23.33636     18.25644   7299.86093   -50.89858  0.92369  17128.61007    0.001  51241.50142  53.14045   32.8876   16.7099  51271.09674 
    12.01316  1.72436  26.03108       1.64052         3530.43117  0.26517  0.05155     0.02117  44.53554      18.6537   7025.90983  -156.97267  1.04458   2267.61909   0.0025  51135.42733  51.43274  23.41482  17.06249  51313.70326 
    13.97764  1.88156  13.41992       4.38809         2325.55415    0.191  0.04972     0.01611  63.95432     18.53596   7937.36434  -122.43928  0.67045  12599.26859  0.00191  51169.96072  52.94729  17.86509  16.89723  51318.71579 
    14.89834  1.39945  20.70445       4.93925         3694.68712   0.3918  0.32443     0.37166  77.11087     17.77649   9470.99766  -175.61695  0.54101  10079.65242  0.00033  51116.78305  52.76588   37.7071  16.61051   51376.3599 
    13.58575  1.60557   14.6772       3.38815         3527.88214  0.25664  0.12851     0.02685  49.92411     16.48421   6737.26369   -61.92972  0.46422  31301.07309    2e-05  51230.47028  53.72076  23.08595  16.40661  51223.47769 
    14.35424  1.59355  16.57841       2.60217         4784.80627  0.41423  0.17008     0.02056  51.81695     19.45603   8092.76001  -184.73558  1.02107   6974.51885  0.01588  51107.66442  52.41927  37.48478  16.95029  51263.57794 
     13.4077   1.7891  23.23924         4.957         4256.26452  0.37708  0.21955     0.23728   71.8465     16.41259   5477.19692  -136.75968  1.48651   5448.07022    1e-05  51155.64032  52.22683  35.90487  16.64922  51328.74085 
    13.83939  1.67155   2.46507       0.51559         2664.46163  0.36689  0.33592     0.29708  22.67003     21.15675   5109.77691   -80.40023  0.16721  15997.64652  0.79703  51211.99977  53.07881  28.81458  16.90691  51276.10927 
    14.31372  1.71784  21.39536       0.91294         5094.52895  0.40282  0.28174      0.1479  85.62832     17.53424   4333.68579  -147.31004  0.41829  10995.16699  0.00019  51145.08996  52.84817   39.3777  16.86701  51233.50276 
    14.08009  1.75286   4.47975       2.74504         2446.37858   0.4049  0.08634     0.09066  17.79991     18.27774   9063.80871   -33.82717  1.24621   4257.17456  0.00105  51258.57283  51.90916  30.38325   16.8683  51291.14687 
    14.14648  1.82333  11.04665        2.6511         3670.05657  0.38877  0.28549     0.01713  60.33903     20.17631      8520.63  -139.53824  0.64642   14302.9275  0.08338  51152.86176  53.05353  36.03644  17.23237  51298.66566 
    14.18315  1.86311   2.59499       0.49339         5602.32438  0.09369   0.2069      0.3248  53.41995     18.38327   9546.32143  -127.06361  0.77632    7789.0708  0.00134  51165.33639  52.51732   8.51946  17.21182  51268.59048 
    12.59284  1.85637  28.25408       2.12326         4682.23614  0.17077  0.03349     0.04348   61.6339     18.80615   9734.36569   -89.20144  1.02336   3278.42736  0.00356  51203.19856  51.77545  15.88188  17.05658  51313.70326 
    12.17121  1.33387  24.47199       2.35183         2752.59003    0.346  0.12554     0.04228  53.80755     19.60934   6204.71626  -123.64276    0.705  20086.46723   0.0226  51168.75724  53.34065  31.49919  16.42937  51246.03409 
    13.81579  1.60634   4.22729       4.28728         2790.48626  0.16852  0.22078     0.03619  71.30709     17.99594    4444.5785  -103.29231  1.16858  10301.96986  0.00055  51189.10769  52.77969  16.02743  17.04637  51318.71579 
    12.53301   1.7876  11.43125       0.74801         5085.11875  0.32865  0.24489     0.03507  79.20723     19.56627   6524.23355  -184.05631  0.73503    9201.5433  0.02046  51108.34369  52.68846  31.75731  17.05186  51311.19699 
    13.78321  1.92477  19.23317       0.54179          5437.5079  0.43421  0.21914     0.11159  60.77051     16.72001   4574.81391  -166.55527  1.10149  17875.43313    3e-05  51125.84473  53.24767  40.29381  16.78205  51276.10927 
    14.18866  1.49593    16.009        0.9509         2380.24053  0.43555  0.06761     0.03861  36.88325     16.38349   9636.58575  -102.78719  1.49315   1965.97284    1e-05  51189.61281  51.29513  37.27265  17.01938  51271.09674 
    15.08277  1.71549  29.76178       4.08512         5879.68357   0.3809  0.23292     0.47915  70.60105     16.25578   6539.88109  -137.30503  0.09137   7962.09501    1e-05  51155.09497  52.55525  36.17217  17.24138  51336.25965 
    14.70932  1.84444   1.36293       1.33832         3234.05013  0.25937   0.1536     0.39169  58.95756     17.73762   7726.69017  -173.45466  0.30845  12159.06504   0.0003  51118.94534  52.91091  23.95473  16.50306  51218.46516 
    14.50461  1.65545   25.3269       0.18261         2688.23584  0.40405   0.0925     0.06377   19.4287     19.68127   5237.32922   -68.21656  0.81044   5768.61377  0.02667  51224.18344  52.18032  30.83085  16.59099   51215.9589 
    12.50746  1.53482   6.84582       1.24079         2174.27303  0.44454  0.29866      0.0304  36.89552     16.70254   6075.16988   -111.6541   0.0443  12868.72533    3e-05   51180.7459  52.92707  38.04344  16.55769  51358.81604 
    13.93626   1.7138  24.44454        4.1521         4361.40318  0.30868  0.18559     0.04569  74.49669     18.25586   5168.25587   -49.18974  0.35842  19367.95144    0.001  51243.21026   53.3309  29.55361  17.16112  51318.71579 
    12.53458  1.28724  26.07751       3.10767         2171.58234  0.27614  0.13788     0.05847  50.97857     17.77021   9569.65377  -123.37313  1.39872   5089.69421  0.00033  51169.02687  52.14449  24.92319  17.09371   51303.6782 
