 texplosion  fnickel    Pspin  log(Bfield)      Mns  thetaPB   mejecta    kappa  kappagamma      vejecta  temperature    alpha  cutoff_wavelength  log(nhhost)      A_V         MJD0   kenergy  mnickel            TSD   log(L0)  Peak_mag     Peak_MJD  log(E_rad)  log(Peak_lum)  Rise_Time    E_fold  tau_1  delta_m15     r_peak     frac 
   -3.99376  0.09328  3.72394     14.41843  1.76941  1.53246  12.17821  0.02037     0.03027   5628.55066   6819.06069  2.78238         3783.45011     19.94978  0.04949  58857.50624   2.30146  1.13604    331736.1061  45.85388  19.17727  58882.92133     50.9013        44.3533   15.76832  24.36865   32.0    0.42476  -21.30528  0.92606 
   -3.07004  0.07426  0.93968     14.71766   2.0294  0.75564  18.08938  0.03239     0.04543   9628.11639    6025.7932  2.14448         3099.45267     20.78781  0.34083  58858.42996  10.00307   1.3434     6106.81118  48.84444  19.26781     58884.46    51.03001       44.51555    11.1958  25.17186   29.0      0.355  -22.06584  0.99836 
    -9.0302  0.04452  3.64946      14.1747  1.43731  1.11314   7.12367  0.05695     0.43397   7846.46397   9328.29068  4.76502         2917.91962     19.67466  0.02627   58852.4698   2.61625  0.31712   795103.45119  45.40152  19.21892  58883.62347    50.86493       44.30013   13.03817  29.71794   34.0    0.35746  -21.17257  0.97125 
   -5.58952  0.04552     3.18     14.40295  1.63613  1.13835  11.64025   0.0366       0.347   6740.96416   5988.20579   3.5779         3567.39318     20.10952  0.07149  58855.91048   3.15525  0.52982   240206.96345  46.09722  19.21241  58882.92133    50.75613       44.18405   16.51641  29.35441   33.5    0.36852  -21.26175  0.97048 
    -3.1173  0.05356  0.87845     14.85369  1.81345  0.42731   32.8531  0.01801     0.01687  11506.29147     3218.041  2.45876         2414.82903     20.74333  0.30765   58858.3827  25.94623  1.75975     2549.07651  49.23353  19.28398      58884.5    51.00192       44.44777    10.4008  28.20722   29.0    0.40508   -21.8285  0.99763 
   -2.30742  0.11643  2.16683     14.95181  1.97428  0.61346  18.31872   0.0297     0.35651   7758.86345   7046.59362  4.95448         3425.61955     16.99405    5e-05  58859.19258   6.57837  2.13285    10746.34773  47.86134  19.22434     58883.54    50.81017       44.26376   15.76832  27.38168   38.0    0.30459   -21.2516  0.97297 
    -1.5087  0.01982   1.8548     14.63596  1.77321  1.06936  33.08321  0.01796       0.307   6706.80862   4778.55261  4.79852         3581.54148     16.69147    3e-05   58859.9913   8.87701  0.65587    30287.24331  47.49975  19.23969  58883.62347    50.99439       44.44373   15.25191  23.98408   34.0    0.32438  -21.20112  0.99215 
   -2.94338  0.06261  1.42126     14.71272  2.08425  0.67186  15.15968  0.02443     0.06821   5497.15212   8486.20181  3.03824         3479.49734     20.92047  0.46259  58858.55662    2.7327  0.94913    14678.37304  48.11577  19.24328     58884.46    51.05551       44.53738    9.99237  25.17186   32.5     0.3313  -21.70236  0.99464 
   -3.72762  0.07286  0.87541     14.64634  1.36012  0.29681  19.13692   0.0262     0.06921  10943.06915   5202.64798  3.20337          2026.7679     20.97634   0.5261  58857.77238  13.67028  1.39426     4933.31963  48.82486  19.25962  58882.92133    50.99344        44.4114   15.29027  29.77101   34.0    0.37548  -21.86673  0.99381 
   -1.56205   0.0728  1.33921     14.63169  2.16714  1.35612  17.74583  0.03642     0.09474   9224.10249   5171.08384  3.98686         3119.07702     20.82016  0.36719  58859.93795   9.00683  1.29198    19680.10814  48.05701  19.17478  58881.58133    50.76648       44.19109   15.76832   30.1025   31.5    0.35059  -21.92476  0.99571 
   -7.43039  0.04933  3.96104     14.50332  1.54764  0.44399   6.08054  0.05469     0.02827  10059.69302   6767.61088  4.21011         2448.98889     19.45618  0.01588  58854.06961   3.67062  0.29995    222055.7115  45.91644  19.22687  58883.62347    51.33697       44.84997   12.17556   24.8467   38.0    0.40906  -21.25258  0.97127 
    -3.8732  0.03423  3.01871      14.8489  1.91506  0.53364   9.77851  0.04213     0.01746   5985.96979   8532.65314  3.82109         3732.15912     17.23103    9e-05   58857.6268   2.09011  0.33467    32497.41125  47.07954  19.25489     58883.48    50.95451       44.44725   11.95916  26.26653   31.0    0.35108  -21.26129  0.98705 
   -5.29651  0.06485  0.81342     14.81757  2.04761   0.8396  27.38471  0.02631     0.02023  11705.89079    5665.3495  1.37108         2886.39395     16.72777    3e-05  58856.20349  22.38433    1.776      2914.4184  49.29491  19.22833     58883.48    50.79456       44.24614   14.56489  28.19122   34.0    0.40707  -20.97986   0.9993 
   -6.67557  0.10371  1.66327     14.66788  1.46066  0.54165  11.99206  0.05803     0.35312  10049.03982   5628.41827  2.64995         3069.68189     17.52221  0.00018  58854.82443   7.22387  1.24374    17319.03558  47.75295  19.26968  58885.42511    50.85046       44.28789   17.48939  27.48045   35.0    0.34416  -21.01602  0.98131 
   -8.31305  0.25176  2.11934     14.23205  1.32783  1.22872   5.47889  0.08741     0.03394   9380.84631   5557.34724  1.22724         3337.30382     16.14047    1e-05  58853.18695    2.8761  1.37937   190223.89889  46.46032  19.25906  58882.92133     51.0395       44.51337   12.17556  25.22902   37.0    0.37438  -21.09553  0.95478 
   -2.07832   0.0393   0.9502     14.72895     1.61  0.72246  16.00902  0.04529      0.2204   9071.61955   4865.90827  3.05448          3217.9042     18.77019  0.00327  58859.42168    7.8589  0.62921     4702.90401  48.84767  19.17987  58882.92133    50.82116       44.23215   18.21186  26.75798   31.0    0.33487  -21.79775  0.99915 
   -4.57964   0.0342  2.58383     14.31235  1.21574  0.89613  10.59005  0.03124     0.03377   5271.94411   5673.80661  3.92101         3694.97825     19.62914  0.02365  58856.92036   1.75577   0.3622   178844.78048  46.27668   19.2764     58884.46    50.97146       44.35808   12.17556  29.04102   31.5    0.36588  -21.24443   0.9791 
   -7.87381  0.03171  3.06613     14.51166  1.82146  0.62159   6.87986  0.07522     0.13557   9936.54634   8565.45864  4.52881         2378.07359     20.49467  0.17354  58853.62619   4.05208  0.21817   150691.85272  46.37799  19.19477  58883.62347    50.94896        44.4415   13.77022  25.16331   33.0    0.35733  -21.35608   0.9901 
   -4.19253  0.06888  0.72117     14.66448  1.92793  1.14757  27.93124  0.02831     0.02888  12302.63346   4099.74041  3.53597         2447.00078     20.40662  0.14169  58857.30747  25.21817  1.92397     4365.44462  49.19783  19.23223     58884.46    50.90513       44.35029   10.10778  28.85612   31.0     0.3966  -21.58471  0.99937 
   -5.75418  0.08313  3.22311      14.2476  1.36407  1.12142   7.39896  0.04898     0.28503   7804.20142   6791.33215  2.24829         3644.07774     16.43235    2e-05  58855.74582   2.68816  0.61506   420729.73349  45.76313  19.22352  58883.62347    50.81741       44.25957   15.99812  25.94844   33.5     0.4273   -21.2287  0.95412 
   -4.54891  0.09771  1.59946     14.67543   1.7229  0.68556  16.79068  0.03205     0.09747   9723.32721   6984.55488  1.60685         3426.40693     20.33574  0.12036  58856.95109   9.46946  1.64067    18245.92069  47.83599  19.20946  58882.92133    51.41927         44.908   10.81563  26.58895   32.5    0.40883  -21.33784  0.98392 
   -5.09348  0.29604  3.24391     14.40689  1.66279  1.20626   8.08389  0.04282     0.20452   8619.28097   3770.41327  2.13482         3399.28442     20.18924   0.0859  58856.40652   3.58253  2.39313   249464.78893  46.07054  19.21175  58885.42511    50.92592       44.42125   13.37899  25.13742   40.0    0.43497   -21.3443  0.87756 
   -5.03005  0.09147  1.07946     14.63085  1.63941  0.94027   19.8328  0.03988     0.03442  11478.37692   6761.21568  3.11456         2723.56475     18.44388  0.00154  58856.46995  15.58734  1.81418     9710.03497   48.4299  19.26934  58883.62347    50.95555       44.45724   15.98396  23.63436   35.0    0.34475   -21.0572  0.99588 
   -2.78074  0.05202  2.04963     14.78558  1.63674  0.56329   9.55298  0.05601     0.03826   6533.33224   9903.12267  4.91599         3510.12721     17.56064   0.0002  58858.71926    2.4324  0.49695    17139.34477  47.62548  19.21293  58882.92133    50.80766       44.20996   14.56489   30.1025   32.0    0.31139  -21.21953  0.99043 
   -2.33427  0.02543  1.18991     14.72083  1.14537  0.29024  19.91129  0.03115     0.36592   9173.87573   5919.41009  4.44645         2985.08449     20.68451  0.26868  58859.16573   9.99614  0.50644     5446.70771  48.44063   19.2328  58881.58133    50.96116       44.41614   10.81563  28.87139   32.0    0.33267  -21.56083  0.99451 
  -10.11107  0.02116  0.92762     14.19629  1.47318  1.40205  35.73804  0.01119     0.03743    8959.9406   8039.44245  0.54099         2178.33518     20.32226  0.11668  58851.38893  17.11466  0.75613    47668.96336  47.82413  19.24875     58884.46    50.99021       44.48047   10.56673  28.95999   35.0      0.374  -21.02521  0.99681 
    -4.0176  0.05532  1.00213     14.74717  1.70824  0.63575  18.68205  0.04287     0.07093  11323.80762   7417.89526   2.9678         2624.13684     20.12844  0.07467   58857.4824  14.29015  1.03347     5103.61961  48.79167  19.27312  58883.62347    50.94792        44.3203   12.33032  31.62922   31.0    0.33362  -21.25969  0.99811 
   -2.40869  0.03564  1.69855      14.6677  2.00786  0.97242   18.8216  0.03054     0.20731   7920.37375   6028.31511  4.44454         3101.29528     20.57213  0.20742  58859.09131   7.04328  0.67083    24848.87226  47.71611  19.29807  58885.42511     50.9282       44.37979   13.37899  29.04102   32.5    0.33946  -21.42525  0.99444 
    -3.8926  0.08975  1.39872      14.8583  1.49125  0.36901  19.89059  0.02048     0.19589   8956.43618   3450.76386  1.32245         3738.12565     17.29889  0.00011   58857.6074   9.51799  1.78524     5202.65753  48.43471  19.26868  58882.92133    51.14316       44.60298   12.17556  27.51147   31.0    0.46234  -21.31419  0.98491 
   -3.57278  0.04856  2.78581     14.69294  1.75533  0.71635  11.71743  0.04734     0.01032   7526.87023   7606.16684  4.47136         3591.80876     19.40991  0.01428  58857.92722   3.95994  0.56902    52024.22638  46.90709  19.23149  58885.42511    51.00117       44.47891   12.17556   24.8467   32.5    0.35404  -21.30697  0.97901 
   -6.48545   0.0294  4.28711     14.64914  1.57107  0.45026  13.39075  0.03013     0.02489   7055.47312   9399.66089  4.87338         3567.78661     16.56852    2e-05  58855.01455   3.97635  0.39371   134917.86364  46.07064  19.23337     58884.46    50.79911       44.23606   13.85704   30.1025   31.5    0.38483  -21.22963  0.95763 
   -5.24077  0.07653  0.96268     14.70567  1.99329  0.97552  24.32179  0.02031     0.49998   8505.92044   6544.59222  2.21354          2708.0291     19.56979  0.02063  58856.25923    10.497   1.8614     6652.90562  48.77844  19.28616     58883.48     50.9929       44.41874    12.3034  29.64316   40.0    0.34138  -20.93837  0.99812 
   -2.82281   0.0553  2.64554     14.60225  1.89135   1.0101   8.96573  0.04588       0.084   7350.98811   9776.16515  2.69643          3490.7611      19.6106  0.02266  58858.67719   2.89004  0.49583    76757.59367  46.81547  19.23257  58885.50833    51.02122       44.45195   11.46771  28.66927   28.5    0.42267  -21.26792   0.9853 
   -3.47716  0.03655  4.55523     14.51391  1.80571  0.87976    7.7338  0.03556      0.1736   5640.82206   9497.06527   4.1463          3647.6091     18.09457  0.00069  58858.02284   1.46793  0.28264   326327.52427  45.69482  19.29281     58883.48    50.99559       44.43189   14.97366  27.44636   30.5    0.42315  -21.26852  0.97177 
   -2.03959  0.01159  0.70249     14.61854   1.3439  0.55038  24.31512  0.01145     0.23384   5573.57857   9650.36579  1.53471         4038.70642     20.17529  0.08318  58859.46041    4.5058  0.28189     3567.66561  49.15155  19.20131     58883.48    50.85256       44.27903   17.20156  26.75798   27.5    0.45664  -21.18451   0.9997 
   -5.34488  0.22636  3.51268     14.37857  1.56348  1.26986   8.47343  0.04618     0.04427   8239.18454   5889.39082   3.7082         3032.79687     18.71245  0.00287  58856.15512   3.43127  1.91804   313359.27813  45.87562  19.23049  58882.92133    50.96146       44.41516   11.95916  26.64885   39.5    0.39832  -21.19218  0.87387 
   -3.74886  0.06113  4.44554     14.43764  1.72802  1.05827  13.63695  0.02243     0.20426   6237.77504   7707.83154  3.99294         3651.91183     18.34141  0.00122  58857.75114   3.16522  0.83366   422601.28865  45.58461  19.22108  58883.62347    50.98424       44.48552   10.75573  24.35524   32.5    0.40372  -21.30469  0.91983 
   -6.31885  0.09603  4.36314     14.79629  1.50324  0.25084   7.47164  0.04275     0.06218   8446.18125   5090.96164  2.57698         3666.85972      17.0178    6e-05  58855.18115   3.17954   0.7175    67897.92257  46.33442  19.17673     58883.48    50.94152       44.36409   16.88494  25.90153   35.5     0.4366  -21.29962  0.91777 
   -6.30755  0.07719  3.29052      14.5189  1.72822  0.89043   9.00991  0.05597     0.01756   8061.91769   6127.22105  2.99729         3467.02371     17.64686  0.00025  58855.19245   3.49321  0.69547   159275.33908  46.26977  19.20309     58884.46    51.08422       44.57379   10.10778  26.58895   33.5    0.37138  -21.16167  0.96218 
   -1.16571  0.01686  1.24913     14.88961  1.59988  0.46392  21.56766  0.03038     0.07808   7358.76339   9859.78976  4.27195         3530.30276     17.72614   0.0003  58860.33429    6.9669   0.3637     3853.94059  48.69381  19.22822     58887.44    51.03433       44.56304    11.4111  25.16905   33.0    0.28272  -21.37764  0.99859 
   -1.38926  0.03293  0.81065     14.66188  1.71416  1.06018  30.05576  0.02533     0.25812  12276.35402   7617.81801  3.77024         2523.16618      17.1782    8e-05  58860.11074  27.02052  0.98975     4963.39266  48.98945  19.26191  58883.62347    50.89068       44.33301   13.85704  27.38168   29.0    0.36412  -21.21027  0.99943 
   -3.54304  0.03739  2.35438     14.56619  1.57845   0.7495  16.64287  0.02179     0.12417   6530.20667   8044.17572  2.40194         3543.65501     19.33864  0.01212  58857.95696   4.23359  0.62225     59898.1148  46.94591  19.18204  58882.92133    50.79937       44.25484   15.76832  26.65169   31.5    0.39287  -21.17943   0.9807 
   -1.56636  0.04495  0.80685     14.77499  1.77315  0.63415  21.28553  0.02832     0.05209   9562.57776   6415.31093  3.30554         2880.25759     20.59767  0.21999  58859.93364  11.61078  0.95685     3021.04186  49.22385   19.2363  58882.92133    50.83886       44.29999   13.03817   28.9084   29.0     0.3503  -22.38536  0.99931 
   -2.35296  0.04747  1.07554     14.62767  1.52752  0.54876  13.46529  0.04525     0.05493  10632.40364   8315.91785   3.3088         2599.27909     20.72828  0.29717  58859.14704   9.08042   0.6392     9113.93137  48.42987  19.23512     58884.46    50.95447       44.42547    14.3893   24.8467   30.0    0.34391  -21.60517  0.99716 
   -3.06217  0.09078  1.91508     14.52611  1.71724  1.31281  11.90013  0.05253     0.12767   9720.68915   7701.97083  2.78132         3090.30229     18.22259  0.00093  58858.43783   6.70769  1.08024    51856.46902   47.2245  19.28225      58884.5      51.018       44.43272   11.95916  29.68702   31.0    0.36626  -21.28668  0.98353 
   -3.01006  0.10818  1.44854     14.94443  1.83212  0.47212  20.98223  0.02745     0.46275   9005.04618   6574.08286  3.67733         2789.48342     18.50972   0.0018  58858.48994  10.14964  2.26989     4610.72559  48.54617  19.23344     58883.48    51.00668       44.44573   15.99812  26.75798   39.5    0.35202  -21.17045  0.98877 
   -2.00397  0.11708  1.10938     14.79058  1.99592  0.69215  17.23742  0.03467        0.06  11189.04258   6439.19756  1.93467         3170.34115     20.68868  0.27127  58859.49603  12.87317  2.01815      5983.6008  48.70187  19.24149      58884.5    51.08658        44.5637    11.1958  25.17186   30.5    0.43857  -21.52591  0.99613 
   -3.98426  0.09342  1.40378     14.56056  1.64193  1.01599  13.41963  0.04811     0.12276   9945.72147    6891.2754  4.36191         2529.78182     18.58893  0.00216  58857.51574   7.91845  1.25369     22732.2946  47.83296  19.26537      58884.5    50.94751        44.4561   18.30457  23.63436   34.0    0.31273  -21.20685  0.99165 
   -6.07691  0.23331  3.48324     14.40449  1.73034  1.49225   8.01307  0.03917     0.09161   7309.05362    4968.8684  2.29985         3345.69245     19.18306  0.00847  58855.42309   2.55357  1.86951   302645.79916  45.94207  19.15331  58882.92133    50.76874       44.20727   16.51641  27.44313   41.5    0.40718  -21.15118  0.89395 
   -6.27119  0.07887  1.40935     14.37096  1.29146  1.08372  12.87979  0.05915     0.05952   9453.35994   9390.42273  2.58775         3412.00678     18.24733  0.00098  58855.22881   6.86607  1.01579    43153.96563  47.44687  19.24888  58883.62347    50.82572       44.24963   18.21186  26.75798   31.0     0.3324  -20.99583  0.98779 
   -6.68004  0.07151  5.49658     14.57133  1.87877  0.61347   7.56098  0.04272     0.03252   7716.18289   6293.07186  4.90755         3431.29562     17.84032  0.00038  58854.81996   2.68541  0.54067    379510.0224  45.48331  19.22919  58882.92133    50.92495        44.4148   12.31208  27.82489   35.0    0.44671  -21.30119  0.92867 
   -4.21631  0.05234   1.6877     14.62637  1.80918  0.93495  13.60165  0.04872     0.08233   9571.85402   9253.95258   3.6477         2770.76503     18.26982  0.00103  58857.28369    7.4338  0.71194    26738.67625   47.6446  19.30358     58884.46    51.06269       44.52407   11.46771  28.66927   29.5    0.35134  -21.26716  0.99295 
   -7.56037  0.03314  1.36845     14.54999   1.6483  0.87199  21.15778   0.0296     0.03935   7771.99714   6311.91543  1.83979         3673.32172     19.98942  0.05422  58853.93963   7.62364   0.7012    22768.04722   47.8561  19.25201      58884.5    50.90969        44.3782   11.46771  27.51147   36.0    0.31261  -20.88034  0.99501 
   -4.09478  0.14564  0.83587     14.69374  1.71162  0.86142   16.3884  0.04486      0.0379  13190.87163   4972.68722  1.54226         2628.10214     19.54232  0.01937  58857.40522  17.01025  2.38679     4550.17269  48.99995  19.29007  58885.50833    51.13881       44.62162    11.4111  24.00232   27.5     0.4621  -21.80065  0.99825 
   -4.47975  0.05545  3.07146     14.65759    1.666  0.61131   9.16418  0.05167     0.06848   7481.99295   7301.38579  3.20146         3724.71123     16.90596    4e-05  58857.02025   3.06024  0.50814    70630.34596  46.66684  19.24159      58884.5    50.99686       44.45512    11.4111  27.82489   31.5    0.37455  -21.31395  0.97445 
   -3.67361  0.10705   1.3807     14.54715   1.4186   0.8069  13.79418  0.04902     0.01995  10104.75367   5416.64928  2.66807         3012.87844     18.19632  0.00087  58857.82639   8.40184  1.47663    20210.21435  47.83494  19.27194      58884.5    51.08829       44.58784   11.46771  26.75798   33.0    0.33929  -21.30809  0.98725 
   -1.64055  0.06878  1.07264     14.61056  1.90522  1.06046  19.33975  0.03271     0.13065   9293.06277   5673.48812  3.99238         2991.58875     20.80683  0.35609  58859.85945   9.96313  1.33022     12233.2327  48.40034  19.22666  58883.62347    50.82605       44.22619   19.11284  28.66927   33.0    0.33064  -21.81743  0.99729 
   -7.11654  0.04075   5.8142     14.62201  1.96906  0.44166   5.94256   0.0457     0.01042   7801.21512   3972.84561  4.63348         3201.54027     16.83795    4e-05  58854.38346   2.15737  0.24215   352402.30171  45.48709  19.23419  58883.62347    50.77733       44.20887   15.99812  28.66927   34.5    0.41414  -21.24316  0.96512 
