 log(Bfield)      Mns     Pspin  cutoff_power  cutoff_wavelength  fnickel    kappa  kappagamma   mejecta  log(nhhost)  temperature  texplosion  thetaPB      vejecta      A_V        MJD_0   log(KE)      M_Ni  Peak_mag     Peak_MJD 
    14.38247  1.70491   3.79604       2.81825         3293.36818  0.11308  0.03185     0.01137  13.06138     18.98316   7003.03607     -5.7857  1.53098   7694.66811  0.00534   58855.7143  52.39658   7.97929  19.22164  58883.62347 
     14.7747  1.95632   0.79948       1.08248         3303.63903  0.06856  0.03193     0.06528  17.98272     19.51135   6573.37705    -3.12196  0.88702   8935.73855  0.01803  58858.37804  52.55403   5.15475  19.24278  58883.62347 
    14.16548  1.48772   3.45335         3.533         3109.72855  0.05985  0.05506     0.26862   7.81717      20.4272   8660.07251    -8.05179  1.21054   7810.25032  0.14857  58853.44821  52.36125   3.77909  19.20844     58884.46 
    14.57404  1.84041   1.93179       1.85059         3529.94735   0.0157  0.04054      0.1013  12.03038      20.1558   8550.84685    -4.67267  0.95456   6890.91342  0.07953  58856.82733  52.29337   1.08905  19.25214     58883.48 
    14.68693  1.66732   1.02818       2.85673          2188.5584  0.05763  0.02745     0.05976  21.19747     20.54069   6177.17572    -3.01332  0.57066   9462.57349  0.19294  58858.48668  52.61731   4.47007  19.21248  58882.88474 
    14.39866  1.64198   1.93059       4.83641         2271.57858   0.0105  0.03164     0.19635  21.41951     16.69002   6281.66401    -8.15643  1.18727   8376.07059    3e-05  58853.34357  52.51222   0.81567  19.24074      58884.5 
    14.65375  1.91158   3.09693       3.25356          3124.0693  0.04375  0.02944      0.0459  20.10395     17.18908   7675.90994    -3.71444  0.83313    8805.0579    9e-05  58857.78556  52.55045   3.35961  19.28906      58884.5 
    14.77391  2.00573   1.02267       2.31338         3461.87254  0.07074  0.02373     0.08853  16.16688     20.82083   8304.13557     -2.5726  0.65201   5871.88216  0.36775   58858.9274  52.18034   5.20973  19.22978     58883.48 
    14.42568  1.26639   1.19839       1.47546         2763.24769  0.09751  0.03292     0.09161  13.53715     20.83187   6829.57032    -3.51183  0.52484   9423.58992  0.37722  58857.98817  52.57581    6.9307  19.24507     58884.46 
    14.65649  1.91083   1.70961       3.47394         3169.30764  0.05553  0.03285     0.13491  18.34824     20.34631   5619.98446    -2.27314  1.00682   8333.84846  0.12332  58859.22686  52.49514     4.191  19.22787     58883.48 
    14.63055  1.51099   2.02698       0.91835         3465.91689  0.28345  0.06765     0.46609   6.11356     16.11439    6602.4675    -5.95941  0.55185   8302.95333    1e-05  58855.54059  52.38922  16.88909  19.21037     58884.46 
    14.65559   1.5475   1.92325       1.46597         2254.72741  0.06274  0.02446     0.09434  21.44881     20.16692   4190.75571     -5.9045  0.47959  10424.06472  0.08159   58855.5955  52.70232   4.87733  19.25475  58885.50833 
    14.71233  1.85064   2.59632       1.52191           3418.081  0.09565  0.03966     0.07382  12.36743     16.32547   7130.24119    -5.46278  0.67392   8671.91421    1e-05  58856.03722  52.49554   6.67355  19.24858  58883.62347 
    14.80954  1.85318   1.69092       1.58103         2713.55502  0.05432  0.03875     0.08849  16.05202     17.71145    6963.5157    -5.37797  0.53996   9688.34031  0.00029  58856.12203  52.61467   3.99524  19.26064  58882.88474 
    14.35572  1.65061   4.31464       4.17139         3212.53075  0.04558  0.04049     0.01916   8.67402      18.3033    5066.6358    -7.53841  0.90973   6512.90305  0.00112  58853.96159   52.2137   2.94661  19.22143     58883.48 
    14.63203  1.88332    2.6216       2.64034         3083.41294  0.02252  0.02107     0.26106  23.76033     20.42225   7602.97918     -5.1275  0.69655   7861.01441  0.14688   58856.3725   52.4654   1.78395  19.22626      58884.5 
    14.71227  1.89172   4.40036       4.82987          2724.5431  0.34166  0.05444     0.01908   8.46514     16.41903   7013.23941     -7.5315  0.58328   8664.43769    1e-05   58853.9685  52.45925  21.96566  19.25262  58885.50833 
    14.33483  1.79021   4.19768       3.20928         2843.22242  0.04543  0.05583     0.01326   7.09376     18.90132   5634.84923    -5.79652  1.22426   8911.39835  0.00443  58855.70348  52.46604   2.80444  19.22145  58883.62347 
    14.50774  1.45536   1.46703       4.80435         2421.16624  0.19393   0.0442     0.04982   12.4415     19.08805   8617.95315    -5.22175  0.98573   8983.14783   0.0068  58856.27825  52.52671  13.54753  19.24546     58884.46 
    14.33833  1.54544   2.02055       1.18305         3687.17081  0.04883    0.047     0.15101   9.08261     17.23127   4807.97179    -6.81124  1.38654    6576.8739    9e-05  58854.68876  52.22664   3.18907  19.23255     58883.54 
    14.66046  1.85947   1.04183       0.09059         3531.33121  0.36059  0.05287     0.45593  10.45648     17.47721   6293.04361    -4.78866  1.15562  12176.26461  0.00017  58856.71134  52.77496  24.28418  19.21986  58883.62347 
    14.20229  1.35257   2.45601       4.01603         2317.44844  0.04344  0.04247       0.411  14.61875     18.58736   3644.55619    -6.24113  1.35277   9932.83041  0.00215  58855.25887  52.62826   3.13612  19.22854      58884.5 
    14.95011   1.9919   0.91683       3.11495         2457.73733  0.38377   0.0335     0.02534  16.61111     17.44901   6345.83591    -4.56395  1.07217  13599.06856  0.00016  58856.93605  52.91211  28.41426  19.21792     58884.46 
    14.37727  1.56759   4.46756        3.3694         2989.88767  0.08246  0.04047     0.15931   9.97422     17.69736   5228.41282     -9.3532  0.60876   9160.15227  0.00028   58852.1468  52.52332   5.49707  19.21771  58883.62347 
    14.62482  1.75363    2.6645       3.71365         3456.98247  0.00305  0.03054      0.0535  16.11252     19.16128   9719.54935    -4.60243  0.78566   6246.43346  0.00805  58856.89757  52.23376   0.22474  19.27243  58882.88474 
    14.82556   1.7154   1.18279       3.07252         3500.95644  0.00267  0.02317     0.11427  19.84242     18.15758    8291.8974    -2.10171  0.57234   5263.81574   0.0008  58859.39829  52.10251    0.2048  19.19771  58885.50833 
    14.56258  1.64566   3.22375       2.14014         2642.61787  0.01543  0.01813     0.11699  21.55717     18.99827   8244.35814     -9.4997  0.48575   7218.73132  0.00553   58852.0003  52.38358   1.20082  19.22441      58884.5 
    14.90076   1.9667   1.34826       3.69473         2914.59581  0.02273  0.02941      0.1565  20.53974     17.23259    5383.6743    -3.97507  0.56857   7453.09954    9e-05  58857.52493  52.40741   1.75241  19.27038  58882.88474 
    14.43576  1.40949   1.60096       2.49474         3161.67417  0.11747  0.03402     0.05746  16.44428      17.5937   3511.37506    -3.63181  1.34229   9177.06816  0.00022  58857.86819  52.56964   8.68023  19.21052     58881.54 
    14.73164  1.95195   3.27393       4.50143          3120.8038  0.06209  0.03415     0.01121  18.29775     16.90411   7179.14218     -5.4136   0.6611   8080.68494    4e-05   58856.0864  52.46811   4.68425  19.27368  58882.88474 
    14.45163  1.84475   4.16574       3.86367          2984.3372  0.06904  0.03025     0.28816  13.69601     19.97405   5252.10693    -5.56388  1.02087   8248.19538  0.05233  58855.93612  52.46112   4.91918  19.26835  58881.58133 
    14.48757   2.0354   5.39514       4.77729         3127.01276  0.07247  0.03106     0.24833  10.97024     18.98053   8438.92178   -11.04675  0.79061   6514.94435  0.00531  58850.45325  52.23621   4.93087  19.18949      58884.5 
    14.63051  1.73963   3.47354       4.51033         2478.13552  0.01641  0.03446     0.01754    14.805     17.06019   8243.57317    -5.57449   0.5239   9230.84863    6e-05  58855.92551   52.5657   1.18775   19.2401  58883.62347 
    14.66852  1.34591   1.95834       2.13346         3421.48648  0.00808   0.0447     0.01004   13.2572     18.19296   9864.82323    -5.28973  0.41547   7942.99789  0.00087  58856.21027  52.42549   0.57192  19.21157  58885.89167 
      14.288  1.49649   2.10088       0.89298         3710.27945  0.06148  0.02858     0.22579  11.27681      17.5061   4356.33481    -6.23933  1.22722   6434.48708  0.00018  58855.26067  52.22795   4.20756  19.24941     58883.54 
    14.26242  1.71005    4.5877       2.80214         2939.46113  0.24448  0.05858     0.27642   5.21397     18.13112   3516.45093    -6.68713  1.56683   8208.29573  0.00075  58854.81287  52.36215   14.0044  19.27072      58884.5 
    14.36144  1.82342   4.65099       3.46665         3330.70689  0.01201  0.01596     0.32699  24.70778     16.01313   6448.73752    -7.49311  1.09576   7521.27811    1e-05  58854.00689  52.43011   0.95791  19.25257  58883.62347 
    14.70894  1.63687   4.50531       3.46065         3285.59157  0.10209   0.0319     0.32589  13.69456     18.75063   4298.88954    -5.90737  0.40076   9113.67662  0.00313  58855.59263  52.54778   7.27377  19.22238  58882.88474 
    14.60618  1.87533   3.54361       2.84078         2985.01359  0.28885  0.03583     0.01422  12.06052     18.06163   4049.83984    -4.68978  1.09687   8513.30002  0.00064  58856.81022  52.47724  20.04913   19.2568  58885.50833 
    14.74179   1.9107   2.83295       2.68045         3146.65944  0.02456  0.04054     0.28551  15.22912     16.83649    7120.4471    -6.50196  0.59077   8322.94382    4e-05  58854.99804  52.47821   1.78784  19.22705  58883.62347 
    14.47652    1.733   2.30846       4.94189         2447.25035  0.04485  0.03506     0.34421  16.23388     17.57617   6469.22176    -3.38762  1.29794   8974.98709  0.00021  58858.11238   52.5492   3.30561  19.24311      58884.5 
    14.61694  1.66622   3.16619       1.03728         2619.41552  0.15438  0.03653     0.03692  10.95124     17.97712   7603.79076    -5.19728  0.55182  10373.91794  0.00053  58856.30272  52.64011  10.49986  19.22936      58884.5 
    14.43216  1.81506   4.07519       3.32305         3400.06197  0.03344  0.02187     0.26795  15.68495     17.23554   5779.20847    -5.08669  1.23401   6270.84071   0.0001  58856.41331  52.23485    2.4479  19.21181  58885.50833 
    14.67978  1.60748    1.4496       3.21988         3264.79171   0.0299  0.04065     0.15414  14.02241     20.94938   9716.54106    -2.29401  0.45557   8241.19021  0.49444  58859.20599  52.46245   2.14071  19.23462  58883.62347 
     14.2563  1.55708   3.74726       3.09064         3137.11627  0.01437   0.0583     0.05212   8.58035     19.31193    9749.7503    -6.20739  1.26753   9535.44686  0.01139  58855.29261  52.54377   0.92692  19.16266  58882.88474 
    14.73926  1.80859   2.55716        0.8554         3414.44586  0.12843  0.04172     0.05981  11.87733     17.00225   3628.40025    -5.88573  0.55724   9517.61256    6e-05  58855.61427  52.57271   8.88555  19.17469  58881.58133 
    14.77836  1.95143   2.34594       4.14061         3230.05603  0.01762  0.02399     0.01596  25.52434     16.54743   5268.97852    -4.36524  0.70101   7396.39162    2e-05  58857.13476  52.41812    1.4143  19.23994     58884.46 
    14.52026  1.33527   2.63378       2.95322         2839.97531  0.08212  0.03904     0.01756  13.23965     18.21013   3162.47584     -7.3364  0.50662   8279.62296   0.0009   58854.1636  52.46143   5.81044  19.24176     58884.46 
    14.98115  1.93905  11.72414       3.63168         2737.46659  0.48613  0.02671     0.01116  16.72709     17.68589   3299.78772    -7.45325  0.53696  16202.50645  0.00027  58854.04675  53.06484  36.04153  19.23296  58882.88474 
    14.53504  1.90603   1.54943       2.49772         3232.89501  0.09622  0.02332     0.03887  13.64239     20.64706   6359.32766    -2.00206  1.22704   5368.38433  0.24648  58859.49794  52.08774   6.85032  19.23013     58884.46 
    14.29438  1.86707   4.65446       3.69004         2622.28999  0.02689  0.01554      0.1005  24.29539     18.40221   5569.48271    -7.49113  1.27757   9051.39866   0.0014  58854.00887  52.58963   2.13853  19.21929  58882.88474 
    14.18393  1.27539   3.09665       2.36022         3125.71727  0.05609   0.0498     0.03892    9.2138     17.13033   8097.34792     -6.4046  1.06824   8827.37759    7e-05   58855.0954  52.48364   3.67509  19.24576     58884.46 
    14.39432  1.76847   4.02234       2.48871         2873.78756   0.1835  0.04408     0.18259   9.49627     16.19818   8260.40772    -5.09924  1.28191   9602.07361    1e-05  58856.40076  52.55959  12.10198  19.23068  58883.62347 
    14.67468  1.72001   1.24487       1.60912         3261.82299  0.20883  0.04355     0.09391  14.16668     20.12073   4765.39864    -2.28521  0.97063  10626.74296  0.07336  58859.21479  52.68417  14.98083  19.26975  58883.62347 
    14.47954  2.11162   3.08142       0.43026         4046.80348  0.22513   0.0679     0.07542    5.0898     18.11082   4228.14944     -6.6056  1.26197   8512.07244  0.00072   58854.8944  52.39106  12.81737  19.27875  58882.88474 
    14.23158  1.42181   3.67372       4.41079         2749.96615  0.06399  0.02206     0.02907  18.82835     18.18869   7329.11671    -3.81648  1.38603   9297.49282  0.00086  58857.68352  52.59232   4.85359  19.20329      58884.5 
    14.81526  1.49144   1.26138       1.29093         3230.40143  0.03544  0.01275     0.05604  40.81263     18.99037   9988.55736    -5.69978  0.41898   8238.25048  0.00543  58855.80022  52.54701    3.0846  19.22252  58883.62347 
    14.61304  1.95269   4.84518       3.44522         3342.96655  0.03209  0.02787     0.27534  12.45338     18.17719   4125.87833    -7.38979  0.60912   6731.17999  0.00084  58854.11021  52.27612    2.2425  19.17903  58885.50833 
    14.52432  1.68853   1.08603       2.76256         2144.89693  0.06998  0.02109     0.02179  25.91994     20.60004   6873.24283    -2.81101  0.98827  10612.02135  0.22119  58858.68899  52.73288   5.63136  19.21151     58883.48 
    14.38203  1.72307   2.31528       4.40535         3017.38407  0.01766  0.01663     0.42576  24.06139     20.90607   5088.50592    -4.25766  0.93006   6756.68879   0.4475  58857.24234   52.3349   1.40231  19.22667  58883.62347 
    14.15288  1.41798   2.82792       3.80816         2148.95522    0.025  0.06199     0.01147    7.2472     17.92429   5271.83988    -7.49993  1.47339   8725.72248  0.00047  58854.00007  52.44993   1.55135  19.20355     58884.46 
    14.91267  1.57745   1.06301       2.09847         3562.51216  0.07804  0.05739     0.02636  11.71367     19.30597   8609.74339    -2.46545  0.41393   8573.51533  0.01124  58859.03455  52.48072   5.38368  19.24002      58884.5 
    14.16121  1.38771   3.33956        1.3341         2822.24753  0.10917  0.03603      0.1302   9.63953     20.02522   5574.21855    -8.14979  0.97391   9838.37119  0.05888  58853.35021  52.58213   7.22342  19.23528      58884.5 
    14.71334  1.84609   2.94478       4.40562         3280.64833  0.07273  0.04387     0.01055  12.47577     16.41264   4530.55255    -3.22447   0.7386   7809.96413    1e-05  58858.27553   52.4054   5.08398  19.20134  58882.88474 
    14.37858  1.59755     3.733       2.93173         3449.13977  0.14031  0.02034     0.08199  12.67985     20.30589   9651.27672     -5.2486  0.96536   5531.40308  0.11236   58856.2514  52.10722   9.84036  19.23483     58884.46 
    14.66144  1.95979   5.12768        4.9099         3084.16966  0.01708  0.01656     0.05082  25.65524     17.96229   9039.84818    -5.87885  0.54718   8796.68105  0.00051  58855.62115  52.56912   1.37215  19.20447     58883.48 
     14.7624  1.79825    2.3283       4.78825         2666.65457  0.09491  0.02286     0.13265  21.93764     16.30733   6488.90631    -3.74142  0.64399   8052.00567    1e-05  58857.75858  52.47987    7.4085  19.25671  58882.88474 
    14.47333  1.84964   5.21916       3.05611         3341.97207  0.07305  0.05169     0.03404   6.83216     17.63406   7160.06832    -8.90298  0.64019    8207.8445  0.00024  58852.59702  52.39077   4.46983   19.2286     58883.48 
    14.39764  1.48515   3.62501        4.2389         3027.14094  0.13409  0.02782     0.48447  14.55933     18.47521   7460.55625    -4.40313  1.02219   8238.98148  0.00166  58857.09687  52.46551   9.67213  19.22843  58883.62347 
     14.6616  1.60579   2.69705        1.9395         3101.20261   0.0125  0.02701     0.08038  18.76659     16.34259   8826.25227    -6.14748  0.49812   8065.86258    1e-05  58855.35252  52.46862   0.94779  19.21728      58884.5 
      14.526  1.79767   2.14964       4.60982         3097.45602   0.0239  0.02956     0.42846  20.47167     20.60414   6827.17093    -3.22108  0.99206   7841.01506  0.22329  58858.27892  52.45121   1.84191  19.21894     58883.48 
    14.16374  1.56484   3.90193        3.1741         2098.42243  0.05029  0.02413     0.01234  14.02567     19.02964   9317.69588    -5.22076  1.43127    11215.598  0.00595  58856.27924  52.73014    3.6003   19.2431  58883.62347 
    14.41578  1.54913   2.99578       2.81373         3104.67077   0.0523  0.04951     0.11043   9.86263     17.19222   4994.33504    -5.53289  0.94021   8466.84111    9e-05  58855.96711  52.45389   3.47816  19.23538  58883.62347 
    14.42678  1.64513   2.52575        3.1748         3354.69183  0.05391  0.02736     0.08774  15.61105      20.5166   5785.43961    -4.44022  1.05779   6833.85938  0.18253  58857.05978  52.30912   3.94285   19.2418  58885.50833 
    14.84914  1.63233    1.2412       2.72283         3065.73499  0.04978  0.02161     0.10837   29.3221     20.57557   4668.18947    -2.45007  0.42527   9090.01309  0.20907  58859.04993  52.60793   4.09447  19.24455      58884.5 
    14.19407  1.93582   4.55774         3.367         2104.36999  0.02242    0.068     0.01318   4.17952     18.78539   8335.89571    -7.04695  1.50767   9348.57348  0.00339  58854.45305  52.45018   1.21243   19.2068  58883.62347 
    14.16031  1.54039   2.21631       0.32074         2132.47582  0.06371  0.06149     0.27043    7.3167     17.55471   8461.37547   -15.50093  1.46808    7930.3927   0.0002  58845.99907  52.36788    3.9618  19.18908  58885.50833 
    14.45802  1.62898   4.34389       4.57115          3467.6644  0.06419  0.02022     0.35284  13.37422     18.65178   5787.36316    -5.81552  0.84294   4958.33817  0.00249  58855.68448  52.01697   4.55115  19.22447      58884.5 
    14.41883  1.90032   2.77688        2.7068         3191.90682  0.12097   0.0283     0.03572  12.77693     20.82167   7302.69293    -4.69384  1.05545   7033.08161  0.36846  58856.80616  52.31653   8.49717  19.18581     58881.54 
    14.87043  1.60415   1.94675       0.48558         3124.37972  0.27978  0.04018     0.04039  11.38802      19.2647   6299.91499    -5.70321  0.36685  10442.99616  0.01022  58855.79679  52.64947  19.18754  19.21419     58884.46 
    14.39943  1.67501   3.34847       4.44394         2510.56483  0.03061  0.02898     0.02275  16.37371     19.13971   6555.95297    -5.27345  1.00418   9110.51001  0.00766  58856.22655  52.56295   2.26021  19.24669     58883.48 
    14.44218  1.77991   3.91864        4.2233         3117.94879  0.08319  0.01879     0.01307  25.36627     19.72743   3058.66746     -5.7903  1.35406   8107.82316  0.02966   58855.7097   52.4974   6.66904  19.26276     58884.46 
    14.43811  1.75336   3.11955       4.58234         2173.23211  0.13659  0.03338     0.04263  14.71276     19.16694   4492.63086    -8.56852  0.98686   8529.16428  0.00816  58852.93148  52.49648   9.87357  19.29072     58884.46 
    14.74383  1.62083   0.98564       1.22509         3632.00731  0.08629  0.06812     0.05174   7.36991     19.18069   5561.58017    -2.32848   0.6447   8531.88619  0.00842  58859.17152  52.43211   5.37447  19.25081  58882.88474 
    14.58748  1.70014   3.84763       2.95665         3153.13049  0.05422  0.02382     0.09614  19.72668     18.12092   6310.56625    -5.51907  0.63015   8594.02019  0.00073  58855.98093  52.52782   4.14906  19.20154  58883.62347 
