 log(Bfield)      Mns    Pspin  cutoff_power  cutoff_wavelength  fnickel    kappa  kappagamma   mejecta  log(nhhost)  temperature  texplosion  thetaPB     vejecta      A_V        MJD_0   log(KE)      M_Ni  Peak_mag     Peak_MJD 
    13.34265  2.02765  1.81234        0.0226         5749.35157  0.39413  0.01048     0.01452  99.03762     17.68398   3816.86832    -72.3097  0.66781  2084.63996  0.00027   53988.6903  51.41308  39.35742  24.98819  54392.71429 
    13.28771  1.41281  1.40112       0.03722         2868.41764  0.47566    0.011      0.3309  99.05154     17.80502   6281.34619   -76.94869  0.40747  2142.48918  0.00035  53984.05131  51.43687  47.50049  25.06803  54400.52381 
    13.29434  1.70053   0.8956       0.00752         4091.17504  0.46722  0.01012     0.02581   96.8467     18.55732   7464.12636   -86.36142  0.12107  2113.17813    0.002  53974.63858  51.42348  46.50583  25.04161  54373.19048 
     13.0809  2.13586  1.20797       0.00462         4437.67336  0.49505  0.01018     0.32435  96.44734     17.35014   9375.09025   -87.44774  0.36579  2128.35194  0.00012  53973.55226  51.42944  49.24578  24.99737      54381.0 
    13.77004  1.80552  1.61643       0.03848         4464.23613  0.46572  0.01009     0.08022  99.22024     16.07462   4360.35048   -68.63257  0.15819  2169.14512    1e-05  53992.36743  51.44771  46.51925    25.053  54384.90476 
     12.7249  1.75074  0.93102       0.16484         4089.49892  0.48247  0.01042     0.18604  92.32567      17.5693   9317.11598   -69.49362   0.5597  2248.77946  0.00021  53991.50638  51.47448  47.68968  25.00333  54388.80952 
    13.13835  1.64583   0.8034       0.02038         3786.02471  0.43249  0.01007     0.02082   99.8372     17.01346    4871.2616   -93.21374   0.1462  2093.64654    6e-05  53967.78626  51.41733  43.23925  25.04905  54392.71429 
    12.90389  1.13636  1.29124       0.00528         5659.89585  0.49848  0.01042     0.01945  95.89423      17.9851   9578.71089   -84.14961  0.73651  2093.94574  0.00054  53976.85039  51.41492  49.54571  25.00716  54388.80952 
    12.41016  1.58632   0.7527       0.08423         5777.46773  0.47535  0.01058      0.2949  97.08589     17.42513   3406.04644   -83.56848  0.71545  2099.67662  0.00015  53977.43152  51.41807  47.33162  25.02377      54381.0 
    13.00281  1.47631  0.94805       0.00708          3407.7408  0.48028  0.01063     0.03001  94.75014     17.53659   9223.09972   -74.49989  0.28396  2170.56823  0.00019  53986.50011  51.44537  47.65327  24.96853  54357.57143 
    12.80147  1.68088  0.84588       0.02284         5847.98155  0.43971  0.01013     0.20308  97.16138     16.54416   9081.94195   -73.33512   0.3747  2250.84422    2e-05  53987.66488  51.47851  43.78787  25.08491  54388.80952 
    12.71967  1.81085  1.02247       0.01627         2769.69238  0.48292  0.01007     0.10869  97.50448     18.55771   6473.30552   -82.71403  0.63233  2109.11959  0.00201  53978.28597  51.42224  48.11595  25.10002  54400.52381 
      13.049  1.78024  1.10945       0.00244         5337.96527  0.46988  0.01143     0.05172  98.23131     18.49554   9663.68327   -93.65553  0.36539  2101.34527  0.00174  53967.34447   51.4195  46.86659  25.04422  54377.09524 
    12.27545  1.29287  0.74725       0.06784         3381.67852  0.49863  0.01019     0.02218  99.26215     16.45025   6491.70883   -91.12053  0.99866  2085.13241    2e-05  53969.87947  51.41343   49.8094  25.09408      54381.0 
    12.90082  1.67414  1.02613       0.00452         3819.75036   0.4841  0.01025     0.31088  99.67409     16.54364    5505.4998   -77.84526  0.41647  2171.26295    2e-05  53983.15474  51.44885  48.38699  25.04628  54388.80952 
    13.79998  1.80017  1.69491       0.07443         2172.13031  0.47488  0.01035     0.01855  98.23104     17.17619   9636.73077   -74.20851  0.16328  2084.12978    8e-05  53986.79149  51.41235   47.3659  25.06463  54384.90476 
      13.109  1.57135  1.35477       0.01054         4261.59766  0.48314  0.01024     0.23869  95.75876      17.0817   6736.38068    -74.5262  0.47994  2118.44984    7e-05   53986.4738  51.42493  48.01141  25.04284  54396.61905 
     12.5375  1.65184  0.92186       0.06273         4449.40811   0.4816  0.01089     0.16056   94.9593      17.6374    8078.1355   -83.34272  0.90832  2177.02559  0.00024  53977.65728  51.44809  47.79973  24.98634  54384.90476 
    12.37332  1.98609  0.77949       0.05674         4252.91888   0.4526  0.01054      0.0231  98.32216     17.65307   9255.66888    -85.4235  0.89669  2092.54651  0.00025   53975.5765  51.41591  45.14956  25.00097  54396.61905 
    13.61361   1.5791  1.28517       0.00917         4743.83202  0.48951  0.01067      0.1764  96.38323     16.72084   8972.15325   -89.95152  0.13222  2173.50231    3e-05  53971.04848  51.44763  48.69039  25.03286  54400.52381 
    12.51647   1.9273  0.87197       0.03716         5407.89094    0.417  0.01146     0.16309  98.39167     17.18587   7198.44136   -93.49964  0.93176  2203.05091    9e-05  53967.50036  51.46066    41.602  25.00706  54377.09524 
    12.37602  1.85607  0.73832       0.02129         4464.18371  0.45862  0.01005     0.08539  97.64081     17.25536   6048.82084   -86.88858  0.76246  2204.49349   0.0001  53974.11142  51.46074  45.70392  25.06354  54408.33333 
    13.55805  1.75429  1.86454       0.00878         3247.33819  0.48796  0.01096     0.15768  92.87546     16.48764   6826.69355   -72.07795  0.39861  2182.53268    2e-05  53988.92205  51.44888   48.2747  25.01616  54384.90476 
    12.86181  1.85231  0.92382       0.00263          2888.9294  0.49585  0.01006     0.04555  95.62595     18.11245   6027.84277   -79.63498  0.34998  2175.93413  0.00072  53981.36502   51.4481  49.26463  25.04914  54392.71429 
    12.41557  1.39319  0.86069       0.00743          2318.7775  0.44321  0.01104     0.07889  92.09835     16.84093   3744.16026   -78.60058  1.26706  2202.12274    4e-05  53982.39942  51.45611  43.79317  24.96684  54365.38095 
     13.0805  1.96472  1.01085       0.00697         5120.57391  0.49998  0.01038     0.01021  98.91995     16.69642   5467.90894   -86.57178  0.24779  2112.65294    3e-05  53974.42822   51.4246   49.9195  25.06173  54388.80952 
    13.38737  1.75081  1.04491       0.05258         4361.82283  0.46079  0.01125     0.01231  98.85541     17.62841    4880.5277   -91.50096  0.14744  2120.49408  0.00024  53969.49904  51.42778  46.00247  25.03699  54388.80952 
    12.71614  1.70683   0.9497       0.06566         3790.52625  0.47231  0.01023     0.24324  97.54428     17.30934    8693.1421   -89.45082  0.54955  2124.99023  0.00011  53971.54918  51.42878  47.06109  25.05648  54396.61905 
     13.3891  1.45213  1.18198       0.13361         3392.78861  0.48746  0.01068     0.06842  98.98656     18.04167   9998.10945   -75.80741  0.19833  2183.45123  0.00061  53985.19259  51.45327  48.67452   25.0428  54392.71429 
    12.85683  1.78933   1.0561        0.0553         4678.24233   0.4675  0.01031     0.01221  96.03859     17.05298   7066.29545   -82.12359  0.54939  2264.52085    6e-05  53978.87641  51.48303  46.47677  25.04219  54400.52381 
    12.78538  1.82553  0.71992       0.07489         5053.56598  0.42712  0.01009      0.4069  98.13849     16.26749    9435.6236   -83.01859  0.27934  2146.23167    1e-05  53977.98141   51.4378  42.59591  25.04518  54396.61905 
    12.59861  1.89504  0.78194       0.06966         2150.35137  0.48933  0.01007     0.01788  99.15408      16.9355    6809.7833   -82.09718  0.47564  2183.96297    5e-05  53978.90282  51.45358  48.87328  25.02117  54373.19048 
    13.27913  1.60272  1.25783       0.00053         5012.02602  0.48866  0.01038     0.21193  96.64497     16.19341   6395.93916   -82.26379  0.26537  2184.92353    1e-05  53978.73621  51.45235  48.62464  25.03625      54381.0 
    13.42027  1.79731   1.5846       0.01404          3220.5275  0.44051  0.01023     0.01865  99.91864     16.98546   4916.35963   -78.49712   0.3426  2049.37574    5e-05  53982.50288  51.39882  44.04589  25.09599  54404.42857 
    12.76268  1.53014  1.17061       0.00688         3122.30605  0.39464  0.01017     0.35589  98.07653     16.05206   6031.12117   -81.60337  0.99365  2249.58091    1e-05  53979.39663  51.47861  39.35277   24.9923  54392.71429 
    13.73441  1.85428  1.63988       0.01528         4278.81393  0.23846  0.01008     0.10015   99.9653     18.46758   9965.12673   -76.25287  0.25432  2046.10988  0.00163  53984.74713  51.39746    23.845  24.99242  54373.19048 
    13.14019  1.62421  1.31721       0.05415         4453.81581  0.36755  0.01008     0.04088  99.22708     17.57707   6172.57148   -82.96879  0.51549   2127.3823  0.00021  53978.03121  51.43083  36.71412  25.06159   54412.2381 
     13.4058  1.66451  1.05562       0.01033         4137.86141  0.48378  0.01057     0.15843  97.85507     16.69604    7815.4377   -74.66462  0.13405  2080.73591    3e-05  53986.33538   51.4107   48.2259  25.08738  54404.42857 
    12.78033  1.86005   0.9733       0.01395         2566.15504  0.49975  0.01186      0.0294  98.41158     16.76897    4533.4282   -96.50828   0.4907   2096.5343    3e-05  53964.49172  51.41762  49.85962  25.02584  54388.80952 
    12.56556  1.35423  1.00477       0.01003         3484.07149  0.48928  0.01116     0.23054   97.8706     17.73193   9822.17532    -89.8132  0.93939  2037.59149   0.0003   53971.1868  51.39251  48.77532  25.02225  54408.33333 
     13.5314  1.84524  1.21322       0.02008         4163.92947    0.467  0.01021     0.39708  93.59073     16.31806   3325.07434   -82.46936  0.13872  2168.31908    1e-05  53978.53064  51.44369  46.25264  25.04327  54392.71429 
    13.47706  2.05361  1.20366       0.03429         2744.12765   0.4889  0.01021     0.01461  96.73484     16.78389    3706.5394   -77.17048  0.14295  2115.61259    3e-05  53983.82952  51.42441  48.65552  25.02691  54384.90476 
     12.8712  1.86411  1.08808       0.07687         4467.96937  0.40169   0.0103     0.18078  95.92923     16.52498   6099.61762    -91.0824  0.56905  2139.21912    2e-05   53969.9176  51.43352  39.92767  25.12086  54404.42857 
    12.35928  1.42102  0.71193       0.05158         5006.82547  0.45256  0.01069     0.01562  99.90111     16.39623   3639.88119   -75.32417  0.81465  2170.12081    1e-05  53985.67583  51.44853  45.24912  25.11539  54396.61905 
    13.78708  1.99471  1.94833       0.04985         4379.19232  0.43299  0.01034     0.03513  98.55121     17.51257   7799.78587   -73.04093  0.25582  2088.75838  0.00018  53987.95907  51.41449  43.20752  25.02573  54392.71429 
     12.3815  2.07344  0.70475       0.00115         5647.43354   0.3711  0.01056     0.06204  95.45663     18.22226   3587.90573  -104.43287   0.7574  2192.06642  0.00093  53956.56713   51.4544  36.86067  25.01339  54404.42857 
     12.3853  1.22936  0.75994       0.00712         5769.64247  0.49279  0.01048     0.01128  99.54419     16.79061   5265.45045   -84.39169  0.81615  2115.00232    3e-05  53976.60831  51.42596  49.24639  25.08241  54388.80952 
    13.16123    1.705  1.53326       0.10857         5729.78804  0.42833  0.01132     0.01428   96.9594     18.42282   7256.80722   -86.75539   0.6843  2112.70445  0.00147  53974.24461  51.42336  42.64155  25.02385  54384.90476 
    12.56183  1.74302  0.80758       0.00193          4375.4324  0.46543  0.01018     0.07058  98.60978     18.69897   3390.86245   -92.51512  0.56262  2111.46049  0.00278  53968.48488  51.42391  46.44853  25.02456  54377.09524 
    13.35866  1.89754  1.62948       0.04009         5426.80415  0.43467  0.01057     0.12645  99.58403     18.69689   7263.80393   -90.48381  0.43963   2117.5409  0.00276  53970.51619  51.42703  43.44079  25.04984   54412.2381 
    12.96118  1.71026  0.92786       0.00732         5944.94896  0.46075  0.01008     0.03456  99.60983     16.39695    5152.5711   -88.97425  0.28339  2086.78971    1e-05  53972.02575  51.41434  46.04873  25.04599  54388.80952 
    12.85394  1.76052  1.27248       0.08218         2829.12956  0.49987  0.01032     0.01967  94.13317     17.53179   7604.12528   -70.29787  0.79998  2157.52893  0.00019  53990.70213  51.43973  49.55008  25.02155  54384.90476 
    13.39345  2.10036  1.09569        0.0373         3612.06433  0.49048  0.01009     0.01141  96.01246     17.24793   3039.68758   -75.22073  0.14856  2154.47507   0.0001  53985.77927  51.43975  48.75906  25.01391  54388.80952 
    12.73914  1.73363  1.01841       0.00716         4303.21101  0.45556   0.0105     0.01581  94.27631     18.93671   7211.83551   -86.76807  0.67682  2207.00062   0.0048  53974.23193  51.45951  45.16812  25.00617  54392.71429 
    12.78067  1.88726  0.73194       0.02063         2059.02066  0.47033  0.01091     0.02357  99.52329     18.49405   6070.35555   -95.67299  0.26203  2062.26086  0.00173  53965.32701  51.40401  47.00068  24.95473  54365.38095 
    13.81296  1.72603   1.8471        0.0053         3419.40485  0.46053  0.01182     0.06548  99.30221     17.49416   8113.94395   -82.17581  0.23787  2099.77363  0.00017  53978.82419  51.41953   46.0061  25.04025      54381.0 
    13.27718  1.80811  1.16414       0.00546         2100.04062  0.43028  0.01073     0.04507  98.78063     16.91567   7731.17637     -89.677  0.23609  2125.58713    5e-05    53971.323  51.42981  42.95123   25.0278  54384.90476 
    13.16457  1.84786  1.23159       0.05601         3056.28151  0.47075  0.01071      0.0535  99.67235     18.24741   3161.36698   -84.13421  0.34172  2101.16662  0.00098  53976.86579  51.42034  47.05245  24.94975  54373.19048 
    13.38731   1.9005  1.76363       0.02664         3271.98808  0.44562  0.01014     0.04454  99.08112     16.70855   8251.63278   -80.06264  0.49364  2103.79145    3e-05  53980.93736  51.42105  44.50264  25.07832  54388.80952 
    12.75048  1.77607  0.88241       0.13673         5479.17052  0.48161  0.01109     0.06475  97.75523     18.26395   5393.52501    -84.7124  0.45122  2161.75736  0.00102   53976.2876  51.44381  48.00271  25.06225  54384.90476 
    12.63132  1.72489  1.06925       0.01086         4740.13154  0.46989  0.01167     0.16098  99.79398      17.3465   7521.20508   -87.67119  1.16757  2211.49153  0.00012  53973.32881  51.46487  46.97483  24.97735  54392.71429 
    12.50423    1.644  0.80392       0.05438         2059.46106  0.48384  0.01095     0.03651  98.64009     16.63601   5131.77786   -82.19048  0.64278  2055.04339    2e-05  53978.80952  51.40041  48.28799   25.0415  54404.42857 
    12.31803  1.95414  0.76915       0.00882         2139.32997  0.49377   0.0103     0.20051  98.18372     18.60449    5398.5806   -79.68959  0.97115  2111.35689  0.00223  53981.31041   51.4236  49.24634  25.07879  54388.80952 
    13.08042  1.92143  1.00352       0.01469          4262.8293  0.39909  0.01171     0.01782  97.10991       16.963   8340.18926   -95.51996  0.29835  2165.91825    5e-05  53965.48004  51.44507   39.7401  25.01399  54392.71429 
    12.99006  1.51209  1.29618       0.02992         2408.54832  0.44083  0.01011     0.01304  98.49156     16.27384   7307.30053   -79.42172  0.66921   2123.5063    1e-05  53981.57828  51.42878  43.98596  25.04363  54377.09524 
    13.14078  1.89153  1.46947       0.00478         3684.54386  0.45737  0.01048     0.03995  93.97597     17.24185   6054.67196   -74.44383  0.57569  2148.94272   0.0001  53986.55617  51.43616  45.32638    25.015  54388.80952 
    13.07384  1.76221  1.36958       0.03056         5328.83074  0.47975  0.01017     0.05096  98.89559     17.37149   8561.04397    -83.3492   0.5235  2114.78315  0.00013   53977.6508  51.42546  47.89777  25.01616  54392.71429 
    12.34065  1.36044  0.71711       0.06942         2101.82258  0.48778  0.01017     0.01507  94.61858     18.48159   5188.48679   -85.76549  0.79401   2211.5813  0.00168  53975.23451  51.46154  48.38826  25.05692  54392.71429 
    13.03281  1.66185  1.49898        0.0108         4861.68723  0.43287  0.01084     0.08054  98.67879     17.17674   9590.03654    -80.0452  0.95762  2179.26254    8e-05   53980.9548  51.45141  43.20386  24.98921  54388.80952 
    13.54025  1.43429  1.44076       0.02374         4026.45203  0.43163  0.01061     0.30869  96.99263      17.1515    8567.6057   -80.92563  0.25284  2155.47755    8e-05  53980.07437  51.44079  42.97255  24.95613  54388.80952 
    12.78256  1.83248   1.2701       0.01083         3264.68811  0.49326  0.01026     0.27751  86.17285     16.92357   4452.63928   -73.85319  0.99417  2260.15746    5e-05  53987.14681  51.47446  48.26467  25.02394      54381.0 
    13.16195  1.62934  1.53481       0.00883         2377.97844  0.49577  0.01266     0.02947  99.47643     16.36878   7595.37639   -85.91803  0.70821  2116.25055    1e-05  53975.08197  51.42643  49.53944   25.0404  54388.80952 
    13.11518  2.08087  1.93843        0.0478         4352.27906  0.48453  0.01002     0.28364  97.39011     16.24235   5359.60905   -84.74671  1.08442  2077.61125    1e-05  53976.25329  51.40909  48.26793  25.10555  54404.42857 
    13.34763  1.77441  1.65371       0.02724         2218.76285  0.43869  0.01049     0.01284  98.00908     17.18558    3856.9158   -80.38972  0.46672  2140.73248    9e-05  53980.61028  51.43549  43.74177   25.0323  54373.19048 
    12.31907  1.77571  0.77245       0.00163         2543.65366  0.48973  0.01038     0.03539  97.11591     16.62866   5837.47741   -78.58837  0.93067  2057.30479    2e-05  53982.41163  51.40038  48.76576  25.06797  54404.42857 
    13.52253  1.59218  1.42838       0.10175         5787.48981  0.47065  0.01003     0.44379  92.89775      18.3278   6514.05679   -71.81451  0.21112  2170.66221  0.00118  53989.18549  51.44416  46.56371  25.03518  54377.09524 
    13.54657   1.8444  1.90748       0.00543         4372.69121  0.40839  0.01021     0.01662  92.88361     17.75756   4029.53689   -69.60384  0.46964  2136.27507  0.00032  53991.39616  51.43028  40.40314  25.01921   54412.2381 
    12.49866  1.59623  0.79939       0.00272         2745.18043  0.45349  0.01019     0.03041  98.54185     18.06107   8797.36604   -84.66282  0.66262    2099.134  0.00064  53976.33718  51.41878  45.25277  25.01734  54384.90476 
    13.56183  2.07656  2.04898       0.00565         5195.55293  0.49325  0.01117     0.48214  94.40003     18.04438   9260.31161   -77.34109  0.44976  2139.00537  0.00062  53983.65891  51.43242   48.9139  24.95873  54369.28571 
    12.87392  1.73841  1.10627       0.04764         2331.49256  0.46081  0.01019     0.16964   99.1319     17.26996   4845.62158   -71.05523  0.52327  2072.62843   0.0001  53989.94477  51.40812  46.02339  24.99759  54384.90476 
    12.82349  1.88839  1.03001       0.03577         2381.35813  0.48853  0.01033     0.03667  95.31969     16.19474   3984.66341   -82.77346  0.50152  2166.87136    1e-05  53978.22654  51.44427  48.51417  25.00987  54400.52381 
    13.23279   1.5737  1.38064       0.03204         4524.45506  0.47926  0.01093     0.03618  96.20176     18.18189   3478.06831   -77.82883  0.38773  2085.52529  0.00084  53983.17117  51.41162  47.65784  25.03197  54388.80952 
    13.52423   1.8076  2.01518       0.01037         5728.12468  0.40646  0.01172     0.03021  99.39987     16.90837   8119.43581    -63.2371  0.85485   2057.0304    4e-05   53997.7629  51.40173  40.61015  25.05894  54404.42857 
    12.88208  1.61262  0.95414       0.03328         4857.03329  0.40349   0.0101     0.17898  99.50857     18.24277    8247.1674   -96.34406  0.40191  2110.83723  0.00097  53964.65594  51.42423  40.31989  25.06003  54384.90476 
    12.64271  1.48726   0.8086       0.02267         4641.52068   0.4741  0.01043     0.22071  97.89068     16.76458    4474.4452     -89.788  0.46682  2122.38104    3e-05    53971.212  51.42793  47.26371  25.01414  54388.80952 
    12.88572  1.90304  0.70981         0.021         2651.38712  0.49641   0.0105     0.16204  94.71034     18.47415   7947.11028   -80.89393  0.18745  2116.56066  0.00166  53980.10607  51.42346  49.25127   24.9408  54384.90476 
