 texplosion  fnickel    Pspin  log(Bfield)      Mns  thetaPB   mejecta    kappa  kappagamma     vejecta  temperature    alpha  cutoff_wavelength  log(nhhost)      A_V         MJD0  kenergy   mnickel            TSD   log(L0)  Peak_mag     Peak_MJD  log(E_rad)  log(Peak_lum)  Rise_Time     E_fold  tau_1  delta_m15     r_peak     frac 
 -126.69859  0.42932  0.85218      13.2725  1.72225  1.40772  97.40466  0.08779     0.26824  1885.45178   7829.58323  0.02496         5139.02497     16.77398    3e-05  53934.30141  2.06556  41.81782  3311095.45461   46.1239  25.15337  54454.32888     51.9669       44.67215  169.04258  133.58796  226.0    0.00485  -21.89487  0.85789 
  -91.66719  0.39554  0.90447     13.47441  1.76256  0.95313  93.96589  0.07228     0.02097   1877.1626   9884.38794  0.05843         5547.00376     17.97224  0.00052  53969.33281  1.97516  37.16758  1506326.17508  46.42429    25.142  54395.39399    51.89622       44.63888  131.54412  169.82018  170.0    0.00694  -21.78075  0.86297 
 -106.56586  0.43626  0.96037     13.60639  1.59166  0.63462  98.63508  0.05403     0.23691  1863.88352     7640.099  0.02944         4774.89266     16.25231    1e-05  53954.43414  2.04407  43.03073   835167.22016  46.58404  25.13314  54429.51419    51.97081       44.68983  149.41591  151.94839  194.0     0.0072  -21.67079  0.80547 
 -111.44423  0.05443  0.77638     13.67905  1.74776  0.41192  94.36107   0.0868     0.25078  1968.59274   9244.88255  0.10417         3800.44364     16.61384    2e-05  53949.55577  2.18138   5.13602   428897.40191  47.09883  25.21253   54438.8197    51.96323       44.65849  178.53936  122.19183  194.0    0.00637  -21.88108  0.98384 
 -100.91734  0.40675   0.8597     13.56652  1.57436  0.61148  99.81206  0.06274     0.49102  1889.16276   8994.35153  0.21779         4111.27117     16.45681    2e-05  53960.08266  2.12495  40.59839   795372.80197  46.69668  25.16465  54414.00501    51.92407       44.63534   148.7828  152.58151  186.0    0.00674  -21.81737  0.84342 
  -82.59133  0.00576  0.71336     13.82199  1.26396  0.20126  97.28487   0.0589     0.02327  2075.67289   9516.54876  0.15037         3162.25687     18.16785  0.00082  53978.40867  2.50029   0.55995   135580.17718  47.53176  25.13735  54414.00501    51.91984       44.64147  141.81849  157.01333  172.0    0.00886  -21.76069  0.99754 
 -112.56475  0.01272  0.73229     13.31282  2.04018  1.37265  93.05875  0.13253     0.27237  1942.93089   4379.22935  0.04519         4190.07973     16.91655    5e-05  53948.43525  2.09556   1.18367  2405485.06846  46.46795  25.10025   54404.6995    51.90283       44.64845  132.36057  169.00374  272.0    0.00393  -22.03269  0.99734 
 -109.09816  0.43211  0.89039     13.39035  1.66227  1.10233  97.25967  0.07348     0.06593  1872.93695   9123.25353  0.00898         3787.64595     17.11538    7e-05  53951.90184   2.0352  42.02708  2027580.04892  46.28341  25.10713  54414.00501    51.89094       44.63452  132.95484  168.40946  184.0    0.00632  -21.76746  0.84012 
 -148.46548  0.03537   0.8879     13.24728  1.72419   1.1848  97.48859  0.07442     0.42718  1927.04877   9911.49494  0.01202         4067.67623     16.09626    1e-05  53912.53452  2.15957   3.44793  4041694.00858  46.00214  25.11402  54426.41235    51.95759        44.6725  150.68215  148.14968  192.0    0.00584  -21.78302  0.98526 
 -101.86596  0.01457  0.70487     13.46554  2.00878  0.79249    98.467  0.11974     0.04859  1904.27004   9906.01102  0.16719          2326.6107     16.14057    1e-05  53959.13404  2.12998    1.4344   1086126.5533  46.83968  25.12039  54432.61603    51.96606       44.68037  154.48086  146.88344  204.0    0.00456  -21.98634  0.99695 
 -112.28115  0.00231  0.81616     13.70546   1.7301  0.32723  98.57967  0.08182     0.23404  1869.02814   5307.08737  0.09925         2250.50238     17.95906  0.00051  53948.71885  2.05422   0.22759   415441.78278  47.06486  25.11106  54432.61603    51.96861       44.67027  160.17893  136.12043  264.0    0.00501  -21.86817  0.99917 
 -112.39384   0.0037  0.83793     13.35905   1.6657  0.87455  92.85809  0.07358     0.03553  1972.88982   6790.50357  0.12119         5463.57098     18.14007  0.00077  53948.60616  2.15602   0.34399  2078368.01473  46.32631  25.18823  54429.51419    51.92491       44.64081  150.04903  147.51656  234.0    0.00596  -21.86309  0.99862 
  -84.44229  0.27536  0.70115     13.64468  2.08288  0.68775  99.87993  0.11122     0.02197  1824.96017    7545.8776  0.00807         2394.53851     18.09855   0.0007  53976.55771  1.98432  27.50274   488352.30813  47.20716  25.18509  54448.12521    51.96023       44.66053  172.84129  126.62366  232.0    0.00465    -21.848  0.94829 
  -94.71808  0.06436  0.81882     13.43609  1.91643  0.93637  92.43528  0.09328     0.09533  2067.12554   6518.87847  0.08764         5635.56327      18.9574  0.00504  53966.28192  2.35613   5.94902  1601437.89286  46.52045  25.11873  54417.10684    51.93256       44.65141  141.81849  152.58151  232.0    0.00675  -21.95964  0.98191 
 -113.26759  0.18139  0.90294     13.34722   1.8403  1.18757  99.49551  0.07015     0.19424  1934.40477   6882.56232  0.21457         5803.30238     17.38165  0.00013  53947.73241  2.22088  18.04738  2815628.70577  46.17284  25.18702  54451.22705    52.00016       44.70552  175.37376  126.62366  230.0    0.00654  -21.97102  0.93227 
   -108.649  0.03181  0.73183     13.35334   1.5923  0.64802  96.31211  0.09456     0.01921   1982.2935   7635.08174  0.19765         4438.09841     17.02901    6e-05    53952.351  2.25758   3.06408   1555885.0857  46.55007  25.17025  54417.10684    51.94963       44.66146  151.31527  146.88344  248.0    0.00541  -22.06338  0.98998 
 -135.84803  0.09253   0.8099      13.2936  1.82106  0.91186   98.4073  0.10252     0.35689  1918.43432   7888.03868    6e-05         4375.23165     18.52016  0.00184  53925.15197  2.16047   9.10582   2869476.4567  46.25451  25.13529  54420.20868    51.99715       44.70425  160.81204   138.6529  256.0    0.00471  -21.97598  0.97062 
  -96.16625  0.47167   0.9934     13.66602   1.7776  0.69027  96.19337  0.05614     0.11323  1937.39556   9777.09741  0.07712         5857.39351     17.39462  0.00014  53964.83375  2.15382  45.37164    758324.5411  46.64458  25.10553   54438.8197    51.96126       44.66434  160.17893   138.6529  162.0    0.00723  -21.74596  0.81291 
 -126.07214  0.03698  0.76425     13.19769  1.67577  1.27156  96.82989  0.09847     0.11673  1895.68668   8543.28605  0.00527         5951.51789     17.77357  0.00033  53934.92786  2.07572   3.58077   3657015.9835  46.16346  25.13002  54395.39399    51.89257       44.63429  127.25677  169.04258  232.0    0.00524  -21.90035   0.9882 
 -114.32256  0.06295  0.71149     13.22792  1.71295  1.05885  91.58491  0.12666     0.02605  2024.69715   8654.96798  0.00843         5754.57023     17.56027   0.0002  53946.67744   2.2396   5.76554  2818727.19213   46.3482  25.12451   54472.9399      51.961       44.66692   169.6757  127.25677  232.0    0.00406  -22.07043  0.98417 
 -100.89892  0.24022  0.70564     13.29343  1.52156  0.99298  93.74307  0.09536     0.01922  1867.59335   9416.68271  0.01436         5649.36669     17.36759  0.00013  53960.10108  1.95043  22.51891   1821396.4289  46.49357  25.13973  54407.80134    51.88845       44.61619  134.22108  163.97763  194.0    0.00505  -21.83366  0.93188 
 -106.13803  0.06635  0.70597     13.28719  1.64931   1.0164  99.61909  0.09509     0.10445  1890.59642   8592.62923  0.08124         3100.22477     18.15954   0.0008  53954.86197  2.12406   6.61009  2033817.53872  46.48027  25.11509      54448.0    51.97518       44.69295  158.91269  143.08473  220.0    0.00553  -21.89916  0.98128 
  -95.47415  0.42237  0.70071     13.40619  1.84411  0.80316  97.04371  0.12315     0.03793  1893.09852   3734.34461  0.18561         5121.09692     18.21573  0.00091  53965.52585  2.07463  40.98833  1295128.97338  46.73124  25.13393  54410.90317    51.96803        44.6693  158.91269   138.6529  266.0    0.00467  -22.14489  0.91038 
  -91.42742  0.03692  0.72833     13.38332  1.85492  1.09949  94.80398   0.1035     0.04847  1894.22529   5596.88898  0.02657         5091.76736      16.9707    5e-05  53969.57258  2.02916   3.50047   1563690.7174  46.61836  25.15671  54401.59766    51.87922       44.61661  127.88989  165.87699  246.0    0.00537  -21.83954  0.99112 
 -110.24971  0.00178  0.85666     13.30155  1.82605  1.43772  97.34834  0.07633     0.17478  1878.65821   6451.89782  0.00913         3346.14863     17.24984   0.0001  53950.75029  2.04952    0.1729  3103514.09157  46.17289  25.16703  54382.98664    51.89754       44.61585  131.54038  163.49274  246.0    0.00559  -21.78549  0.99937 
  -80.26571  0.12764  0.72307      13.3505  1.79237   1.5679  91.87224  0.09398     0.17513  1947.16324   7435.20581  0.08096         4343.39623     16.40057    1e-05  53980.73429  2.07786  11.72699  1732225.07405  46.56531  25.16721  54429.51419    51.94234       44.64314  159.54581  136.12043  218.0    0.00603  -21.84508  0.96985 
 -105.74445  0.01488  0.91686     13.34826  1.87103   1.2324  94.52109  0.07163     0.02273  2026.73681   3766.33722  0.08821         4287.47391      18.3288  0.00118  53955.25555  2.31606   1.40672  2937540.19703  46.14833  25.12366      54418.0    51.97388       44.68063  152.58151  143.71785  236.0    0.00728  -21.85661  0.99433 
  -96.34812  0.00125  0.72974     13.35029  1.70032  0.84718  93.56846  0.09849     0.47334  1914.81992   4507.10879  0.15613         4568.98413     18.65429  0.00251  53964.65188   2.0465   0.11657  1675336.37299  46.54894  25.16367  54448.12521    51.96002       44.66104   169.6757  127.88989  254.0    0.00557  -21.95211  0.99965 
  -95.31761   0.0963  0.72244      13.3092  1.92043  1.47434  95.64869  0.11902     0.02044  1941.75639   6410.11503  0.00037         2023.08502     17.33293  0.00012  53965.68239  2.15127    9.2108  2240885.23453  46.48422  25.11771  54423.31052    51.93809       44.65308  147.51656  150.68215  258.0    0.00468  -21.96484  0.97839 
  -97.94677  0.00206  0.95171     13.59777   2.0588  0.86871  96.67375   0.0629     0.01392  1896.97742   9019.31668  0.02195         5211.12259     17.63262  0.00024  53963.05323   2.0752   0.19894  1103841.53692  46.58254  25.16404   54438.8197    51.94067       44.64047   162.7114  134.22108  180.0    0.00804   -21.6203  0.99926 
  -88.92205  0.31151  0.71829     13.36956   1.8143  1.09744  95.41019  0.10928     0.34839  1970.80896   4345.87505  0.15375          2484.3909     16.47325    2e-05  53972.07795   2.2106  29.72115  1584900.92523  46.61495  25.16724  54417.10684    51.93751       44.64686  151.31527   145.6172  242.0    0.00538  -21.96739  0.92891 
  -87.68369  0.27553  0.89022     13.42008  1.96362  1.42059  95.29136  0.07928     0.08511  1897.98679   6878.46458   0.1253          5548.5731     18.02669  0.00059  53973.31631   2.0477  26.25575  2087922.09027   46.3432   25.1229  54432.61603    51.95302       44.66417  155.11398  146.25032  224.0    0.00547  -21.86846  0.91541 
  -97.25251  0.03385  0.75666     13.32193  1.71451  1.05909  99.23601  0.08382     0.03025  1930.88722   8834.79013   0.0837         2419.23046     17.66973  0.00026  53963.74749  2.20704   3.35905  2069661.85236  46.42928  25.12229  54432.61603    51.93902       44.66583   148.7828  155.11398  206.0    0.00646  -21.85314   0.9896 
 -112.33265  0.02678  0.75366     13.56174  2.07718  0.61987  96.28096   0.1239     0.11249  1895.10557   5616.08285  0.04646         3864.53534       18.096  0.00069  53948.66735  2.06269   2.57828   824457.46979   46.9158  25.18135      54481.0    52.00573       44.70641  194.36731   110.7957  272.0    0.00379  -21.98872  0.99404 
 -116.69332  0.00252  0.73732     13.36558  1.64605  0.76466  99.83142   0.0877     0.27464  1892.51743   6321.57925  0.00862         4595.65932     17.95268   0.0005  53944.30668  2.13292   0.25137  1543164.29012  46.56157  25.12927      54420.0    51.95922       44.67271  152.58151  148.14968  254.0    0.00481  -21.85302   0.9992 
  -86.70609  0.00147  1.02053     13.79866  2.08717  0.46571  90.80938  0.06693     0.30631  2045.83245   8444.75992  0.03129         4126.86693     17.95913  0.00051  53974.29391  2.26724   0.13341    510160.0178  46.86305  25.18823  54420.20868    51.93902       44.63808  160.81204  137.38667  190.0    0.00764  -21.73276  0.99943 
 -109.78991  0.08268  0.88015     13.41643  1.89689  0.88457  97.91971  0.08012      0.2595  1950.55474   6075.90327  0.05038         3377.78254     16.73904    3e-05  53951.21009  2.22236    8.0964  2004935.65219  46.35568   25.1382  54420.20868     51.9544       44.65442  158.91269  139.28602  248.0    0.00636  -21.89086  0.97123 
 -130.47248  0.00688  0.70992     13.72418  1.79828  0.31139  99.47779   0.1121     0.06293    1918.742   4023.55375  0.02865         2842.75174      16.1111    1e-05  53930.52752  2.18467   0.68479    299727.2192  47.34456  25.14516  54407.80134    51.96885       44.66656  160.17893  133.58796  278.0    0.00411  -21.95864  0.99824 
 -122.31649  0.15095  0.80109     13.29975  1.90688   1.4884  99.99642  0.10091     0.02605  1958.23998   9249.31742  0.00054         3865.43951     16.25348    1e-05  53938.68351  2.28741  15.09486  2857536.46317  46.28582  25.16937  54451.22705    51.92968       44.64126  158.27957  140.55226  206.0    0.00552  -21.93093  0.95674 
 -129.37094  0.00792  0.79236     13.23686  1.66493  1.22661  99.67532  0.08288      0.0132  1855.97989   7818.71552  0.02882         3499.11749     17.60697  0.00022  53931.62906  2.04815   0.78957  3260961.12581  46.17905  25.13777  54426.41235    51.93714       44.64803  150.04903   145.6172  240.0    0.00558  -21.78353  0.99716 
  -93.53773  0.18614  0.73989     13.42513  1.99971  1.01481  99.31718  0.11029     0.19449    1927.304   5383.65556   0.0415         2422.14964     18.62683  0.00235  53967.46227  2.20066  18.48664  1435026.31962  46.67462  25.12023  54423.31052    51.92647       44.64813  143.71785  153.84774  254.0    0.00404  -21.95978  0.95814 
  -86.78883  0.49237  0.74279     13.47271   1.5979    0.781  85.04612  0.09571     0.48079  2061.38271   9302.16324  0.05866         4093.43675     17.84005  0.00038  53974.21117  2.15575  41.87445   928270.52957  46.76298  25.09072  54414.00501    51.90502        44.6546  129.15613  167.14323  176.0    0.00716  -21.91021  0.87779 
  -107.5194  0.04208  0.77514     13.50799  1.64488  0.52998  97.06075  0.08469     0.45246  1845.13426   8509.71183   0.0766         3624.68859     17.77173  0.00033   53953.4806  1.97118   4.08466   884553.58979  46.75949  25.15374   54404.6995    51.87494        44.6203  132.95484  170.30882  222.0      0.005  -21.83962  0.98586 
  -126.7611  0.02152  0.73531     13.33528  1.50437  0.66257  97.58828  0.08419     0.07435  1935.34728   9691.48642  0.00249         4072.98091       17.261   0.0001   53934.2389  2.18043   2.09999  1612649.35312  46.50572  25.13728  54432.61603    51.94487       44.66617  148.14968  150.04903  198.0    0.00492  -21.86824  0.99244 
 -113.93133  0.03722   0.8987     13.40964  1.55327  0.73462  90.76028   0.0606     0.03176  1964.07326   9936.55289  0.00486         2274.81436     16.92372    5e-05  53947.06867  2.08852   3.37802  1766106.45557  46.30585  25.14963  54435.71786    51.93065       44.64053  152.58151  144.98409  168.0    0.00732  -21.68542  0.98288 
 -106.25561  0.17749  0.81113     13.49065  2.16448  0.91103  99.35008  0.11298     0.06956  1814.74442   4193.52681  0.04156         2981.39113     18.63063  0.00237  53954.74439  1.95176  17.63346  1380538.67236  46.64597  25.17216   54438.8197     51.9524       44.65149  166.51011  131.05548  264.0    0.00454  -21.91624  0.95731 
 -100.91195  0.39693  0.76739     13.57576  1.60633  0.54116  98.07446  0.08393     0.09599  1825.97937   7831.72505  0.04248         4492.78405     16.70478    3e-05  53960.08805  1.95063  38.92877   619678.71348  46.91248   25.1509  54435.71786    51.97721       44.68098  166.51011  136.75355  216.0    0.00521  -21.81973  0.87907 
 -142.06406  0.00631  0.90699     13.27738   1.8728  1.15733  93.33225    0.086     0.06874   1996.3592   4434.54533   0.0119         4876.40889     17.24548   0.0001  53918.93594  2.21889   0.58862  3988011.50894  46.02537  25.19381  54417.10684    51.95813       44.65007  170.30882  126.62366  268.0    0.00577  -21.88874  0.99765 
 -126.14377  0.03911  0.73024     13.23204   1.9905   1.5282  90.51923  0.15184     0.21753  1945.18143   5946.52842  0.01962         5961.32008     16.05182    1e-05  53934.85623  2.04309   3.54027  3385621.26246  46.31124  25.16128  54441.92154    51.94531       44.65955  158.27957  146.88344  294.0    0.00405  -22.09268  0.99176 
 -115.77429  0.36039  0.82212     13.49124  1.70539   0.5979   95.3208  0.09235     0.01492  1931.62566   4762.99825   0.0717         5152.18106     17.16281    8e-05  53945.22571  2.12159  34.35258  1114357.37926  46.62378  25.15541   54404.6995    51.88665       44.61352  132.32172  162.07828  246.0    0.00489  -21.97441  0.88603 
  -91.68804  0.37824  0.74629     13.39059  2.04828  1.24588  96.80714  0.12028       0.051  1917.31642   4834.74902  0.12823          4917.7428     16.60691    2e-05  53969.31196  2.12286   36.6166  1753219.16004  46.59058  25.15564   54404.6995    51.89319       44.61493  134.85419  160.17893  256.0     0.0038  -22.06616  0.92174 
 -119.71651  0.04229  0.75548     13.16723  1.56863  1.56108  94.59691  0.09034     0.01238  1896.71461   3178.59037  0.05022          3614.3527     18.01392  0.00057  53941.28349  2.03006   4.00012  3848886.80985  46.12258  25.12077   54438.8197    51.94266       44.67278  149.41591  155.11398  258.0    0.00555  -21.85661  0.98584 
 -126.45096  0.16584  0.87961     13.64007  1.74169  0.43792  96.63754  0.07689     0.16551  2041.09023   5975.18831   0.0022         3671.63507     17.65851  0.00025  53934.54904  2.40158  16.02669   656485.29049  46.80401  25.09518  54392.29215    51.92118       44.65114  134.52264  164.30919  238.0    0.00553  -21.86665  0.93751 
 -107.72762   0.2977   0.9275     13.31556   1.7146  1.47488  98.45072  0.06662     0.02551  1895.62099   4705.93429  0.01845         4439.15476     18.48878  0.00171  53953.27238  2.11032  29.30927  3202393.93005  46.06291  25.08575  54392.29215    51.95351       44.66213  139.91914  157.64645  228.0    0.00692  -21.78701  0.87853 
    -98.018   0.0832  0.76102     13.44121  2.01509   1.0618  96.40249  0.10378     0.01121  1890.56649   7310.82189  0.04846         3391.82375     18.11378  0.00072    53962.982  2.05541   8.02086  1420597.70598  46.65788  25.14945  54420.20868    51.98955       44.70485   155.7471  146.88344  236.0    0.00486  -21.86732  0.98058 
 -104.57621  0.00852  0.73995     13.60099  1.74532   0.5211  99.84567  0.08531     0.04513  1896.46638   4535.29946  0.03518          2480.3164     18.55131  0.00198  53956.42379  2.14213   0.85053   557330.12378   47.0262  25.12443  54398.49583    51.93153       44.65782  139.28602  161.44516  240.0     0.0061  -21.79398  0.99754 
 -107.78896  0.00144  0.89798     13.31606   1.8401  1.55129  97.73161  0.07005      0.3086  1897.52488   8220.30131  0.05423         3082.20733     17.03647    6e-05  53953.21104  2.09912   0.14049  3214136.77504  46.12009  25.16207      54420.0    51.93341       44.64778  150.04903  150.68215  214.0     0.0063  -21.76238  0.99944 
 -113.70991  0.06889  0.70992     13.33385  2.14415  1.51634  95.94938  0.14408     0.24501  1920.45281   6719.95637   0.0464         4402.59341     16.40503    1e-05  53947.29009  2.11094   6.60959  2156746.02348  46.56388  25.18662   54404.6995    51.90781       44.61215  146.88344  147.51656  276.0    0.00402  -22.06116  0.98719 
