 log(Bfield)      Mns    Pspin  cutoff_power  cutoff_wavelength  fnickel    kappa  kappagamma   mejecta  log(nhhost)  temperature  texplosion  thetaPB     vejecta      A_V        MJD_0   log(KE)      M_Ni  Peak_mag     Peak_MJD 
    14.13698  2.02845  2.22951       0.71273         3246.06477  0.01779  0.02033     0.01979  64.44981     18.35103   4404.77185    -13.5022  0.45433  6413.11174  0.00125  59607.96418  52.36126   1.66633  18.96138  59687.15122 
    14.21288  1.66461  1.80237       0.03591         2271.17442  0.00204  0.08356     0.07028  12.35671     16.53903   4098.01522   -14.28425  0.23845  6701.68697    2e-05  59607.18213   52.2716   0.14251  18.99657  59687.37743 
     13.9932  2.03169  1.51591       0.02551         3213.96333  0.15661  0.02033     0.16103  68.97509     20.46992   9564.60079   -12.36993  0.82416  7046.84847  0.16393  59609.09645  52.44764  14.82003  19.01981  59687.37743 
    13.55803  1.43193  1.62474       0.37009         2315.57948  0.01322  0.03141     0.16006  35.26089      17.9377   9740.71716    -8.25346     1.36  6694.81919  0.00048  59613.21292  52.35614   1.12309  18.99122  59693.26231 
    13.76425  1.70319  1.29671       0.09912         5807.28737  0.04208  0.04887     0.04301  20.93188     16.18159   5055.74697   -13.11943  1.18076  5219.94633    1e-05  59608.34695   52.0996   3.25657  18.99724  59687.37743 
    13.75933  1.78341  2.00057       0.00915         5516.22528  0.00589  0.06244     0.23237  15.16962     18.31759   4071.70191    -9.06543  0.82621   7781.9148  0.00115  59612.40095  52.41949   0.42836  18.98085  59689.43967 
    13.77227  1.91647  2.00504       0.67831         2666.89901  0.00719  0.04101     0.02192  33.66968     19.15163   9841.19733   -12.60898  1.19113  6409.44103  0.00788   59608.8574  52.31487   0.60611  18.99324  59687.15122 
    13.60727  1.67417  1.88462       0.63115         2492.56906  0.00469   0.1166     0.01061    10.058     18.02835   3757.68287   -13.70624  1.09836  6506.81167  0.00059  59607.76014  52.22703   0.31294  18.96461  59687.15122 
     13.5417  1.50746  1.75206       0.16348          3888.0419  0.03085   0.0306     0.39613  36.19324     18.95881   6606.62725    -12.8302  1.20956   6805.4281  0.00505  59608.63618   52.3723    2.6313  18.93966  59683.88047 
     13.5113  1.62276  2.05731       0.83792         2780.12083    0.114  0.05337     0.01002  17.19664     16.10893   7528.78913   -12.24527  1.50726  6468.27511    1e-05  59609.22111   52.2696   8.49747  18.97138  59687.37743 
    13.79392  1.68564  1.46887       0.13132         5162.16784  0.01574  0.02402     0.01346  46.01701     16.70925   4722.13222    -8.00079  1.03379  5666.33423    3e-05  59613.46559  52.23052    1.3971  18.97105  59687.37743 
    13.73403  1.87697  2.09308       0.58334         3132.15839  0.00808  0.01777     0.01736  50.51428     17.44578   5776.92281    -9.13733  1.18398  5921.34476  0.00016  59612.32905  52.27531   0.72787   18.9596  59689.30392 
    13.77436  1.43379  1.70758       0.29866         2468.96267  0.11633  0.04556     0.37921  21.50541     19.57985    6404.2135   -12.68564  0.53805  6732.74066  0.02111  59608.78074  52.32284   9.04704  18.99817  59690.44408 
    13.90408  1.73911  1.93548         0.197         4861.09031  0.02505  0.04277     0.12352  21.71167     18.59481   8323.54667   -12.15637  0.55328  6158.66057  0.00219  59609.31001   52.2462   1.95141   18.9725  59687.15122 
    13.80368   1.9676  2.02901       0.51953         2509.52392  0.08117  0.02117     0.01805  48.92502     16.10564   9084.60322    -9.87811  1.55564  5956.38266    1e-05  59611.58827   52.2782   7.27826  18.93626  59687.37743 
    13.85416  1.49723  1.81876       0.48131         2637.10448  0.00434  0.07387     0.47605  13.07639     16.66529   9985.75603   -10.94345   0.4485  6960.32447    3e-05  59610.52293  52.30956     0.306  19.01819  59684.44757 
    13.84353  1.90966  1.75648       0.36557         2029.43939  0.01213    0.028     0.04838  50.86991     16.67874   6845.77018   -14.79845  0.98689  6257.66284    3e-05  59606.66793  52.32378   1.09453  18.92104  59683.44988 
    13.64698  1.70259  2.03715         0.638         3470.56878  0.02601  0.05801      0.0658  18.11638     18.25594   6928.79737   -12.13826  1.25449  6738.38021    0.001  59609.32812   52.3095   1.95837  19.00592  59684.44757 
    13.65449  1.60551  0.71278       0.16731         2957.44298  0.09747  0.03554     0.12604   47.8586     21.00852   9872.18053   -12.21355  1.02766  7380.41604  0.56656  59609.25283  52.46285   8.70826  18.92241  59687.37743 
    13.72354  1.44664  1.59624       0.18611         4853.59568  0.12116  0.03966     0.04787  17.02735      16.8358   3002.84861    -9.38252   0.6991  5715.64888    4e-05  59612.08386  52.16131   9.01419  18.96762  59690.44408 
    13.87449  1.72863  1.97855       0.03316         3392.02445  0.08524   0.1329     0.36022   8.20967     17.23865   7489.60521    -9.77768  0.60352  7440.98373   0.0001   59611.6887  52.32403   5.44227  18.99577  59689.30392 
    13.94956  1.94523  1.97409       0.13943         5916.90263  0.00812  0.03535     0.02398  18.29408     16.38476   8111.94829   -10.45437  0.59317   5618.5945    1e-05  59611.01201  52.15246   0.61258  18.99869  59690.42196 
    13.98328  1.56059  1.54268       0.03483         5108.20786  0.07887  0.01325     0.40563  78.57794      18.2289   9639.50335    -7.11342  0.54261  6574.33799  0.00094  59614.35296  52.39592   7.61219  18.95243  59690.42196 
    13.68237  1.99556  2.15213       0.03172         3161.84449   0.0382  0.09351     0.40803   9.82399      19.4964   9701.50753   -11.24939  1.44796  7099.37188  0.01742  59610.21699  52.30052   2.53814   18.9344  59683.88047 
    13.69566  1.53678  1.41305        0.0349         5967.60249  0.04461  0.04595     0.04117   29.0431     20.40236   9258.24319   -13.25667  0.80716  6952.95984  0.14031  59608.20971  52.37441    3.6634  18.94345  59687.37743 
    14.13267   1.7325  1.79206       0.00194         5767.44924   0.0531  0.03685     0.01282  31.61256     16.22319   8112.44016   -16.53061  0.33745  6647.75435    1e-05  59604.93577  52.34186   4.42527  19.02085  59689.30392 
    13.98022  2.02282  1.74906       0.11652         5653.90569  0.00711  0.03226     0.14015  35.87511       17.915    6849.4905   -11.71771  0.75434   5662.4845  0.00046  59609.74867  52.21195   0.60595  18.97638  59687.15122 
    13.84966  1.60495  1.05609       0.06865         5913.93887  0.31859  0.02432     0.25224   40.6663     16.50784   4330.22009    -7.59928  1.36929  5555.36226    2e-05   59613.8671  52.20451  27.71349  18.99416  59687.15122 
    13.51617  1.49796  1.74507       0.00236         5852.28687  0.02131  0.09014      0.0739   9.16026     16.62607   8927.37158   -10.98156  1.35256  7042.29887    2e-05  59610.48482  52.28684   1.39437  18.98272  59689.30392 
    14.12268  1.44106  1.48611       0.01483           3747.969  0.00782  0.05782     0.11448  19.61819     20.56952   6405.52352   -13.58343  0.19675  8422.44275  0.20618  59607.88295  52.50986   0.59747  19.00113  59687.37743 
    13.55467  1.55018  1.82866       0.95369         2259.53322  0.00659  0.09467     0.04103  10.62395     18.75568   3243.99676   -10.88259  1.40317  6590.99982  0.00317  59610.58379  52.24332   0.44553  19.01039  59687.15122 
    13.60744  1.54727  1.54678       0.03603         3931.65528  0.04014  0.01943     0.06048  57.44592     17.60945   8109.30448   -15.35268  1.46087  5915.22983  0.00023   59606.1137  52.28328   3.69208  18.96686  59687.15122 
    13.63716  1.16826  1.36574       0.79896         2271.84088  0.00136  0.08619     0.14985  14.62925     19.46578   6627.71081   -12.96026  0.60402   6464.7909  0.01624  59608.50612  52.25528   0.09813  18.98476  59687.15122 
    13.63626  1.76144  1.95204       0.96889         2143.58777  0.00498   0.0889     0.08499  11.90782     16.62057   7605.09896   -11.20076   1.5604  6523.89508    2e-05  59610.26562  52.24491   0.34489   19.0061  59687.15122 
       13.86  1.61866   1.6858       0.07552          2261.3211  0.17909  0.12574     0.42373  11.35395     17.51214      7851.81    -9.90596  0.69063  7235.49887  0.00018  59611.56042  52.33049  12.27401  18.95005  59687.37743 
    13.72872  1.63534  1.98856       0.40019         2162.82527   0.0508  0.06732     0.21098  14.39694     17.17552   6823.54915    -7.22068  0.74158  7901.96201    8e-05   59614.2457  52.42825   3.65623  18.97735  59687.37743 
    13.73918   1.4445  1.45512       0.16726         3252.45632  0.07215  0.04172     0.01116  23.35922     17.37327    6534.9443    -8.88408  0.78212  5699.20821  0.00013   59612.5823  52.18472   5.69794  18.96688  59687.15122 
    13.67574  1.64777  2.00087       0.75894         2072.17967  0.13816  0.02979     0.02615   35.1091     16.13084    9489.1468   -11.61025  1.01112  7148.53134    1e-05  59609.85613  52.41278  11.72475  19.00313  59687.15122 
    13.71052  1.89797  2.01197       0.03354         2391.60237  0.05015  0.04821     0.01207  25.43312     20.04305   7155.21868    -10.7668   1.0966  7649.68722  0.06135  59610.69958  52.44709    4.0222  18.94962  59683.44988 
    13.82437  1.53233  1.54351       0.04633         4740.05744  0.05783  0.03481     0.02586  29.41474     18.42391   8423.52055   -10.34172  0.65206  6113.45668  0.00147  59611.12466  52.26362   4.75959  18.92966  59687.37743 
    13.75022  1.88935  1.87402       0.95071         2114.47254  0.00584  0.08368     0.02501  13.01804     17.12294   9629.64749    -9.57121  1.45142  6144.34401    7e-05  59611.89517  52.20086   0.41183   18.9744  59687.15122 
    13.76544  1.71716  1.65798       0.96156         2301.66049  0.00179  0.07134     0.24622  18.17634     16.99525   7118.88036   -11.37209  1.01274  5729.38104    5e-05  59610.09429  52.16888   0.13455  18.97556  59687.15122 
    13.73812  1.38156  1.58251       0.01767          5729.1328  0.01084  0.04902     0.23032  20.20371     17.29601   6387.83261   -12.95508  0.58551  6735.30098  0.00011   59608.5113   52.3181   0.83311  19.03085  59687.15122 
     13.8405  1.68437   1.4113       0.03881         5312.67536  0.01102  0.08457     0.04988  17.08983      16.5819   8410.30136   -14.32746  0.83695  6018.08113    2e-05  59607.13892  52.20641   0.82049  18.94638  59684.44757 
    13.81054  1.45428  1.46661       0.07775         5214.49617  0.10046  0.09134     0.03703  13.62087     17.08633   9210.83172    -8.60774  0.66332  6568.12507    7e-05  59612.85864   52.2628   7.14938   19.0028  59690.44408 
      13.746  1.89502  1.75246       0.01718         4811.50463  0.00884  0.07061     0.08959  18.73209     16.00218   5465.47846   -16.33867  1.45481  6233.74118    1e-05  59605.12771  52.24466   0.66958  18.94652  59687.15122 
    13.74604   1.6629  1.54972       0.54682         2015.81738  0.12056  0.06406     0.32488   16.5629      16.6648   7107.29798    -9.15722  1.14792  5962.57914    3e-05  59612.30916  52.19571   8.92084  19.00812  59687.37743 
     13.6182  1.60312  1.69145       0.00339           4047.947   0.0228  0.05731     0.01334  18.44118     20.28024   6927.68268   -11.90427  0.94628  7905.34319  0.10592  59609.56211  52.44971   1.72276  18.95298  59689.30392 
     13.8424  1.64766  1.75515       0.12011         4649.24906   0.0511  0.05494     0.32254  18.03533     16.95744   8886.62045    -9.01666  0.66215  6381.88518    5e-05  59612.44972  52.26191   3.84393  18.95562  59687.15122 
    13.78196  1.81547  1.75997       0.08664         3041.89047  0.00457  0.07328     0.01967  13.36613     20.38376   9700.19844   -14.99038  0.72712   7077.9242  0.13443    59606.476  52.32606   0.32412  19.01338  59684.44757 
    13.77822  1.79049  1.87826       0.06085         3086.06463   0.2672  0.03648     0.45708  26.50778     17.11929   8314.94281   -11.15852  1.17064  6635.58146    7e-05  59610.30786  52.32679   21.5895  18.97731  59687.15122 
    13.69192  1.82305  2.11744       0.78816           2033.431  0.05006  0.01291     0.45206  86.80084     16.52801   9792.53037   -12.25484   1.5549  7236.37758    2e-05  59609.21154  52.48569   4.90367  18.97573  59689.30392 
    13.93518  1.68551  1.14059       0.09097          5655.3304  0.25722  0.02494     0.14288  42.75306     16.31425   7822.88621   -11.51522  0.95978  5416.72067    1e-05  59609.95116  52.18616  22.56109  18.94308  59689.30392 
    13.72712   1.7111  1.91845       0.01124          2959.8659  0.02786  0.02616     0.03318  31.89173     17.81838   4293.79703   -13.17075  0.79866  6604.61423  0.00037  59608.29563  52.33687   2.32571  19.02487  59687.15122 
    14.24275  1.77654  1.37108       0.00096         2262.85775  0.00174  0.02408      0.0158  59.47722     16.13104   4987.43497   -16.42653  0.32043  5741.49494    1e-05  59605.03985  52.25975   0.16049  18.97423  59687.37743 
    13.74482  1.82787  1.82466       0.19703         2491.48042  0.08799   0.0616     0.47049  20.47246     16.23581   4710.58682   -12.24415  1.34861   6727.4047    1e-05  59609.22223  52.31816   6.78064  18.95523  59687.15122 
    14.09049  1.86075  0.93822       0.00839         4283.66963  0.03446  0.05011     0.28288  32.76738     16.79412   3236.28297    -8.15844  0.75128  6059.25864    3e-05  59613.30794  52.26404   2.88996  18.98685  59687.37743 
    13.77146  1.70108  1.29719       0.17626         5748.88546  0.06508  0.04902     0.05916  22.87996     17.82998   9618.68982   -10.93925  1.26849  5034.03624  0.00038  59610.52713  52.07527   5.11959  18.98424  59687.37743 
    14.13282  1.84091  1.35824       0.02231         5784.23625  0.00398   0.0439     0.06031  34.91305     17.71346   6622.54875    -9.56973  0.52002  6320.43184  0.00029  59611.89665  52.30542   0.33728  18.98829  59689.43967 
    13.55293  1.66677  1.81327        0.1519         2062.91473  0.01511   0.0449     0.06366  23.56113     20.13986    9332.7202   -12.46802  1.53654  7449.81504  0.07666  59608.99836  52.41806   1.19506  18.97504  59690.44408 
    13.50045  1.41552  1.73436       0.07182         3466.16609  0.26233  0.05599     0.06607  16.87687     18.21017   8950.23286   -12.91516  1.43188  6970.42807   0.0009  59608.55122  52.33295  19.48294  18.94451  59687.37743 
    13.78513  1.60939  1.51268       0.06062         5738.20408  0.18265  0.03427      0.0232  26.59507     16.18155   4278.41435    -9.33267  0.98654  5794.81575    1e-05  59612.13371  52.20936   14.7666  18.97785  59689.43967 
    14.26092  2.06981   1.6971       0.28157          2514.1533  0.06415  0.02094     0.11899  64.62383     16.25382    3046.6681    -7.50372  0.48934  6517.38172    1e-05  59613.96266  52.37545   6.01021  18.95838  59689.30392 
    13.83707  2.12923  2.00654       0.08938         4424.28909  0.04413   0.0496     0.08755  19.89289     16.00463   6554.91679   -14.27713  1.10509  5789.24497    1e-05  59607.18925  52.18536   3.38244  18.97779  59687.15122 
      13.985  1.89008   1.4355       0.12009          5096.7359   0.1443  0.03002     0.01307  39.01071     19.08895   6709.34195    -8.69106  0.83407  5648.38628  0.00682  59612.77532  52.21592  12.46576  18.98044  59689.30392 
    13.53416  1.50543  1.74531       0.17722         2672.42083  0.01983  0.02595       0.243  38.47171     16.47741   9880.65164   -11.62877  1.45767  6990.81237    2e-05  59609.83761  52.40012   1.70922  18.99164  59689.30392 
    14.01629  2.19604  2.28188       0.29633         2148.27325  0.07634   0.0928     0.12728  11.49079     17.33849    8661.5423   -10.36008  0.68711  7221.56417  0.00012   59611.1063  52.32991    5.2452   18.9776  59687.37743 
    13.77941  1.74582  2.02653       0.33524         3587.17958  0.04438  0.02475      0.0245  39.70717     16.98404   9465.30401   -13.20244  0.78029  6624.97007    5e-05  59608.26394  52.35573   3.84519  18.99885  59689.30392 
    13.78637  1.61289  1.47438       0.12975         5902.42723  0.07756  0.04168     0.03355   26.0105     20.36574   8608.12837   -11.99862  0.73122  6563.28157  0.12896  59609.46776   52.3158   6.24516  18.97124  59687.15122 
    14.23463  1.82089  1.68312       0.05836         2824.60634  0.02988  0.04021     0.16073  39.14009     17.65383   4499.37237   -10.99027  0.34732  7139.95417  0.00025  59610.47611   52.4197   2.58282  19.00755  59689.30392 
     13.5387  1.26306  1.41104       0.22995         3713.95484  0.13343  0.05716     0.01061  20.08539     16.32838   5896.45655    -8.46808   1.2841  6402.27469    1e-05   59612.9983  52.27358  10.24543  18.94648  59690.44408 
    13.75273  1.92363  1.91509       0.03648         3636.60609  0.00923  0.03283     0.03203  41.79183     16.62313   9014.61166   -13.22889  1.48507  6891.80135    2e-05  59608.23749  52.39372   0.80629   18.9764  59690.44408 
    13.79387  1.93226  1.81277       0.08054         5778.07561  0.00155  0.09575     0.03298  12.55051     16.41107   8220.17993    -13.4065  1.16559   6059.3982    1e-05  59608.05988  52.18549   0.10818  18.96177  59689.30392 
     13.6379    1.511  1.67852       0.43479         2724.76546  0.01056  0.05718     0.07086   19.9559     16.32349    5443.5855   -13.32322  1.01882  6312.08963    1e-05  59608.14316  52.26073   0.80956  18.99377  59687.37743 
    13.83015  1.74677  1.91511       0.10079         4926.13873  0.00309  0.08096     0.03039   11.0512     19.81117   9733.28782   -10.36707  0.67327  7134.51258  0.03597  59611.09931  52.31579   0.21028  18.95698  59684.44757 
    13.72936  1.53542  1.48477       0.02186         4944.44232  0.00247  0.04063     0.02675  26.55007     17.26845    8305.5615   -12.82348  0.87692  6062.45488   0.0001   59608.6429  52.24845   0.19924  18.97933  59687.15122 
    13.62459  1.47942  1.59976       0.10394         5563.09014  0.00135  0.06162     0.22925  14.77303     16.86219   8655.07286   -11.08352   0.9526    6142.948    4e-05  59610.38286  52.21178   0.09761    18.967  59689.30392 
    13.87788  1.45517   1.5807       0.01108         3405.85534   0.0943  0.07529     0.04488  17.41273     16.05327   5237.96692   -12.94203  0.48591  6742.83621    1e-05  59608.52435  52.30675   7.04602  19.01903  59684.44757 
    14.15732  1.57031   0.7449       0.01396         5580.18385  0.01371  0.03451     0.20741  45.65123     17.11941   6651.40138   -12.20273  0.44317   5430.0364    7e-05  59609.26365  52.19296   1.21561  18.96726  59687.37743 
    13.96979  1.56455  0.87597       0.02734         5385.80338  0.05364  0.04217     0.09207  40.19083     16.15884   5164.43823    -9.29603  0.74806  5974.49527    1e-05  59612.17035  52.26684   4.65674  18.97668  59689.30392 
    14.09196  1.51031  1.52605       0.58006         2648.28283   0.0197  0.05667     0.13971  28.29973     19.85946    9193.9865    -9.13036  0.35033    6997.498   0.0402  59612.33602  52.37797   1.61028  18.95151  59690.42196 
    13.91931  1.75092  1.37225       0.11594         4173.65523  0.00286   0.0388      0.0241  26.56853     20.51262   7457.41135   -12.06996  0.59021   6581.1569  0.18086  59609.39642  52.31981   0.23109   18.9613  59687.15122 
    13.60053  1.51231  1.78227       0.04927         5369.48641   0.0424  0.03711     0.02709  26.01394     19.28909   9416.94637   -11.88191  0.91059   7352.1938  0.01081  59609.58447   52.4144   3.41423  18.99372  59689.43967 
    13.44424  1.36216  1.67165       0.55318         2084.56032  0.04345  0.03904     0.14299  24.48356     16.44893   7753.00962   -13.21504  1.41695  6471.32867    2e-05  59608.25134   52.2988   3.46096  19.01211  59687.37743 
    13.86443  1.76662   2.1539       0.34435         2746.33081  0.00688  0.04977     0.09496  19.21343     16.32467   8998.62513    -9.89783  0.59491  7668.61484    1e-05  59611.56855   52.4267   0.52389  18.98381  59687.15122 
    14.43964  1.74093  1.05052       0.19077         3079.15882   0.4313  0.06656      0.4171  26.02724     16.16672   8515.49402   -10.92844  0.32105  6413.92039    1e-05  59610.53794  52.29585  34.73435  18.93693  59687.15122 
