 texplosion  fnickel    Pspin  log(Bfield)      Mns  thetaPB   mejecta    kappa  kappagamma      vejecta  temperature    alpha  cutoff_wavelength  log(nhhost)      A_V         MJD0  kenergy  mnickel            TSD   log(L0)  Peak_mag     Peak_MJD  log(E_rad)  log(Peak_lum)  Rise_Time    E_fold  tau_1  delta_m15     r_peak     frac 
   -1.51799  0.07729   4.2193     14.59781  1.69008  0.70421    4.0085  0.18679     0.20047   7536.79399   4762.77372   0.2087          5422.0677       19.233   0.0095   59093.6656  1.35826  0.30981   178063.81215  45.99569  16.77069  59134.52785    50.66444        43.9898   21.52551  34.97896   36.0    0.27665  -20.49385  0.97082 
   -1.72425  0.09709  5.55133     14.31201  1.86934  1.40635   4.17181  0.12729     0.08017   6293.68482    5088.8789  4.37551         3759.57299     21.03293  0.59932  59093.45935  0.98574  0.40505  1271393.63291  44.94746  16.70578    59130.125    50.61338       43.92352     25.448  34.97896   41.5    0.27036  -21.08988  0.94409 
   -1.73932  0.03223  3.88218     14.31449  1.57713  1.35308  10.78759  0.05829     0.06002   6146.18148   4688.37878  1.15987         3982.41291     20.62387  0.23367  59093.44427  2.43087  0.34765   518631.34241   45.5737  16.76922  59134.52785    50.81876       44.20574   18.83482  29.59758   41.5    0.24944  -20.65375  0.96921 
   -1.93115  0.08631  3.71562     14.26443  1.51834  1.54671   3.47168  0.17781     0.20811   7734.91532   4525.18099  0.18471         3963.46694     18.20472  0.00089  59093.25244  1.23902  0.29965   575959.28689  45.54976  16.75858  59131.66496    51.03622       44.52194   13.82416  26.53618   37.0    0.29717  -20.63672  0.97413 
   -1.28155  0.02344  3.05944     14.55025  1.65589  0.77274  14.73115  0.03567     0.03683   5840.28991   4756.51379  0.85982         3265.55487     19.35927  0.01271  59093.90204  2.99732  0.34531   114189.57982  46.45897   16.7391  59137.39075    50.77915        44.1209   21.52551  34.97896   39.0    0.26364  -20.49205  0.98241 
   -2.82624  0.06528   4.3768     14.43301  1.57695   0.6009   3.02701  0.21197      0.2125     9446.541   4825.88915  0.12826          4302.4814     20.75451  0.31567  59092.35735  1.61134   0.1976   381878.89629  45.60242  16.62576  59134.52785     50.7378       44.08808   21.52551  32.28827   38.0    0.31577  -20.86279  0.97739 
   -2.04005   0.0428  6.41693     14.41666  1.74168  0.77843   2.50067   0.2268     0.32939   8984.91743    4194.3246   1.2029         3355.99578     17.31745  0.00012  59093.14354  1.20424  0.10702   977489.42432  44.90505  16.72671  59137.39075    50.88298       44.25585   20.06662  32.28827   39.0    0.31416  -20.63818  0.97716 
   -1.43191  0.09512  2.79444     14.59315  1.67101  0.82044   6.94066  0.10403     0.09557   8526.69219   4979.22138  0.03948         5259.53818     19.20672  0.00894  59093.75168  3.01016  0.66018    78902.23478  46.70214  16.63839  59134.52785    50.75202       44.06347    24.2162  34.97896   34.0    0.32817  -20.63372   0.9733 
   -1.31234  0.02639   2.1263     14.55922  1.94739  0.79828  15.34978  0.04939     0.04942   7748.42133   5636.49895  0.39254         2503.46388     20.84888  0.39229  59093.87125  5.49738  0.40511    62239.85509  47.10898  16.55611  59134.52785    50.91055       44.26036   18.83482  34.97896   37.0    0.26197  -20.94736   0.9924 
   -0.97251  0.03486  0.94694     14.46559    1.685  1.17263  13.91404  0.03678     0.03347   6102.10964   4624.45437  0.01297         2767.93736     19.12491  0.00741  59094.21108  3.09058  0.48506    16438.98203  48.32692  16.63182  59137.39075     50.7497       44.05971    24.2162  34.97896   35.5    0.30718  -20.60218  0.99898 
   -1.36107   0.0357  1.69396     14.61856  1.50737  0.74917  19.58538   0.0434     0.02186   6900.71402   4675.00078  0.21028         5419.50248     16.30189    1e-05  59093.82252  5.56349  0.69911    23265.68833  47.62254  16.72499  59134.52785     50.7664       44.12398   15.66714  35.45595   37.0     0.2492  -20.51886  0.99042 
     -1.898  0.04856  4.33781     14.27656  1.53438  1.27892    3.3764  0.17142     0.18492   8464.89564   4924.16344  0.01108         4268.04284     17.60936  0.00023   59093.2856  1.44319  0.16396   750192.12313  45.30507  16.61375  59131.07635    50.85404       44.28123   16.14413  29.59758   36.0    0.33939  -20.60128  0.98081 
   -1.31673  0.04489  2.17771     14.89356  2.04604  0.60544   16.5115   0.0447     0.02647   7102.76951   4996.00037  0.22812         4821.64605     19.48258  0.01688  59093.86687    4.969  0.74126     14709.9967  47.73615  16.83381  59131.66496     50.5437       43.78105   30.01461  41.17511   35.5    0.29809  -20.55671  0.98917 
   -1.72623  0.01914  2.69773     14.41087  1.63247  1.14176  11.72797  0.05841      0.0682   7009.14532   4950.33575  0.01753         5167.43367      17.7806  0.00034  59093.45736  3.43701   0.2245    166312.9827  46.39877  16.79683  59134.52785    50.60271       43.83928   28.78281  41.17511   36.0    0.28117  -20.54809   0.9909 
   -1.39229  0.02202  2.22483      14.6638  1.65212  0.58787  17.05474  0.04865     0.03238   6642.08524   4934.63903  0.56361         3741.24463     19.67098  0.02604   59093.7913  4.48829  0.37551    35714.70798  47.23945  16.80923  59134.52785    50.78945       44.15989   21.87151  30.48338   38.5    0.22424  -20.63859  0.99029 
   -0.93254  0.03243  2.04027     14.86916  1.71544  0.41182   19.3949   0.0373     0.03086    6871.3538   4487.13982  0.26403          3236.3364     19.63279  0.02385  59094.25106   5.4626  0.62893    12112.75016   47.8006  16.85365  59134.52785    50.76714       44.11872   16.14413  34.97896   37.0    0.26679  -20.56086  0.98801 
   -2.03848  0.22385   4.4226     14.40987  1.51719  0.97264   2.71642  0.27607     0.35441   9204.29578   4358.06419  0.03584          4925.4035     19.90141  0.04427  59093.14511  1.37279  0.60807   417319.66026  45.53806  16.78034  59134.52785     50.6859       43.98972    24.2162  37.66965   35.5    0.32948  -20.57782  0.92893 
   -0.92408  0.04544  1.47463     14.56446  1.54508  0.72707  14.08904  0.05886     0.02823   6800.53812   4443.47072  0.27042          2954.0898       18.462  0.00161  59094.25951  3.88683  0.64014    23185.59504  47.75521  16.67035  59134.52785     50.7921       44.16555   20.63971  30.48338   38.0     0.2319  -20.63595  0.99342 
   -1.48746  0.04305  2.02926     14.54757  1.52571  0.79368  12.01482  0.07806      0.0434   7688.71569   5141.04178  0.01168         2840.88886     18.58013  0.00211  59093.69614  4.23694  0.51724    46862.25547  47.16682  16.59696  59131.66496    50.70991       44.03869   21.52551  34.97896   36.0    0.25616  -20.55739  0.98802 
   -2.31634  0.06685  3.84176     14.53716  1.53557  0.58023   4.52176  0.17729     0.13724   7418.38999   4622.82192  0.04542         4595.78151     19.56363  0.02034  59092.86725  1.48441  0.30226   177345.04036  46.03724  16.73036  59131.66496    50.70431       44.04503   20.63971  33.17407   39.0    0.25804  -20.52238   0.9726 
   -2.17707  0.05457  5.67082     14.51208  1.64722  0.61847   3.71289  0.18291     0.30873   9106.61494   4405.82522  0.51268          4009.3018      19.1923  0.00865  59093.00653  1.83676  0.20262   465262.73904  45.31061  16.54384  59134.52785    50.87859       44.23801   18.83482  34.97896   37.0    0.31397  -20.64118  0.96397 
   -0.93879  0.06345  3.14578     14.33154  1.45326  1.29709   5.89978  0.16053     0.12737   7755.52587   4751.32851  3.95078          2064.4009     17.94584  0.00049   59094.2448  2.11683  0.37435   290087.93664   45.9732  16.77505  59134.52785    50.93046       44.35794   15.66714  30.07457   38.5    0.23212  -20.54063  0.97548 
   -2.01695  0.05838  2.60772     14.35303  1.43745  1.33932   9.19685  0.06565     0.11035   8074.00322   4881.58235  0.05436         3395.11925     18.88668  0.00428  59093.16665  3.57638  0.53694   178595.28852  46.34205  16.78615  59137.39075    50.79638       44.13301   21.52551  34.97896   34.0    0.36207  -20.58666  0.97594 
   -1.84682  0.09894  3.73444     14.31852  1.47426  1.42465   4.15454  0.24179     0.28323   9301.84892    4553.9861  0.19337         4834.39811     19.33439    0.012  59093.33677  2.14431  0.41104   440360.72541  45.64916  16.66891  59131.66496    50.64839       43.96469     25.448  34.97896   35.0     0.2846  -20.64986  0.96307 
   -1.59469  0.06641  6.00218     14.67004  1.66719  0.46591   4.65817  0.16074      0.1423   8834.88188   4875.66683  2.28384            3493.13     19.63828  0.02416   59093.5889  2.16892  0.30934   254882.55288  45.52787  16.69529  59134.52785    50.90406        44.3048   16.14413  32.28827   38.0    0.28918  -20.66214  0.94099 
   -1.18719  0.04809  0.91841     14.64847   1.2645  0.46618  11.92791  0.06539     0.05565    7438.1016   4866.70375  0.18548         2457.57191      17.7055  0.00028   59093.9964  3.93655  0.57366     4998.79403  48.74582  16.93898  59134.52785    50.86032       44.26547   20.06662  29.59758   34.5    0.29598  -20.62462  0.99811 
   -1.76683  0.08924   3.7792     14.47285  1.59902  1.05958   6.74103  0.10143     0.13661   8724.64132   4561.36524  0.11474         3817.08001     19.77467  0.03307  59093.41676   3.0609  0.60157   240311.40582  45.93713  16.58562    59129.069    50.69196       44.03474   21.52551  32.28827   34.0    0.35457   -20.5607  0.95186 
   -1.13976  0.06115  7.13025     14.52718  1.81691  0.70176   2.77329   0.2574     0.36267   9171.58229    4542.8625  1.65745         4375.64626     18.08842  0.00068  59094.04383  1.39159  0.16959   756825.30559  44.94297  16.67709  59131.66496    50.72976       44.09711   18.83482  32.28827   36.5    0.31547  -20.69452  0.95889 
   -2.06893  0.00604  3.66676     14.44136   1.9552   1.2716  16.91586  0.02546     0.03418   5692.10427   4528.26199  0.15394         4347.97887     16.94196    5e-05  59093.11466  3.26939  0.10225   319785.28754  45.92661  16.81323  59131.66496    50.59217       43.86552   26.90689  37.66965   40.5    0.28145  -20.44383  0.99403 
   -2.00397   0.0591  5.30135     14.23986  1.48324  1.22259   4.05473  0.15772     0.15062   9121.50467   4729.00363  1.60502         2680.41503     18.74371  0.00308  59093.17963  2.01244  0.23965  1282568.96892   44.8832  16.73672  59131.66496    50.93478       44.35752   13.82416  31.91756   38.0    0.31208  -20.61377  0.95675 
   -1.83513  0.02808  5.14336     14.46043  1.58662  0.73207   8.43302  0.07297     0.05631   7242.79743   4595.00316  0.20077         5543.70907     17.12419    7e-05  59093.34847   2.6389  0.23682   467662.01377  45.37689  16.61377  59134.52785    50.82335       44.15987   18.83482  34.97896   39.5    0.27369  -20.45127   0.9635 
   -1.86295  0.04129  6.98218     14.80473  1.78972  0.40353    6.9413  0.09448     0.08211   6330.14389   4612.68232  4.62605          3082.6561     17.90015  0.00044  59093.32064  1.65919  0.28664   199120.80447  45.53453  16.71014  59134.52785    50.59136       43.83659   30.01461  41.17511   43.5    0.23271  -20.31059  0.93393 
   -1.14671  0.04704  0.92122     14.67294  1.58611  0.66225  17.22984  0.03755     0.01865   5551.56587    4494.7769  0.39978         4430.61831     18.22862  0.00094  59094.03688  3.16767  0.81048     5636.43497  48.78945  16.65129  59131.66496    50.69381       44.02639   22.75731  34.97896   40.5    0.23564  -20.50968  0.99861 
   -1.40681  0.06031  3.44644     14.32426  1.49133  1.08543   5.82416  0.07847      0.0666   6478.53499   4701.14117   0.2729         2885.82104     17.75935  0.00032  59093.77678  1.45819  0.35126   369500.75221  45.80006  16.60039  59134.52785    50.93547       44.33488   16.14413  32.28827   40.5    0.28336  -20.46353  0.97328 
   -2.31123  0.12363  3.33393     14.76049  1.60083   0.3985   4.40224  0.20836      0.1869   8432.74999   4459.31274  0.19209         2264.11767     20.23415  0.09525  59092.87237  1.86741  0.54423    49785.58699  46.73017  16.78527  59137.39075    50.79844       44.12222   16.14413  40.36034   37.0    0.25964  -20.64129  0.96563 
   -1.51994  0.02009  2.29457     14.65505  1.76032  0.60792  14.80065  0.03545     0.02729   5754.76189   4872.34649  0.12806         5444.02432     17.86825  0.00041  59093.66365   2.9239  0.29731    42141.77867  47.16832  16.58025  59137.39075    50.85301       44.21061   18.83482  34.97896   38.0      0.274  -20.51352  0.99243 
   -2.05407   0.0638  3.80738     14.38415  1.62644  1.11382    4.8113  0.17945     0.15796   7941.89311   4919.31326  0.49924         2207.50087     19.80921   0.0358  59093.12953  1.81025  0.30697   373258.53602  45.74682  16.77128  59131.66496    50.63844       43.95308     25.448  34.97896   37.5    0.24674  -20.56747  0.97493 
   -1.57292  0.09672  2.44492     14.74996  1.76174    0.512    4.4544  0.16161     0.09774   5892.39878   4799.38383  0.16245         4654.53555     20.16483   0.0812  59093.61067  0.92257  0.43083    30928.86794  47.24789  16.65439  59137.39075    50.78145       44.11393   21.52551  34.97896   40.0    0.22925  -20.45915  0.98763 
   -3.89409  0.25444  7.42583     14.96028  2.16745  0.10201    2.6703  0.21763     0.02066   7611.69566    4922.0631   4.1913         3942.59072      17.2587   0.0001   59091.2895  0.92289  0.67944   133258.54577  45.73861  16.80423  59134.52785    50.86536       44.26397   15.76627  32.66614   42.5    0.26066  -20.73183  0.86414 
   -2.13317  0.06499  4.73211     14.63228  1.84173  0.67349   6.51332  0.12974      0.1216   8246.79024   4630.93047  1.56595         2015.60098     19.34472  0.01229  59093.05042  2.64241  0.42328   208257.88453  45.86536  16.87004  59137.39075    50.92859       44.33241   16.89894  32.76526   38.0    0.26169  -20.54092  0.95642 
   -1.73223  0.03196  2.42762     14.53104  1.87758   1.3311  12.78654  0.06367     0.08927   7232.16432   5137.35697  0.10792         3705.89529     19.98801  0.05404  59093.45137  3.98948   0.4086    89062.68812  46.82239  16.54945  59131.66496    50.75491       44.10134   20.63971  33.17407   36.0    0.25121  -20.56109  0.98983 
   -3.09327  0.08454  4.59347     14.52788  1.60117  0.73894   6.32422   0.1548     0.15506   8331.48785     4617.286  1.63546         2740.56141     20.17782  0.08367  59092.09032  2.61866  0.53465   275921.13657  45.70822  16.78866  59137.39075    50.90828       44.28725   18.83482  32.28827   40.0    0.24094  -20.50535  0.93725 
   -1.73624  0.01551   1.5599     14.49484  1.75522  1.10639   21.7384  0.04773     0.03524   7020.53515   4926.64691  0.02533          2728.6439     19.99903  0.05543  59093.44736  6.39139  0.33715    40612.25742  47.51832  16.77945  59131.07635    50.67058       44.01618   21.52551  32.28827   38.0    0.23307  -20.67398  0.99675 
   -1.65347  0.09787  4.18213     14.40819  1.76072  1.16147   2.81065  0.17492     0.27449   7725.11369    5690.0221  0.14195         5111.66761     20.51221  0.18069  59093.53012  1.00056  0.27507   436435.46024  45.63182  16.77225  59137.39075    50.89479       44.24015   18.83482  34.97896   36.0    0.34782  -20.63697  0.97587 
    -1.8291  0.05383  3.95359     14.69195  1.81103  0.53514   5.07379  0.10118     0.10214   6936.96991   4834.59845  0.41478         2164.11078     19.28251  0.01065  59093.35449  1.45646  0.27313   108599.14919  46.29696  16.71627  59137.39075    50.90615       44.27849   15.76627  35.35683   38.5    0.30285  -20.50379  0.97945 
   -1.35138  0.10011  3.29342      14.5352     1.61  0.93187   5.26594   0.1428     0.27906   8030.08096   4795.41744  0.76652         2143.25368     18.85119  0.00394  59093.83221  2.02555  0.52718   137893.63401  46.30083  16.66823  59131.07635    50.65558       43.97554     25.448  32.28827   35.5    0.30166  -20.48219  0.96815 
   -2.11067  0.08316  4.75166     14.82864  1.79217  0.38515   5.35479  0.11307     0.10552   8400.36377   4759.14078  0.07369         3265.12121     17.65853  0.00025  59093.07292  2.25406  0.44531    82717.26249  46.25094  16.67365  59131.66496    50.71487       44.04223   21.52551  34.97896   36.5    0.33527  -20.57192  0.95202 
   -1.27857  0.01091  1.84184     14.37026  1.43655  0.82526  16.22263  0.03016     0.02682   5879.55702   4918.69575  0.18106         2043.59394     19.79377  0.03455  59093.90502  3.34532  0.17705    82245.88089  46.98055  16.75089  59134.52785    50.84513       44.23476   16.14413  32.28827   38.5    0.26754  -20.55737  0.99602 
   -1.80393  0.06522  4.92081     14.48284  1.89924  1.20004   5.69138  0.05831     0.03932   5230.70049   5553.63568  0.51325         5344.42659      19.9033  0.04447  59093.37967  0.92889  0.37118   462160.15225  45.49856  16.87563  59131.66496    50.73835       44.11233   18.83482  32.28827   42.0    0.29855  -20.40737  0.96037 
   -1.69056  0.03347  5.55669     14.33325  1.60312  1.12279   8.03379  0.07141     0.04544   6321.52098   4587.99425  2.22871         3610.73772     19.94615  0.04908  59093.49303   1.9151  0.26887   990647.51087  44.98826  16.81596  59128.80207    50.48292       43.71045   28.78281  41.17511   42.5    0.24898  -20.55079  0.95282 
   -2.12766  0.20728  6.59603     14.86488  1.62739  0.32862   3.47718  0.24902     0.20323   8705.33853   4262.39092  4.31663           2667.874     19.20806  0.00897  59093.05594   1.5719  0.72074   122491.73903  45.75366  16.63577  59134.52785     50.7396       44.07627   21.52551  34.97896   41.5    0.24617  -20.38615  0.84544 
   -1.30876  0.03825  1.85336     14.25553  1.34038  1.09771   9.06642  0.03589     0.04701   5693.83079    4393.3762  0.15373         5047.14867     18.62615  0.00235  59093.87483  1.75336  0.34676   131793.05969  46.74026  16.60437  59134.52785    50.85379       44.21597   18.83482  34.97896   39.5    0.33067  -20.55324  0.99125 
   -1.12595  0.05305  2.16391     14.41151  1.42494  0.96577  11.10153  0.04434     0.05165   7106.06302   4513.65593  0.05739         3552.87155     18.46183  0.00161  59094.05764  3.34401  0.58895    93126.25743  46.78309   16.5941  59131.07635    50.74531       44.10642   20.63971  33.17407   35.5    0.34598  -20.54378  0.98196 
   -2.08161  0.04591  6.03369     14.52055  1.82382  0.86615   7.54875  0.07087      0.0897   7747.69693   4790.30742  1.04634         2679.52665     18.32806  0.00118  59093.10198  2.70301  0.34655   560875.57694  45.21979   16.5705  59131.07635    50.83297        44.2189   18.83482  32.28827   39.0    0.31453  -20.43685   0.9417 
   -1.63331  0.05488  2.23433     14.34554  1.25102  0.86675    8.5147  0.09448     0.11511   7328.94873     4713.889  0.03778         5516.33976     18.90073  0.00442  59093.55028  2.72822  0.46731   118112.12777  46.59552  16.70547  59137.39075    50.97539       44.38252   16.14413  32.28827   37.0    0.27422  -20.54206  0.98096 
   -2.03095  0.03341   0.9113     14.34452  1.41143  1.10251  19.62844   0.0303     0.01093   5658.15984   4611.59792  0.06634          2616.8592     18.82893  0.00375  59093.15265  3.74855  0.65581    22271.89618  48.15142  16.71583    59129.069    50.62651       43.86776   30.01461  41.17511   40.0    0.24737  -20.54427  0.99795 
   -1.66663  0.04219  1.36035     14.53032  1.31918  0.60587  16.79853  0.02829     0.02945   5997.58195   4641.86722  0.20804         2320.31457     20.43491  0.15123  59093.51696  3.60455  0.70873    19713.97188  47.82707  16.80915  59134.52785    50.83146       44.22855   16.14413  32.28827   39.0     0.3067  -20.46096  0.99195 
   -1.06377  0.02299  2.29711     14.30884  1.54113  1.23447  11.11028  0.02751     0.02324   5060.92686   4801.45189  0.19836         4028.26851      20.1295  0.07486  59094.11982  1.69751   0.2554   182110.21651  46.47399  16.73905  59134.52785    50.79124       44.16803   16.14413  32.28827   43.0    0.29943  -20.40433  0.99182 
