 log(Bfield)      Mns    Pspin  cutoff_power  cutoff_wavelength  fnickel    kappa  kappagamma   mejecta  log(nhhost)  temperature  texplosion  thetaPB     vejecta      A_V        MJD_0   log(KE)      M_Ni  Peak_mag     Peak_MJD 
    13.90584   1.8231   5.9865       2.69665         2822.46724  0.04374  0.04377      0.0845  24.36174     17.80157   4958.44005    -7.93812  1.20762  4001.15113  0.00035  59336.39388  51.88079   3.48069   18.7131  59423.19831 
    13.80875  1.71139  5.06748       0.15181         3562.10446  0.00646  0.07573     0.04975  12.98051     17.28482   3873.92669    -6.55417  1.49418  3797.79326  0.00011  59337.77783  51.78271   0.45533  18.68616  59420.51236 
    13.80843  1.65188   4.9638       1.00237         3628.24241   0.0013  0.08981     0.01202  14.94963     16.53047   7183.35423    -8.06411  1.48473  3863.32837    2e-05  59336.26789  51.80998   0.09428  18.69956  59426.26529 
    13.98428  1.63556  5.10583       0.03941         4992.07261  0.02254  0.06727     0.05842  14.73993      16.0957   4580.81305    -6.23899  0.70993  4197.86774    1e-05  59338.09301  51.88089      1.63   18.6704   59424.2604 
    13.93293  1.89848  4.87461       0.14087         4565.44379  0.01384  0.05089     0.02894   23.6261     20.60375   4024.19815    -7.38891  1.28689  4155.20347  0.22309  59336.94309  51.91117   1.09543  18.67974  59426.26529 
    13.81007  1.52482  4.69266       0.13687         2600.10851  0.00325  0.02818     0.01854  30.51559     16.73214   3226.52581    -5.39281  0.82318  4355.76833    3e-05  59338.93919  51.97197   0.26919   18.7179  59425.36959 
    14.07276  1.96139  6.71647       4.13089         2682.90226  0.07879  0.04887     0.05285   25.0212     18.47827   4729.47724    -5.86481  1.20246  3821.65763  0.00167  59338.46719  51.84302   6.29998  18.67071  59426.26529 
    13.92872  1.48625  4.37038       0.02015         5228.75559  0.01226  0.05499     0.06113  20.59144     20.22687   3046.09909    -5.71331  0.79848  4087.47033  0.09367  59338.61869  51.88585   0.94557  18.68661  59423.19831 
    13.99417   1.9018  5.96602       0.41841         3126.89068  0.06453  0.07183     0.35304  16.92284     16.93656   6719.86324     -6.6267  1.19252  4151.11307    5e-05   59337.7053  51.88299   4.79515  18.71899  59420.51236 
    13.88282  1.86205  5.77708       0.59656         4313.36559  0.03398  0.06408     0.03768  11.15541      18.5781   3239.73951    -6.02236  1.31886  3344.94716   0.0021  59338.30964  51.65871   2.32043   18.7067  59423.99838 
    14.01564  2.05636  5.92457       0.13769         3793.18137  0.00635  0.09876     0.01173   11.3086     18.46899    5680.1209    -7.66066  1.09309   4094.5937  0.00164  59336.67134   51.8356   0.43485  18.70035   59429.2789 
    13.93679  2.00613  6.46371       3.80519         3261.03308  0.03832  0.05222     0.42642  16.38022     17.32662   5066.12734    -5.12128  1.52057  3359.92186  0.00012  59339.21072  51.69656   2.82973  18.67878  59427.20395 
    14.05524  2.03741  5.49354       0.74273         3063.89016  0.00299  0.10709      0.0338  13.42573      19.7331   6130.58849    -6.12714  1.08863  3925.75089  0.03005  59338.20486  51.81449   0.21242  18.70645  59425.20106 
    13.94432  2.06694  6.19571       4.19272         3629.75346  0.00181  0.05337     0.03979  19.53905     18.81342   3165.68424    -7.42946  1.49656  2961.40787  0.00362  59336.90254  51.60164   0.13838  18.66963  59423.28633 
    14.25716  1.67833  4.55328       0.03201         5476.89706  0.01115  0.06664     0.14788  17.40044     20.43834   4301.36164    -6.06944  0.40546  4038.91947  0.15243  59338.26256  51.86154    0.8329  18.70126   59424.2604 
    13.94007  1.88498  5.83493       2.18248         3160.82658  0.02207  0.04156     0.01957  26.31553       17.449   3646.98708    -7.05898  1.06554  3753.58029  0.00016  59337.27302  51.83135   1.78056  18.69028   59424.2604 
    13.75408  1.67657  4.90609       0.08177          3052.1235  0.00209  0.09672     0.01337  10.69772     16.53003   4180.06025    -9.90995  1.38388  4001.81169    2e-05  59334.42205  51.81057    0.1411  18.67258  59425.36959 
     13.8173  1.81759  5.33595       0.59063         3468.13854  0.00378  0.08368     0.16662  10.08791     18.42129   5402.47772    -6.80864  1.06806   4010.5419  0.00147  59337.52335  51.80698   0.25247  18.69196  59423.19831 
    13.71065  1.49019  4.64444       0.30833          4470.7754  0.00611  0.04692     0.05931  16.26641     19.33259   3324.67202    -6.42779  1.41855  3512.97642  0.01195  59337.90421  51.73466   0.45084  18.71666  59426.26529 
    13.90007  1.67722  5.53378          0.22         4116.28847  0.13336    0.095     0.01265  11.59912     18.63544   4656.64082    -7.23737  0.87655  4181.90724   0.0024  59337.09462  51.85625   9.18118  18.71056  59423.19831 
    13.92038  1.91358  5.69962       0.06823         2049.37448  0.04835   0.0845     0.15013    10.488     16.38084   4880.49951    -6.54788  0.96007  4242.35013    1e-05  59337.78412  51.85943   3.25811  18.70729  59423.19831 
      14.308  1.83905  5.45748        0.9013         3236.04401   0.0033  0.12037     0.30786   8.84349     17.47298   5608.25219    -7.79566  0.33111  4140.89012  0.00017  59336.53634  51.82221   0.21421  18.69281  59423.19831 
    13.84895  1.71857  5.28541       0.77827         2607.27901   0.0223  0.05603     0.05152  14.75945      17.5661   3965.70664    -5.14646  1.16174  3894.36747   0.0002  59339.18554  51.81582    1.6132  18.69047  59423.19831 
    14.02157  2.06516  5.80761       0.43514         3213.25847  0.00776  0.12319      0.3183   8.65359     18.84996   3671.42383    -5.96582  1.17755  3754.06111  0.00393  59338.36618  51.73492   0.50131  18.71069  59423.99838 
    13.91928  1.86586  5.42024       0.04817         5998.45632  0.00234  0.06538     0.01696  13.90974     18.75009   4220.18588    -7.18929  1.02968     3904.93  0.00312  59337.14271  51.81299     0.167  18.68571  59423.99838 
    13.76923  1.65556  4.88724       0.09907         4546.42952  0.00358  0.07035     0.04402  12.24165     19.94641   4868.96199    -7.28457   1.5361  3787.16826  0.04911  59337.04743  51.77502   0.24924  18.69266  59425.36959 
    13.92577  1.69414  5.40926       0.48251         3348.19869  0.03819  0.06334     0.41025  14.56668     18.72798   6325.32096    -4.85957  1.03795  3750.38429  0.00297  59339.47243  51.78195    2.7551  18.66679  59426.26529 
    13.85026  1.70552  5.16787       0.20931         3667.46569  0.00725  0.04536     0.02863  21.30401     16.48149   6931.17865    -5.91747    1.215  4054.84516    2e-05  59338.41453  51.88165   0.56274  18.72623  59425.20106 
    14.10405  2.01002  5.86238       0.65137         3312.08449  0.00771   0.1094     0.06943    7.3663     17.17303   8068.24271    -6.48185  0.59088  4029.95116    8e-05  59337.85015  51.78057   0.48022  18.70734  59423.99838 
    13.91038  1.79338  5.36857       0.38687         4073.72196  0.00334  0.07428     0.15207  14.56435      17.4109   3643.26295    -6.05871  1.37295  3877.92589  0.00014  59338.27329  51.81099   0.24117  18.69383  59423.19831 
    13.71943  1.63623  4.97484       1.57082         2489.29573  0.01661  0.05457     0.01899   17.3522     18.66643   7728.13649    -7.24815  1.55449  4106.98201  0.00258  59337.08384  51.87582   1.24007  18.69638  59423.28633 
     13.9288  1.58974  4.94136       0.30701         3680.99059   0.0064  0.04726     0.03564  18.61973     19.16293   5278.91463    -4.71876  0.87127  3700.45117  0.00808  59339.61323  51.79118   0.48431  18.69922  59423.28633 
    14.13075  1.92241  5.53497       1.73204         2667.01757  0.00136  0.06034     0.03072   17.4081     16.14671   5725.04623    -6.30482  0.61042   3780.5016    1e-05  59338.02718  51.80415   0.10131  18.72227   59424.2604 
    13.69747  1.36139  4.45976       0.05408         3877.20043  0.01839  0.02995     0.17014  32.00228     17.80561   4218.69988    -5.15803  1.47857  3945.06276  0.00036  59339.17397  51.88954   1.53587  18.69821   59424.2604 
     13.9192   2.0219  5.70623       1.96225         3442.70936  0.00683  0.04001      0.0558  26.91241     20.18105   4644.62031    -7.83348   1.5312    3459.998  0.08429  59336.49852  51.76236   0.55319  18.75105  59423.19831 
    13.82595  1.45785  4.56067       0.03147         4597.48535  0.00774  0.14224     0.05716   8.44393     16.05978   3991.69972    -4.91723   1.3149  4243.79271    1e-05  59339.41477  51.83904   0.49747  18.67449   59424.2604 
    13.90402  1.69994  5.18579       0.11246         2659.99167   0.0124  0.07356     0.04591  12.40861     16.49868   6393.98695     -4.9177  1.14914   3954.4615    2e-05   59339.4143  51.81379   0.86593  18.70263  59423.19831 
    14.21451   1.5062  4.58033       0.11681         5906.99396  0.00469  0.03892     0.09979  21.54879     19.54368   5576.71096    -4.85763  0.33751  3688.35336  0.01943  59339.47437  51.80029   0.36487  18.64762  59427.20395 
    14.30458  1.62203  4.47037       0.11099         5646.25539  0.00474  0.05297     0.19904  20.06637     20.40422   4223.00639    -6.80547  0.32843  3794.33978  0.14091  59337.52653   51.8191   0.36424   18.6746  59423.99838 
    14.15767  1.70076  4.68545       4.54616         3144.84495  0.01087  0.01721     0.25727  66.66975     20.72986   3032.23966    -4.67134  0.46524  3705.32557  0.29826  59339.66066  51.88704   1.02332  18.67185  59423.19831 
    14.02673  1.92868  5.58729       1.06913         2251.03198  0.00353  0.11835     0.14803   7.56002     17.43352   7946.43987    -5.28275  0.75486  4096.57736  0.00015  59339.04925  51.79742    0.2211  18.69044  59423.19831 
    13.83659  1.77503  5.39426       0.72429         3704.03798  0.01516  0.02723      0.0118  31.61699     19.17368    4454.3723    -6.76998  1.02543  3794.80251  0.00829  59337.56202   51.8549   1.26314    18.697  59423.28633 
    13.78303  1.64405  4.95291       0.44776         2164.85627  0.00277  0.02766     0.14373  39.04332     17.14849   8379.93354    -6.61288  1.56578  4198.42843    8e-05  59337.71912  51.95831   0.23922  18.69049  59423.19831 
    13.86901  1.54437  4.63792       0.42482         3915.61234  0.00235   0.0488     0.39483  21.51962     19.28625   4034.55057    -6.59776  0.98352  3552.80409  0.01074  59337.73424  51.76766   0.18285  18.69702   59424.2604 
    13.88076  1.57089   4.6387       3.32546         2221.78437  0.00586  0.14208     0.23329   7.21708      20.1304   9793.43647    -5.66829  1.01941  3736.68465  0.07501   59338.6637  51.71288    0.3634  18.68292  59427.20395 
    13.74238  1.61133  4.97622       0.93423          3480.8496  0.00236  0.02214     0.27531  42.66795     17.30791   3486.21535      -6.975  1.35246  3932.17378  0.00011    59337.357   51.9078   0.20703  18.69841  59420.51236 
    13.79931  1.12249  3.76655       0.08061         4979.73785   0.0139  0.06735     0.01981  13.43451     17.40162   3119.97349    -5.07447  0.67178  3763.63042  0.00014  59339.25753  51.77791   0.98638  18.70066   59424.2604 
    14.48435  1.97536  5.55946       0.03127         3141.20728  0.00257  0.08176     0.44615  14.28757     18.48973   3873.19746    -9.77158  0.23757  4234.17559  0.00172  59334.56042  51.88565   0.18446  18.67574  59426.26529 
    14.06803  1.44898  4.46714       0.05255         5278.28754  0.00279  0.03647     0.19571  32.57165     17.34977   4868.16086    -6.03842  0.47525  4169.57662  0.00012  59338.29358  51.93894   0.23336  18.70263  59423.28633 
    14.12712  2.04893  5.85603       3.14076          2472.1394  0.00438  0.13395     0.01025    8.3076     19.05805   5340.51823    -5.34076  0.82456  3663.91252  0.00635  59338.99124  51.70982    0.2801  18.68858  59423.99838 
    14.39252  1.97691  6.04755       1.50304         3133.68437  0.00467  0.05605     0.40334  17.67962     17.95765   4436.32765    -3.60825  0.39117  3903.28691   0.0005  59340.72375  51.83321   0.34981  18.68533  59423.99838 
    13.76533  1.42768  4.62349       0.00401          2737.5031  0.05019  0.09452     0.09903  10.63938     16.93519   9029.98812    -6.20931  1.04737  4131.38454    5e-05  59338.12269  51.83774   3.39263  18.71166  59423.19831 
    13.83785  1.69774  5.59084       2.00471          2073.3486  0.15216  0.09691     0.07887   9.75839     19.43046    7182.9172    -5.77782  1.26219  4033.93614  0.01497  59338.55418   51.8089  10.09494   18.6761  59423.28633 
    13.89764  1.92742  5.57058       0.02474         4775.25452  0.00178  0.05515     0.14948  15.96959     17.72966    3321.1747    -4.91812  1.21688  4082.47186   0.0003  59339.41388  51.86358   0.13072  18.69957   59424.2604 
    13.80572  1.52877  4.83548       0.22237         3945.01469  0.06448  0.08428     0.21176   12.5167     17.35327   4748.29416    -7.31707  1.39146  3658.13058  0.00013  59337.01493  51.74691   4.50989  18.67222  59426.26529 
    13.78415  1.46703  4.44088       0.14065         4440.20978   0.0024  0.04396     0.13537  21.39034      18.7399   4876.06503    -6.75746  0.99787  3573.05007  0.00305  59337.57454  51.77211   0.18613  18.67019  59425.21941 
    13.85193  1.82335  5.02265        0.3757         3675.53559  0.00375  0.08611     0.05379  10.82411     20.07658   7827.24644    -8.08051    0.982  3686.27541  0.06627  59336.25149  51.74032   0.25435  18.67606  59423.99838 
    14.21698  2.03762   5.8441       0.08519         5224.62411  0.00496  0.04635     0.01546  22.61107     19.36005   3820.59652    -6.08256  0.55953  4164.23629  0.01273  59338.24944  51.90956   0.38941  18.64941  59427.20395 
    13.81833  1.61172  4.45488       0.06216         4423.22117  0.00327   0.0831     0.10656  12.67973     20.37374   5968.37692    -8.14978  1.56772  3700.44865  0.13136  59336.18222  51.75806   0.22926  18.68851  59423.19831 
     13.6948  1.78582  5.01536       0.37024         2700.03116  0.01927  0.08034     0.01165  10.37758     16.05262    7304.1343    -8.43546  1.36659  4073.24395    1e-05  59335.89654  51.82311   1.29541  18.73936  59420.51236 
    13.88196  1.69439   5.1318       1.91827         3649.80255  0.00231  0.09669     0.01508   9.95249     18.30881   5234.78046    -8.13429  0.72945  3861.86058  0.00113  59336.19771   51.7729   0.15371  18.72071  59423.19831 
    13.75204  1.51745  4.92696        1.8397          3223.0378  0.01154  0.02866     0.01622  38.72641      19.7865   4573.51456    -6.17601  1.45219   3984.5882  0.03398  59338.15599  51.91231   0.99554   18.7095  59425.20106 
    13.86502   1.7536   5.1214       2.31807         2153.26225  0.00493  0.10756     0.44028  10.54975     19.94006   6371.46057    -5.33619  1.23509  4334.59351  0.04839  59338.99581  51.87866   0.33253  18.68016  59425.36959 
     13.8067  1.75767  5.28078       0.70554         4046.81576  0.00192  0.06714     0.03693  12.98049     19.21829   5713.43977    -6.21471  1.40658  3638.13452  0.00918  59338.11729   51.7454   0.13562  18.67437  59423.99838 
    13.84479  1.71973  5.25326       0.41354         3250.45599  0.02669  0.02549     0.08202  30.42027     19.95521   4100.88607    -8.37442  1.13937  3492.82417  0.05011  59335.95758  51.77995   2.20999  18.72227  59420.51236 
    13.86392  1.76916  5.32481       0.18872         2060.33409  0.01232  0.03949     0.01917  25.24553     16.70969   3822.28548     -7.6002  1.01976  4300.77466    3e-05   59336.7318  51.94631    0.9869  18.69912  59426.26529 
    14.41548   1.9385  5.14718       1.24094         3501.01555  0.01469  0.04874     0.02486  29.16253     20.42378   4037.65499    -7.01657  0.30408  3983.32275   0.1474  59337.31543  51.89088   1.20758  18.68227  59423.28633 
    13.80535   1.8049  5.22812       0.06452         4429.87246  0.00118  0.09835     0.02292   7.78851     19.67771   3404.43357    -8.43779  1.23784  3831.86355  0.02645  59335.89421  51.74238   0.07448  18.67347  59423.19831 
    14.32271  1.85786  5.89004       2.82115         3568.31655   0.0038  0.02786     0.03088  39.50579     17.73278   3322.25723    -5.05944  0.37813  3917.81283   0.0003  59339.27256  51.89908   0.32868   18.7143  59420.51236 
    13.84715  1.97083  5.66602       4.40428          2522.8741  0.00384  0.13574     0.07279   5.93723     18.80461   3823.41596    -6.76505  1.19177  3630.52932  0.00354  59337.56695   51.6676    0.2274  18.66688  59423.19831 
    14.11389  1.74915  5.34727       1.10214         2187.19497  0.01744  0.02136     0.10442  44.18765     16.27439    5900.8466    -5.91511  0.65024  3544.07202    1e-05  59338.41689  51.82004   1.53814    18.687  59425.20106 
    13.92349  1.72737  4.95381        0.0355         4352.58002  0.00128  0.04567     0.23092   21.6577     18.24707   5466.59127    -5.75267  1.37497  3470.93715  0.00098  59338.57933  51.74792   0.09962  18.71066   59424.2604 
    13.87371  1.87818  5.62147       3.27416         3359.07523  0.00218  0.07158     0.03695  13.05543     19.79324   6093.35264    -8.22788  1.47145  3006.66548  0.03451  59336.10412  51.58033   0.15396  18.73174  59423.28633 
    13.91764  2.10967  5.96188       0.01847         3432.94447  0.02737  0.03794     0.02232  20.89149     19.31206   4747.99687    -6.47735  1.24277  3825.98394   0.0114  59337.85465   51.8296   2.11729   18.6631  59425.36959 
    13.95728  2.16431  7.31246       3.37929         3274.04226  0.09617  0.04896     0.14035  18.00025     17.05356   3989.75648    -4.98113   1.3851  3812.77884    6e-05  59339.35087  51.81433   7.23223  18.68327  59423.19831 
    13.88473  1.91574  5.43412       0.03573         5539.12799  0.00341  0.04147     0.01441  28.25561      18.5061   3085.15864    -7.98061  1.51648  4101.07613  0.00178  59336.35139  51.91376   0.27865  18.69116  59425.36959 
    13.88221  2.14199  5.89652       2.75278         2431.02783  0.00176   0.1039     0.04192   9.96816     16.73983   4328.48581    -7.37458  1.47579  4063.62795    3e-05  59336.95742  51.81728   0.11753  18.69237  59423.99838 
    13.70402  1.57107  4.70129       1.48129         2514.01896  0.00106  0.06216      0.1438   12.5801      19.3972   3158.01563    -6.91711   1.0926  3993.87475  0.01387  59337.41489  51.82363   0.07392  18.69578  59423.28633 
    13.98961  2.14174   6.3721       2.94467         2646.52141  0.05018  0.10287      0.1734  10.45849     18.90794   4752.43089    -7.13469  1.46992  3873.39234  0.00449  59337.19731  51.78014   3.37932  18.70431  59423.19831 
    13.80933  1.63685  5.34432       0.62718         3827.31168  0.04079  0.05433      0.0201  17.78524     18.67877    3946.8692    -6.42066   1.2505  4024.30625  0.00265  59337.91134  51.86023   3.06034  18.68826  59423.99838 
    14.39066  2.00732  6.02243       2.81448         3181.68379  0.00475  0.11041     0.14485  11.44711     18.36579   3664.17774    -5.01408  0.38217  4116.80637  0.00129  59339.31792  51.84142   0.32597  18.69915  59423.28633 
    13.74972  1.55735  4.78806       0.57626         3374.27813  0.00255  0.09263      0.1161   9.84034     18.51715   6914.11235    -6.73128  1.28382  3728.43485  0.00183  59337.60072  51.74129   0.16968  18.72505  59423.28633 
     13.9504  1.93359  5.68809       0.29308         3535.09145  0.02046  0.05485     0.06039   20.8144     17.93116   3041.45414    -7.48883  1.50452  3900.68324  0.00047  59336.84317   51.8461   1.58142  18.73212  59423.28633 
    13.87169  1.71223  5.12924       0.10944         4492.79078   0.0286  0.06472     0.37107  17.95596     19.20649   3430.94697    -7.65267  1.50118  3785.20048  0.00894  59336.67933  51.80782   2.14956  18.68062  59423.19831 
    14.29094  1.86623  5.29972       0.05737         4384.29513  0.00984  0.06017     0.06656  18.00715      19.6584   4098.11386    -7.34816  0.35127  4159.73995   0.0253  59336.98384  51.89001   0.73996  18.71042  59420.51236 
    13.73843  1.42381  4.08502       0.17796          5574.9162  0.00131  0.04924     0.09169  15.74849     20.26477   6230.34141    -7.91923  1.07626  3148.17647  0.10221  59336.41277  51.63666   0.09597  18.68787  59423.19831 
