 texplosion  fnickel    Pspin  log(Bfield)      Mns  thetaPB   mejecta    kappa  kappagamma     vejecta  temperature    alpha  cutoff_wavelength  log(nhhost)      A_V         MJD0  kenergy  mnickel             TSD   log(L0)  Peak_mag     Peak_MJD  log(E_rad)  log(Peak_lum)  Rise_Time     E_fold  tau_1  delta_m15     r_peak     frac 
   -6.07851  0.00574  5.96896      13.9534  1.82369  1.05108  38.79682   0.0307     0.04686  3886.88403   3773.77019  3.73455         3857.62569      18.9872  0.00539  59338.25349  3.49644   0.2227   7477729.65916  44.10423  18.70634   59424.2604    50.82954        43.6667   70.32966   103.9546   93.0    0.06988  -20.44253  0.95984 
   -6.06736   0.0035  3.96673     13.98153  1.60051   1.4578  30.08613  0.04726     0.02701  3459.63511   3192.59421  0.46391         5814.82074     16.35199    1e-05  59338.26464   2.1481  0.10534   2546114.63933  44.87036  18.70747   59424.2604    50.90104       43.84345   56.45828   81.00536   79.0    0.06854  -20.44765  0.99008 
   -5.21034  0.01613  4.65819     13.92389  1.54116  1.14492  16.50212  0.08804     0.03691  4783.14221   7751.82044  0.54445         3452.73121     17.93271  0.00048  59339.12166  2.25213  0.26611    4408741.1504  44.47594  18.71235  59423.02965    50.86491       43.82392   56.45828   78.55065   75.0    0.07672  -20.46045  0.96368 
   -7.00817  0.00409  5.47261     14.20924  1.84833  0.46594   9.89827  0.09483     0.02766   4899.2001   3096.20326  0.13724         4310.70308     16.06692    1e-05  59337.32383  1.41722  0.04049   1961109.93984  44.76673  18.69285  59428.67548    50.85167       43.72652   67.77864   91.77737   85.5    0.08392  -20.46102  0.99378 
   -9.41541  0.02832  5.53775     13.97231  2.02065  1.31662  21.58224  0.06445     0.08353  4780.41183   3179.21237  0.24959         4168.49329     20.11039  0.07163  59334.91659  2.94208  0.61116   6536723.42565  44.27231  18.68137   59424.2604    50.89982       43.91654   57.33317   73.50841   89.0    0.07006  -20.57052   0.9233 
   -8.53231   0.0069  5.26827      14.1459  1.87261  0.79284  37.36196  0.02857     0.01961  3950.01486   3105.10153  0.25465         5940.87317     17.86721  0.00041  59335.79969   3.4774  0.25789   2464956.23228  44.70615  18.66904  59425.20106    50.90605       43.77983   64.93806   94.61795   83.5    0.07599  -20.42968   0.9663 
   -5.76276  0.38712  8.47795     14.91946  2.10828  0.86139  15.76051  0.14531     0.01492  5883.62659   7624.72813  2.88868         3378.16886     16.04837    1e-05  59338.56924  3.25453  6.10116    203897.83036  45.42678  18.67142   59429.2789    50.86037       43.77324    63.8224   85.91477   82.5    0.05274  -20.51785  0.36852 
   -6.27386  0.05633  4.71493     14.27647  1.90716  0.60113  13.76077  0.09028      0.0103  4211.41653   3195.93762  0.34947         4870.49634     20.55943  0.20145  59338.05814  1.45588  0.77508   1102080.48669  45.16007  18.70564  59423.19831    50.84905        43.8101   57.33522   77.63035   74.0    0.07534  -20.62223  0.92524 
   -6.57343  0.05218  5.61973     13.95706  1.73599  1.30837  18.37301  0.07231     0.01205  5285.04005   3041.86231  0.21766         3723.47677     17.76444  0.00032  59337.75857  3.06129   0.9587   6203934.18133  44.21629   18.6912  59423.28633    50.86509       43.81623   58.91299   81.00536   71.5    0.08318  -20.47862  0.85662 
   -6.39223  0.00498  5.54332     14.17585  2.17136  1.22804  19.39647   0.0811     0.13938  4641.93388   3915.27508  0.21659         5631.57579     19.84368  0.03876  59337.93977  2.49315  0.09668   2756702.97011  44.67765  18.67877   59427.2413    50.95733       43.91337   56.45828   78.55065   73.0    0.08075  -20.49608  0.98868 
   -6.25243  0.03729  5.12717     13.88441  1.68076  1.47979  13.76847    0.075     0.16223  4532.28888   3097.92601  0.13738         5732.90476     16.53959    2e-05  59338.07956  1.68713  0.51348   6986321.31209  44.23035  18.68702  59426.26529    50.89125       43.77463   65.14121   89.70853   86.0    0.07822  -20.46357  0.92722 
   -7.77512   0.0221   5.3428     13.96112  1.76418  1.22885  31.16738  0.03405     0.01003  4011.39674   4054.02357  0.38032         5354.10319     17.23854   0.0001  59336.55688   2.9917  0.68893   5593108.15104   44.3122  18.68117  59425.20106    50.90135       43.85672   57.37858   80.08506   87.5    0.07151   -20.4526  0.90427 
   -5.94222  0.01771   4.7624     14.09279  1.88888  1.33221   21.0508  0.08006     0.02131  4737.25002    4217.7533   0.2667          4354.1076     20.15304  0.07903  59338.38978  2.81805  0.37274   2594766.25366   44.7753  18.71394  59425.20106     50.8495       43.81704   57.37858   77.63035   72.0    0.07655  -20.52664  0.96155 
   -6.15039  0.00143   6.0818     14.45142  2.10826  0.40422  22.95025    0.062     0.31755    3263.539   3402.17694  4.13103         3979.35701      20.1562   0.0796  59338.18161  1.45812   0.0329    905642.11149  45.06775  18.71019  59423.02965     50.8496       43.83411   55.55178   77.00244   90.5    0.06171  -20.49193  0.99502 
    -6.4154  0.02874  5.22805     14.33215  2.11331  0.55943  12.44555  0.09327     0.30078  4181.40223   3074.04022  0.30578         4601.06715     20.43459  0.15112   59337.9166  1.29803   0.3577   1161898.00337  45.09196  18.67988   59424.2604    50.79418       43.81077   59.09043   73.46379   85.0    0.07766   -20.5719  0.96192 
    -5.7397  0.01562  6.26193     14.12578  2.16614  1.28677  21.30737  0.08803     0.01074  4216.99474   4548.30826  2.81376         3861.64134      17.0255    6e-05   59338.5923  2.26028  0.33276   4419268.48669  44.36577  18.69024  59426.26529    50.90123       43.80709   60.74101   88.99617   81.5     0.0647   -20.4661  0.95125 
   -6.54959  0.07426  4.28899     13.62105  1.25973  1.43098   9.58934  0.09271     0.01487   4351.2532   3280.68678  0.62786         4392.17746     19.72227  0.02931  59337.78241  1.08304   0.7121  12322513.70618  44.01371  18.69098  59425.36959    50.85327       43.79729   60.74101   86.54146   82.5    0.07385  -20.48405  0.89223 
   -5.06232  0.00238  5.00277     14.38618  1.97065  0.57727  19.93288  0.08512     0.02184  4387.93629    3793.8995  0.38454           4976.623     18.17266  0.00083  59339.26968  2.28938  0.04735     773540.4715  45.27655  18.68242  59423.02965    50.80851       43.82799    57.2865   75.26772   71.5    0.07552  -20.45049  0.99476 
    -7.3488  0.00159  5.42364      13.9273  1.88596  1.42854  12.87072  0.07071      0.3058  3917.12861   3271.39974  0.68334         4903.46435     20.07976  0.06676   59336.9832  1.17806  0.02049   7200105.69937  44.21846  18.68834  59426.26529     50.9729       43.86412   59.01008   88.27239   91.0     0.0779  -20.50551  0.99705 
  -10.21372  0.00432   4.7042     13.80865   1.5584  1.38361  16.52733  0.08222     0.40283  5165.32758   3207.49037  0.00726         4584.61394     17.46875  0.00016  59334.11828  2.63042  0.07137   7729913.73803  44.22838  18.65521  59426.26529    50.86354       43.78345   62.48335   84.79912   81.5    0.08255  -20.48963  0.98976 
   -7.61461  0.00452  6.19502     13.99989  2.09596  1.06024  16.08691  0.05191     0.02019  4192.26791   3207.94493  0.70228          4432.6477     16.63836    2e-05  59336.71739  1.68654  0.07278   7473246.45223  44.13263  18.68447  59425.20106    50.85155        43.7998   60.74101   81.63204   97.0    0.07588   -20.4304  0.98815 
   -7.22867  0.01685  4.13495     14.37647   1.6013  0.35718  16.65258  0.10507     0.41554  4896.87765   4117.69803  0.16441         4654.12177     20.38886  0.13602  59337.10333  2.38203  0.28057    449037.35379   45.5881  18.72093  59425.20106     50.8191       43.80652   59.01008   80.90826   75.0    0.07769  -20.59882  0.97161 
   -8.26353  0.00389  6.07546     14.17967  2.18966   0.9367   18.5973  0.07961     0.01696  4992.99166   3849.15984  0.10898         4302.82705      17.4254  0.00015  59336.06847  2.76566  0.07233   3281013.00038  44.52606  18.67736  59426.26529    50.86666       43.71495   67.80891   97.39858   74.5    0.07998  -20.45274  0.98976 
   -8.52898  0.00131  6.21264     13.98963  2.17556  1.28588  16.02866   0.0785     0.02057  4355.90617   3344.15951  1.02864         4185.65726     16.24868    1e-05  59335.80301  1.81418  0.02092   8178649.39439  44.10718  18.70423  59423.02965    50.83906       43.73455   62.10976   88.36948   90.5    0.06934  -20.47745  0.99674 
   -6.45835  0.01206  4.85013     13.94649  1.68665   1.5351  16.96622  0.08217     0.01901  4856.42572   3084.80837  0.04684         4988.00209     18.87735  0.00419  59337.87365  2.38696  0.20467   4713741.60777    44.451  18.70893  59425.20106    50.84251       43.79985   59.09043   80.82792   74.0    0.08471  -20.46421  0.97337 
   -6.74289  0.01124  4.84997     14.07385  1.81578  1.16078  22.35164  0.06131     0.16875  3973.57956    3466.1149  0.35256         5386.17201       18.981  0.00532  59337.58911  2.10523  0.25124    2822686.5015  44.70577  18.67787  59425.85257    50.88939        43.8141   59.09043   83.28263   77.5    0.07382  -20.44278  0.97107 
   -5.20275  0.00308  5.38978     14.00345  1.81961  1.23193   16.8168  0.06642     0.21461  4167.75387   4108.71378  0.70956         4738.30088     19.73902  0.03046  59339.12925  1.74251  0.05173   4830865.95295  44.38166   18.7101   59424.2604    50.99378       43.98825    52.0904   68.93235   81.0    0.07967  -20.47049  0.99237 
   -6.44293  0.00501  5.33445      13.9867  1.89691  1.51924  23.83688   0.0495      0.0742  4068.05728   3504.50398  0.48095         4685.69783     17.89657  0.00044  59337.88907  2.35316  0.11933   5328947.43547  44.36607  18.70846  59425.20106    50.90542       43.77114   65.14121   92.16324   83.0    0.07536   -20.4576  0.98395 
   -8.65133  0.00618  5.46144     13.98517  1.98601  1.30874  19.14425  0.07929     0.03128  4944.93419   3455.54723  0.16505         3985.06209     19.38964  0.01363  59335.68067  2.79246  0.11827   5889341.00562  44.32215  18.70122  59427.20395    50.85617        43.7202    71.9286    93.2789   81.5    0.07238  -20.51736  0.98429 
   -7.63339  0.02821  5.68459     13.91378   1.8581  1.45899  24.67437  0.04823     0.24283  5212.40765   3226.87373  0.06196         2176.02405     17.02975    6e-05  59336.69861  3.99899  0.69604   8293395.18553  44.10978  18.68926  59426.26529    50.88872       43.88817   61.57085   76.09594   86.0    0.07936  -20.48948  0.89763 
   -6.16193  0.01022  5.72618     13.94615  1.83443  1.48265  24.48923  0.06207     0.09859  4621.98673   3598.84195  1.74627         3782.72274     17.43945  0.00015  59338.17007  3.12076   0.2503   7157295.80809  44.16187   18.6471   59424.2604    50.83958       43.81512   57.37779   83.28263   83.5    0.07136  -20.45541  0.95968 
   -7.31755  0.03737  5.30431     14.06813  1.74509  0.89778  24.96614  0.05778     0.05992  4485.97524   3293.36145  0.42617         5242.00942     17.70564  0.00028  59337.01445  2.99704    0.933   3331492.36166  44.53877  18.70165  59427.20395    50.89393       43.84409   57.37858   80.08506   82.5    0.07195  -20.51291  0.87514 
   -5.21185  0.00302  3.83335     14.05718   1.6368  1.22944  27.53526  0.06155      0.0349  3822.56311   3524.35454  0.43911         5623.73432     16.86559    4e-05  59339.12015  2.40008  0.08316   1716368.60368  45.08107  18.71992   59424.2604    50.87218       43.83653   56.45828   81.00536   74.0    0.07031  -20.46733  0.99294 
   -7.10506   0.0163  4.42637     14.16901  1.60461  0.66693  26.51152  0.05133     0.12989  3758.08254   3234.17571  0.47558         5323.75125     17.32455  0.00012  59337.22694  2.23354  0.43216   1340484.90593  45.05486  18.70274  59425.20106    50.88448       43.75583    63.8224    93.2789   81.0    0.06996  -20.44843  0.95116 
   -5.59858   0.0091  5.76991     14.04771  1.86987  0.98216  21.17396  0.06203     0.01312  4082.23981   3969.87277  1.72038         4150.21155     18.95762  0.00504  59338.73342  2.10487  0.19262   4640174.56077  44.35178  18.68921   59427.2413    50.88465       43.80838   60.74101   81.63204   84.5    0.07173  -20.46534  0.96918 
   -6.35978  0.00102  4.86177     13.79548  1.57648  1.19715   9.07637  0.15737     0.01503  5622.02983   4032.63496  2.39394         2410.48016     17.15284    8e-05  59337.97222   1.7113  0.00921    8874199.3947  44.14482  18.70061   59424.2604     50.8536       43.81591   58.91299   83.46007   63.5    0.09192  -20.50941  0.99857 
   -7.69088  0.01102  4.70338     13.90889  1.58399  1.23831  22.37421  0.05478     0.08315  4470.89993   3612.40746  0.28025         5040.88117     17.47043  0.00016  59336.64112  2.66787  0.24664   4950063.60732  44.42917  18.68149   59424.2604    50.88686       43.70797   67.77864  106.50562   80.0    0.07935   -20.4798   0.9669 
   -6.87545  0.00312   4.7529     14.23916  1.79061  0.63479  26.15899  0.05199     0.30897  3818.33628   5279.17301  0.43177         5617.14406      19.3124  0.01141  59337.45655  2.27508  0.08149   1248563.64527  45.07152  18.69608  59423.28633    50.88678       43.88991    52.0904   73.84177   79.0    0.07139    -20.462  0.99059 
   -7.15985  0.00343  4.96034     14.26311  1.83944  0.57394  18.56503   0.0649     0.27423  3671.39587   3564.81859  0.55896         5422.25903     19.73831  0.03041  59337.17215  1.49274  0.06373   1251110.30736  45.04521  18.70117  59425.20106    50.88611       43.83672    57.2865   77.72243   81.5    0.06983  -20.48538  0.99226 
   -6.29271  0.00376  4.67539     14.05092  1.76237  0.97467  18.67008  0.08092      0.2712   4935.0126   3699.90126  0.13493          3542.8137     20.16061  0.08042  59338.03929  2.71238  0.07027   2829443.84331  44.72361  18.65617   59424.2604    50.88072       43.81157   59.09043   80.82792   74.0    0.07981  -20.54152  0.99193 
   -7.17742  0.00916  5.34653     14.20741  1.83475  0.55532  15.59536  0.09371     0.06673  5466.33168   3047.85233  0.00899         3201.52784     16.35603    1e-05  59337.15458  2.77981  0.14286   1873748.94382  44.80357  18.71382  59425.20106    50.82863       43.68199   67.80891   97.39858   78.0    0.08261  -20.51835   0.9796 
   -7.78092  0.01348  5.74255     14.02003  2.00758  1.56158  18.57063  0.07906     0.01228  5151.10224     3626.036  0.04957         3780.96889     17.52413  0.00019  59336.55108  2.93937  0.25035   5605693.83094  44.30468  18.67468  59425.36959    50.80357       43.76849   62.55986    82.2679   70.0    0.08058   -20.4748  0.96476 
    -9.4315  0.01567  5.56845     13.99503  1.84485  0.86113  32.86635  0.03275     0.01727  3775.38695   5776.21198  0.97378         4619.99235     19.71442  0.02878   59334.9005  2.79448  0.51514   5434792.13491  44.30815  18.71537  59425.85257    50.84285       43.84293    55.6406   76.91363  106.0    0.06664   -20.4819   0.9238 
   -8.45551  0.00122  4.60843      13.8965  1.61775   1.4514   19.8147  0.06189      0.3415  4174.25006   3344.82953  0.26855         4654.50078     16.68213    3e-05  59335.87649  2.05955  0.02414    5138483.0815  44.43982   18.6914   59424.2604    50.88332       43.87237    55.6406   76.91363   82.5    0.07666  -20.43586  0.99689 
   -5.65298  0.01942  4.39577     13.94987   1.5516  1.21197  18.57224  0.08083       0.499  4842.54729   8030.89082  0.40756         2349.49249     18.93583  0.00479  59338.67901    2.598  0.36063   3506850.86684  44.62864  18.68311  59425.85257    50.94352       43.86951   59.11614   81.00536   69.5    0.08241  -20.47828  0.95731 
   -8.95765  0.00342  5.70716     14.01103  1.98172  0.97946  16.28108  0.07519     0.41929  5124.75629   3252.74315  0.08496         4004.00287     19.28539  0.01072  59335.37435  2.55068  0.05571   5696894.24855  44.29741  18.66518   59427.2413    50.83877       43.78138   65.21772   87.17732   85.0     0.0825  -20.48474  0.99171 
   -5.42846   0.0179  4.86489     14.23855  1.51382  0.40456  11.33698  0.06946     0.24896  3630.97001   3069.60684  0.63935         5229.92833     17.66858  0.00026  59338.90354   0.8916  0.20296   1109003.06655  45.02984  18.70703  59425.21941    51.02528       44.06581   47.76153    68.3518   89.5    0.08306  -20.40922  0.96842 
   -8.59761  0.02046  4.86178     14.36051  1.64305   0.3412  20.84647  0.06249     0.08351  4230.56579   3533.41834  0.40847         4591.78271      19.3224  0.01167  59335.73439  2.22565  0.42643    685533.88321  45.27488  18.69154  59430.27255    50.91699       43.88548   58.86962   81.00536   86.5    0.07165  -20.46566  0.94321 
   -6.41731  0.03529  4.98943     14.09004  1.68155  0.97886  28.80622  0.05749     0.01172  4195.44533   3041.27614  0.84544         4235.74689     17.10347    7e-05  59337.91469  3.02461   1.0165    2567724.7838   44.6889  18.69325  59425.36959    50.86498       43.81333   58.91299   78.55065   81.5    0.06854  -20.44858  0.87458 
   -6.54359  0.00796  5.48772     14.33903  2.07749  0.57466  20.76005  0.08411     0.02944  5081.30376   6680.30481  0.32561         2661.57659     18.11827  0.00073  59337.78841  3.19747  0.16517   1219223.75142  45.02152   18.6893  59426.26529    50.88382       43.67497   73.84439  115.37127   77.5    0.07586  -20.50666  0.97975 
   -7.26848  0.00395  6.05995     14.52677  2.02086  0.31004  20.10946  0.06833      0.4671  3855.98352   3977.62118   1.9586         4202.05387     18.08837  0.00068  59337.06352   1.7836  0.07935    609181.38746   45.2247  18.69778  59425.36959    50.87598       43.78899   60.83348   83.99429   86.0    0.06555  -20.45268  0.98728 
   -7.32644  0.01871  4.20787     14.00787  1.46489  0.93836  31.01658  0.04546     0.32446  3856.11404   3088.35084  0.44503         5739.71427     16.71677    3e-05  59337.00556  2.75119  0.58028   2322786.69457  44.82052  18.70178   59424.2604    50.81878       43.81749   57.37858   77.63035   79.5    0.07147  -20.45741  0.93337 
   -7.87583  0.07288  5.08702     13.87732  1.80107  1.56332   12.5984  0.10444     0.03985  5198.49689   3166.52566  0.62203         3457.50281     20.54498  0.19485  59336.45617  2.03095  0.91816   7614435.75838  44.22981   18.6675   59424.2604    50.93183       43.86095   57.37858   82.53976   86.5    0.07822  -20.67577  0.88861 
   -6.99064  0.01326  4.03155     13.90049  1.24837  0.69707  12.75008  0.10396     0.06657  4711.65183   3435.08816  0.36856         4158.12976     19.02887  0.00594  59337.34135  1.68844  0.16909   2979331.35511  44.68013  18.68099  59430.27255    50.87047        43.8012   60.74101   86.54146   80.5    0.08146  -20.46424  0.97579 
   -7.52766  0.02281  4.25703     13.75228  1.33387  1.56204  15.56175  0.06652     0.28823  3784.82721   3236.10624  0.56047         5537.05099     18.53746  0.00192  59336.80433  1.32977  0.35502    7023826.8344  44.28917  18.71887  59425.36959    50.88151        43.7777    61.3677   85.91477   87.0    0.07253  -20.47552  0.95003 
   -8.82659  0.00122  4.79894     13.85578  1.61248  1.51898  28.91429  0.03362     0.01919  3569.33068   3220.01529  0.67356         4885.11575     19.04325  0.00614  59335.50541  2.19742  0.03517   6699573.82143    44.288  18.67661  59426.26529    50.87902       43.83613   57.37858   77.63035   91.5    0.07165  -20.42886  0.99501 
   -6.69199  0.03749   4.2275      13.9424  1.52618  1.21779  16.27641   0.0809     0.01021   4284.5818   3613.34688  0.31856          5005.9554     20.20913  0.08992  59337.64001  1.78239  0.61026   3302065.20144   44.6815   18.6731   59424.2604    50.84525       43.78518   59.12084   81.53958   73.0    0.07799  -20.52788  0.93337 
   -6.54335  0.00579  5.34024     14.37447  2.08546  0.55891  24.97425  0.06169     0.06253  4486.98878   4216.35262  0.34103         5166.65787     19.86003  0.04025  59337.78865  2.99937  0.14467    984477.63569  45.13972  18.67671  59427.20395    50.85189       43.83756   59.09043   80.82792   75.5    0.07644  -20.53227  0.98334 
