 texplosion  fnickel     Pspin  log(Bfield)      Mns  thetaPB   mejecta    kappa  kappagamma     vejecta  temperature    alpha  cutoff_wavelength  log(nhhost)      A_V         MJD0  kenergy  mnickel             TSD   log(L0)  Peak_mag     Peak_MJD  log(E_rad)  log(Peak_lum)  Rise_Time     E_fold  tau_1  delta_m15     r_peak     frac 
   -19.2595  0.00903   6.31754     13.59962  1.60618   1.4648   4.86369  0.26693     0.01246  4745.48788   4526.90908  4.58103         4542.25641     21.13932  0.76568   58198.9869  0.65336  0.04394  37623310.73221  43.29809  18.52741  58278.39934    50.35031       43.29544   73.00349   85.72492   63.0    0.11037  -19.77978  0.98679 
  -20.04666  0.00708   8.34361     13.83601  1.96118  0.92284   6.46626  0.27295     0.01314  5568.74489   3880.59387  4.50978         4523.20478     20.47167  0.16459  58198.19974  1.19617  0.04579  26978981.85372  43.28763  18.51676   58279.1954    50.13445       43.06324      80.56   88.40365   58.5    0.11266  -19.24981  0.98137 
  -19.12484  0.01071   7.56495     13.74861  1.82348  0.96684   5.66565  0.23714     0.01535  5353.61446   4059.74327  3.45285         4666.86558     20.83628  0.38108  58199.12156  0.96866   0.0607  30839936.36522  43.28302  18.53594   58278.2053    50.32504       43.25861   75.94645   89.01675   61.0     0.1104  -19.45369  0.97724 
  -19.24119  0.00265   7.17345      13.7293  1.89546  1.31049   6.90648  0.22923     0.01405  5789.33055   4258.71898   4.6225         4391.98982     21.11614  0.72589  58199.00521  1.38083   0.0183   31505621.3315  43.33672  18.52646    58277.326    50.28336       43.21607   73.15046   89.01675   59.0    0.11262  -19.76335  0.99447 
  -20.49891  0.00619   7.78366      13.8446  1.97606  0.64792   5.10717  0.32143     0.01578  5627.83698   3922.54727  4.66615         4553.57516     17.43917  0.00015  58197.74749  0.96492  0.03164  22739731.26934  43.42549  18.52121    58277.326    50.18291       43.07482   81.67007   96.66601   58.0    0.12114  -19.11095  0.98744 
  -18.99805  0.00562   8.95505      13.8488  1.70417  1.39806  10.04346  0.21178     0.01002  5827.89252   4247.43701  3.91134         4620.34931     20.05205  0.06263  58199.24835  2.03486  0.05644  25460957.81954  43.19035  18.52402  58278.39934    50.18069       43.07082   81.38742   96.87097   63.0    0.11295  -19.16354  0.97131 
  -18.49648  0.00494   6.33841     13.92219  1.64414  0.66956   4.88706  0.29801     0.01333  4791.10422   4641.70983  4.82305         4478.85359     21.28259  1.06493  58199.74992  0.66918  0.02414   8776787.23958  43.93749  18.52842   58278.2588    50.30597       43.23241   76.80422   89.26635   61.0    0.10455  -20.06024  0.99353 
  -21.09357  0.00146   6.69048     13.91389  1.69171  0.40963   6.24733  0.30692     0.01352  5809.24022   3688.29303  4.80459         4525.06464     16.74759    3e-05  58197.15283  1.25765  0.00909  10453826.84747  43.82698  18.53885    58278.218    50.16119       43.04746   77.74115    99.5805   59.0    0.11819  -19.12207  0.99662 
  -18.33955  0.00404  10.47466     13.99859  1.90384  1.25305   5.70359   0.3308     0.01521  5184.45356   4223.71578  4.86623         4650.46164     17.86558  0.00041  58199.90685   0.9145  0.02305  19523324.92884  43.21764  18.54624   58279.1954    50.19507       43.10773    79.5239   91.03127   60.0    0.11076   -19.1106  0.98652 
  -20.11569  0.00526   7.97892     13.90984  2.04632  0.76954   6.66271   0.2302     0.01085  5167.61024   4252.75446  4.23006         4578.74007     20.94489  0.48934  58198.13071  1.06135  0.03508  18322677.32236  43.51294  18.54071   58278.2053    50.32535         43.274   72.69565   83.87959   61.0    0.10863  -19.53549  0.98797 
  -20.88615  0.00321   7.30018     13.94276  1.68524  0.57169   7.76098  0.26449      0.0117  5778.29569   4081.73368  4.96962         4421.77713     20.72253  0.29326  58197.36025  1.54576  0.02492  10854668.95128  43.73322  18.54337   58278.2879    50.42953       43.39236   72.02706   81.06111   58.5    0.11236  -19.37166  0.99066 
  -19.74724  0.00104   7.35757      14.1919  1.71404  0.38427   7.83413  0.26713     0.01185   5782.8804   4392.79357  4.91614         4417.06572      20.9933  0.54705  58198.49916  1.56281  0.00819    3560379.1295   44.2179  18.54015  58276.91185     50.3081       43.24139    74.9095   87.25771   60.5    0.11261  -19.61626  0.99717 
  -20.45446  0.00114   8.72262      13.9611  1.93925  0.81253   7.43937  0.23252      0.0106  5264.11657   4221.24286  4.06195         4622.71409     20.68688  0.27015  58197.79194  1.22974  0.00847  16388751.90649  43.46064  18.50536  58278.39934    50.39221       43.38276   72.08798    76.0993   59.0    0.10901  -19.34381  0.99639 
  -18.62731  0.01201   6.67922     13.67011  1.75958  1.52642   4.90523  0.25376     0.01313  4789.27296   4450.25803  3.45896         4665.35755     21.19328  0.86698  58199.61909  0.67116  0.05892  33300349.23613  43.34235  18.52848  58278.39934    50.25941       43.19644   77.64324   87.31996   62.5    0.10525  -19.87798  0.98312 
  -20.29857  0.00112   8.25017     13.74022  1.78841  1.15819   8.18179  0.20879     0.01027  5395.67671   4039.30706   4.0911         4620.71406     18.57327  0.00208  58197.94783  1.42091  0.00919   37391403.5225  43.11562  18.52879  58278.39934    50.12134       43.05468      80.56   87.19918   60.5     0.1086  -19.10577  0.99575 
    -19.226  0.00388   8.22754     13.85528  1.56116  0.83779  11.10822  0.16586     0.01027  5780.85856   3815.51209  4.45002           4597.984     19.69733  0.02767   58199.0204   2.2144  0.04308  19109534.78081   43.3505  18.53125   58279.1954    50.21429       43.13777   76.87318   89.29448   56.0    0.11027  -19.14332  0.97781 
  -18.67892  0.00781   7.11786     13.71312  1.87344  1.19707   5.55203  0.20627     0.01153  4773.28753   4373.80563  4.41319         4575.65518     21.14283   0.7719  58199.56748  0.75459  0.04335  33030680.81053  43.31787  18.54698    58277.326     50.3414       43.29628   71.23425   83.65614   63.5     0.1082  -19.77406  0.98662 
  -20.15535  0.00368   6.50567     13.79607  1.56144   0.6105   5.08355  0.28369     0.01461  5126.53328   4126.34064  4.54745         4575.69154     20.91203  0.45369  58198.09105  0.79697  0.01872  15696110.84577  43.63999  18.52047  58278.39934    50.28283       43.21103   77.79505   88.27552   60.5    0.10807  -19.49464   0.9934 
  -19.01444  0.00525   6.98929     13.76579  1.90437  1.01186   4.61557  0.27052     0.01201  4653.97046   4662.17364  4.80369         4538.67473     21.16775  0.81749  58199.23196  0.59635  0.02423  25400594.33859  43.45489  18.53022   58278.2053    50.32411       43.26711   75.49163   86.03276   63.5     0.1081   -19.8276  0.99303 
  -19.76998  0.01235   7.78495     14.07295  2.12598  0.53779   5.21238  0.24316     0.01261  4839.68736   4212.63594   3.4544         4643.95753     21.16061  0.80415  58198.47642  0.72828  0.06436    8550225.8403  43.88192  18.50555  58278.39934    50.31392       43.27555   73.15046   81.73992   63.5    0.10409  -19.80367  0.98088 
  -19.31626  0.00389   8.09082     13.72256   1.6665  1.42498  10.29142  0.17706     0.01074  5855.89145   4014.18172  4.14471         4565.76033     20.30519  0.11218  58198.93014  2.10518  0.04008  36348100.31493  43.11418  18.53391  58278.39934    50.19097       43.05618   82.74893   103.9751   60.0    0.10959  -19.21687  0.98145 
  -18.78091  0.01414   7.90067     13.81352  1.91555  0.67819   7.26993  0.20406     0.01371  5697.95823   3741.13579  4.01701         4637.17932     16.37622    1e-05  58199.46549  1.40798   0.1028  26205902.96331  43.33741  18.51289   58279.2882    50.13281       43.06423   81.38742   87.57623   60.5    0.11255  -19.11394  0.95656 
  -19.38332  0.00394   6.30373     13.80103  1.48761  0.64483   5.04132  0.24227     0.01357  4775.71568    4402.5179  3.33577         4666.27052     21.09652  0.69383  58198.86308  0.68588  0.01988   13722711.8529   43.7047  18.53083  58278.39934    50.15065       43.05279   77.76402   95.58714   63.0    0.10629   -19.6969  0.99334 
  -19.77611  0.00224   6.96068     13.61997  1.77917  0.93881   7.50552  0.21441     0.01126  5580.29494    3842.8776  3.92734         4618.82923     19.48009  0.01678  58198.47029  1.39419  0.01685   46068365.9749  43.17036  18.52698   58279.1954    50.16078       43.05441   81.08361   97.17478   60.0    0.11025  -19.12787  0.99354 
  -18.30268  0.01251   6.02909     13.62666  1.31483  1.22128   4.24534  0.31403     0.01579  4788.27119   4406.04731  3.79377         4631.52455     21.14357  0.77322  58199.94372  0.58063  0.05313  24766594.59479  43.43335  18.53158  58278.39934    50.37786       43.34853   72.69565    79.3997   59.5    0.10708  -19.80239  0.98194 
  -19.04685  0.00342   7.61155     13.65935  1.59805  1.46022   9.52966  0.18714     0.01127   5809.2008   3935.51963  4.36543         4554.00068     20.32516  0.11746  58199.19955  1.91839  0.03259  41271265.75926  43.09384  18.53227   58277.1968    50.22751       43.15251   73.15046   90.12412   57.5    0.10678  -19.21816  0.98538 
  -20.34849  0.00172     6.139     13.56698   1.7329  1.56046   4.71512  0.26907     0.01348   5064.2312   4300.50186  3.03351         4633.42064     21.15027  0.78524  58197.89791  0.72135  0.00813  44546823.15216  43.28261  18.51442   58279.2882    50.15921       43.05856   78.28762   95.06354   62.5    0.11111  -19.79206  0.99782 
  -18.52862  0.00545   6.59308     13.81528  2.09412  0.89964   3.57859  0.26689     0.01274  4387.03345   4915.19526  2.81411         4664.97755     21.32154  1.16484  58199.71778  0.41085  0.01952  19789624.19731  43.65523  18.51099   58280.3211     50.1529       43.06218    80.4202   92.93096   65.0    0.11117    -20.117   0.9957 
  -19.23248  0.00889  10.01548     13.98253  1.87514  1.19701   7.05912  0.31995     0.01343  5448.29762   4004.56613  4.87769         4603.22168     16.48566    2e-05  58199.01392  1.24997  0.06277  18929498.20299   43.2634  18.54206    58277.326    50.52508       43.50684   69.89966   78.28762   57.0    0.10479  -19.12095  0.96637 
  -20.11118  0.00224   7.97065     13.77914  1.72046  0.85174   5.13927  0.30624     0.01804  5384.99791   3952.22634  4.59848         4596.36168     16.19997    1e-05  58198.13522    0.889  0.01153  28065044.20098  43.25334  18.54102    58277.326     50.3334        43.2717   75.49163   86.67558   60.0    0.10919  -19.10855  0.99459 
  -17.35404  0.05187   6.54693     13.49389  1.53326  1.05399   5.26136  0.29312     0.01424  5460.34786   3908.67647  4.87711         4616.16151     19.89823  0.04395  58200.89236  0.93576  0.27292  62767773.28943  43.02465  18.53234   58278.2053    50.30325       43.26122   72.69565   82.19474   58.5    0.11588  -19.15121  0.89251 
  -18.75919  0.01097    7.7256     14.01739  1.44514  0.47702   8.45383  0.24964      0.0132  6053.00437   3959.83348  4.31215         4561.68748     19.07668  0.00663  58199.48721  1.84766  0.09274   7392910.46175  43.78407  18.50903  58278.39934    50.14315       43.06236   80.52572   90.02945   58.0    0.11115  -19.12744  0.95411 
  -19.87091  0.01154   6.93432      13.6468  1.78401  1.44496    4.6703  0.29734     0.01118  4659.09758   4418.14755  4.91608         4595.34697     21.03796   0.6063  58198.37549  0.60475  0.05387  40514849.91776  43.23062  18.53111   58278.2588    50.28574       43.22293   73.89942    85.4718   61.5      0.111  -19.62089  0.98286 
   -21.1716  0.00407   7.40908     13.99208  1.81563  0.43238   6.17299  0.31464     0.01347  5677.91177   3853.97473  4.25845          4562.8396     17.14757    8e-05   58197.0748  1.18713  0.02514   9598833.43404  43.80612  18.52457   58279.1954    50.16455       43.06548   81.08361   95.06354   58.5    0.11064  -19.14297  0.99028 
  -18.47423  0.00242   6.43148     13.77954  1.93539  1.07497   4.05654   0.2948     0.01244  4557.15156   4746.40291  4.08904         4515.35875     21.33686  1.20667  58199.77217  0.50254   0.0098  20517825.15794  43.62686  18.53415   58279.2882     50.1601       43.09097   81.08361   86.67558   62.0    0.10765  -20.17197  0.99779 
  -18.77973  0.01154   5.83457     13.86341  1.58445  0.62207   4.86838  0.28706     0.01485   5047.4965   4416.26064  4.49633         4459.30946     21.31176   1.1389  58199.46667  0.73988   0.0562      9394864.94  43.96382  18.53482    58277.326    50.22361       43.10795   78.66765   97.47949   61.0    0.10465  -20.11892  0.98623 
  -20.41267  0.00329   5.25913     13.45625   1.3958  0.65273   6.72323  0.18537     0.01084  5075.12511   3767.68483  4.46992         4665.52661     18.71921  0.00291  58197.83373    1.033  0.02212  43849347.95308  43.32988  18.53527  58278.39934    50.26432       43.19408   78.28762   87.78295   63.0    0.10648   -19.0975  0.99179 
  -19.50635  0.00627   7.36669     13.66816  1.71687  1.24824   4.16524  0.31515      0.0135  4692.59406   4260.54956  4.70667         4668.87695     20.80278  0.35279  58198.74005  0.54713  0.02612   39881482.9448  43.16827  18.53753    58277.326    50.49048       43.45734   70.22996    80.7533   59.5    0.11204  -19.41259  0.98986 
   -17.9141  0.02575   5.74308     13.67051   1.5926  1.16111   5.05091  0.23179      0.0104  4563.80543   5301.01427  4.50981         4433.88982     21.35517  1.25864   58200.3323  0.62755  0.13004  22242339.11878  43.60548  18.53077   58278.2053    50.48108       43.47242   70.28549   75.10581   64.5    0.10601  -20.20496  0.97008 
  -19.12369  0.03038   5.70866     13.51143  1.51434  1.37265   3.78802  0.32973     0.01185  4469.27472   4503.33139   4.6814         4620.84968     21.15522  0.79423  58199.12271  0.45135  0.11509   43474823.4419  43.29776  18.52798   58278.3444    50.32946       43.28237   72.95746   82.88234   62.0     0.1072  -19.80647  0.96864 
  -20.26701  0.00238   5.43947     13.59527   1.3369  0.75894   5.60812  0.24771     0.01158  4984.23546   4189.50599  4.86866         4543.60425     21.05013  0.62354  58197.97939  0.83108  0.01336  23685804.05837  43.54934   18.5191    58277.326     50.1952       43.06622   79.66917  102.30714   61.5    0.10847  -19.65376  0.99587 
  -19.69706  0.00172   6.47266     13.71194  1.49242  0.59601   6.94202  0.22611     0.01377  5716.35183    3694.2498  4.76388         4570.37362      18.2473  0.00098  58198.54934  1.35316  0.01191  21877601.28001  43.48057  18.51294   58279.2882    50.14967       43.08672   78.72527   86.23793   58.5    0.11522  -19.11788  0.99502 
   -18.8298  0.02371   6.75248     13.68764  1.76398  1.48475   5.95735  0.21708      0.0101  4672.55892   4575.53246  4.46615         4530.21231     21.21556  0.91261   58199.4166  0.77587  0.14127  31474767.68299  43.35845   18.5308  58278.39934    50.34228       43.28425   73.15046   86.22076   62.5    0.10368  -19.90551  0.96016 
  -19.19685  0.00482   6.62619     13.61644  1.67946  1.21047   5.69104  0.20218     0.01151  4825.28009   4275.33193  3.76219         4646.41947      21.0507  0.62435  58199.04955  0.79043  0.02744  40053533.59516  43.24885  18.53858   58279.1954    50.39716       43.35573   72.69565   82.19474   63.5    0.11034  -19.64495  0.99103 
  -20.78717  0.00296   7.66176     13.69445  1.81681  1.01226   7.64192  0.22342     0.01081  5442.74479   3733.30574  4.39006         4617.82977     18.74662   0.0031  58197.45923  1.35041  0.02258    40447314.177  43.15261   18.5323   58278.2053    50.27542       43.22852   72.95746   82.88234   60.0    0.11292  -19.11764  0.99057 
  -20.33815  0.00447   6.43005     13.49389  1.60667  1.10421   4.80027  0.32232     0.02029  5707.23776   3718.99292  4.31046         4579.06681     17.96987  0.00052  58197.90825  0.93271  0.02143  63444296.33725  43.05595  18.54209   58278.2053    50.26518       43.19677   76.80422   88.15897   60.0    0.11012  -19.11709  0.99162 
  -20.05943  0.00107    7.7612     13.82496  1.85769  1.09501   9.46346  0.22587     0.01067   6019.5304   4114.97258  4.96894         4437.17616     20.90585  0.44727  58198.18697  2.04551  0.01012  23265770.30509  43.39124  18.52927    58277.326    50.28864       43.24175   72.69565   83.14415   58.5    0.11174  -19.51921  0.99641 
  -19.90944  0.01039   7.87223     13.73658  1.52397  1.12142   6.79328   0.2796     0.01234  5398.20991   4285.33076  4.22111         4663.11202     19.88854  0.04298  58198.33696  1.18088  0.07058  29500838.28247  43.18979  18.52652   58278.2053    50.31697       43.25796   75.94645   86.22076   64.5    0.10884  -19.14472  0.96566 
  -17.95694  0.00555  10.56601     14.35296  2.05187  0.51965   8.50467  0.28871     0.01139  5796.93098   4385.96293  4.72879         4582.36147     20.21904    0.092  58200.28946  1.70483  0.04719   4186728.53286   43.9113  18.51097  58278.39934    50.14506       43.06328   77.72973   90.02945   64.5    0.11542  -19.20453  0.97588 
  -19.43835  0.00524   8.73867     13.86787  1.77257  0.93876   7.29565  0.26403     0.01416   5708.5109   4011.26699  4.00673         4642.73342     16.79291    3e-05  58198.80805   1.4182  0.03822   23097515.2384  43.27099  18.52655   58279.2882    50.16346       43.05911   81.38742   96.87097   61.5    0.11132  -19.12186  0.98122 
  -19.84581   0.0038   7.15413     13.77559  1.72604  0.84513   6.51045  0.26422     0.01167  5419.75982    3970.7633  4.72336         4518.60209     20.82993  0.37554  58198.40059  1.14077  0.02477   23056409.7274  43.43399  18.53145  58278.39934    50.30966       43.25176   76.77367   85.39354   58.5    0.11083  -19.44212  0.99116 
  -18.07432   0.0591   6.02722      13.5872  1.49247  1.03637   3.67427  0.30611     0.01491  4610.51424   4443.32098  4.96729         4577.75809     21.14844  0.78193  58200.17208   0.4659  0.21715  33693427.43021  43.35497  18.53402  58278.39934    50.32515       43.25927   73.89942   88.26779   62.0    0.11215  -19.79386  0.93495 
  -18.47336  0.02634   6.25934     13.59974  1.55625  1.17041   4.34133  0.27824     0.01388  4740.02205   4429.68562  4.42365         4591.12751     21.12116  0.73433  58199.77304  0.58185  0.11437  35766310.08909  43.31439  18.52432  58279.91306    50.15218       43.07402   81.52126   89.03392   63.0    0.10872  -19.74991  0.96469 
   -20.3825   0.0056   7.53575      13.9934  1.57143  0.47755   6.94457  0.25079     0.01044   5137.0657   4101.43066  4.52081          4619.0893     20.32235   0.1167   58197.8639  1.09321  0.03891   8542198.91212  43.77932  18.53405  58278.39934    50.26753       43.19031   74.99907   89.96413   58.5    0.11359   -19.2135  0.98268 
  -20.20808  0.00616   7.60935     13.74287  1.60781  0.92178   7.75534  0.25762     0.01262  5809.44797   3929.09766  4.15842         4611.06454     16.33929    1e-05  58198.03832  1.56134  0.04774  28249320.63373  43.26138  18.53251   58276.2465    50.58257        43.5824   67.56353   75.03178   60.0    0.11136  -19.11746  0.97857 
  -17.76756  0.00754    7.4359     13.93087   1.7635  0.82427   7.02476  0.17899      0.0104  4697.35545   4702.79887  4.67986         4548.52714     21.21349  0.90827  58200.47884  0.92462    0.053  12448425.72329  43.67744  18.51858   58279.1954    50.40935        43.3806   72.11351   78.86976   61.0    0.10204  -19.89318  0.98249 
  -18.80238  0.00163   7.85116     13.88745  1.44025  0.99023   8.16244  0.27301     0.01328  5782.34133   4477.94267  3.80384         4579.13653     20.64985  0.24807  58199.44402    1.628  0.01327  13842622.52952   43.4962  18.51735    58277.326    50.16695       43.05839   76.87318   96.47797   65.0    0.10701   -19.3276  0.99352 
  -19.42997   0.0108   6.61243     13.59291  1.46282  1.17634   4.55059  0.27615     0.01663  4955.47727   4232.23686   4.2654         4633.39952     20.90721  0.44868  58198.81643   0.6666  0.04913  38718131.08552   43.2054  18.52893   58279.1954    50.16742       43.05252   81.08361   99.03402   61.5    0.10292   -19.4877   0.9809 
