 log(Bfield)      Mns    Pspin  cutoff_power  cutoff_wavelength  fnickel    kappa  kappagamma   mejecta  log(nhhost)  temperature  texplosion  thetaPB     vejecta      A_V        MJD_0   log(KE)     M_Ni  Peak_mag     Peak_MJD 
    13.89326  1.92856  1.66534       2.91361            3872.86  0.00665  0.01525     0.42249  96.36843     17.16232   4022.50557    -3.12295  1.11801  1753.38532    8e-05  59050.24705  51.26105  0.66168  17.39476     59139.24 
    13.81625  1.68199  1.54438       2.91562         3874.60032  0.01784  0.01353     0.01228  99.06517     17.56884   4734.04499    -3.05258  1.13861   1737.2579  0.00021  59050.31742  51.25477  1.78167  17.36968     59135.26 
    13.82876  1.65218  1.53239       2.98856         3644.17383  0.03332  0.01383     0.44969  94.53778     18.01547   7321.00416    -2.67841  1.10731  1844.39026  0.00058  59050.69159  51.30379  3.30523  17.37983  59135.08203 
    13.80286  1.78576  1.67808       3.97419         3265.62417   0.0039  0.01264     0.01047   98.8698     17.19317   4452.84376    -4.04817  1.17771  1779.65432    9e-05  59049.32183  51.27558  0.38894  17.40603     59135.24 
    13.90633  1.83336  1.70253       2.86519         3892.89217  0.02135   0.0129     0.22704  99.91381     19.21705   3910.03351    -3.82118  0.99126  1735.32514  0.00916  59049.54882  51.25433  2.13507  17.34768  59134.29305 
    13.93321  1.78181  1.71647       2.81309          3963.9838  0.04027  0.01272     0.01162  94.07171     17.05116    3522.4289    -3.37389   0.9272  1774.71914    6e-05  59049.99611  51.27003  3.99172   17.4457     59135.24 
     13.6738  1.47667  1.47137       2.97795         3732.74575  0.01348  0.01324      0.0383   98.8054      17.1306   9716.29684     -3.9176  1.37347  1856.24039    8e-05   59049.4524  51.31214  1.34606  17.42796  59136.25394 
    13.91371  1.89488  1.67116       3.15648         3611.80763  0.03942  0.01342     0.04387   94.0376      18.5986   5955.51051    -1.98488  1.18831  1800.31976   0.0022  59051.38512  51.28245  3.90725  17.35682  59137.99357 
    13.83311  1.69246  1.62945       2.92259         3910.27513   0.0138  0.01238     0.47231  98.51396     18.31281   5247.63842    -3.57396  1.01921  1741.24308  0.00114  59049.79604   51.2564  1.37661  17.35818     59135.26 
      14.064  1.85707  1.54964       3.30341         3567.38307  0.01078  0.01549     0.07176  96.31762      18.5359   5860.97493    -4.00377  0.61976   1793.2268  0.00191  59049.36623  51.28053   1.0724   17.3213     59135.26 
    13.95762  1.92161  1.60489       2.96883         3838.31515  0.01996  0.01412     0.06489  99.61434     18.94074   3231.91102    -2.40489  0.96226  1750.08975  0.00485  59050.96511  51.26151  1.99511  17.36115     59132.89 
    13.66838  1.28482  1.19413       2.90575          3736.0678  0.01482  0.01585     0.09256  95.48272     16.27315   8122.78924    -3.52191  0.99931  1840.64983    1e-05  59049.84809  51.30266  1.47256  17.33227  59136.25394 
    13.71236  1.39802  1.33114       2.71707         3964.77965  0.02612  0.01463     0.01957  93.56393     18.00904   4121.36843    -3.49764  1.10079  1790.50097  0.00057  59049.87236  51.27738  2.58715  17.47779  59136.25394 
    14.05823  2.09194   1.9062       2.94154         3946.55702  0.01415  0.01298     0.01176  98.32291     17.33914   5017.65174    -3.12802   0.7982  1715.86502  0.00012  59050.24198  51.24353  1.41146  17.38443     59135.26 
    13.74806  1.56583  1.37299       2.79023         3976.32979  0.01286   0.0139      0.3026   98.9012     17.65896   3767.00281    -2.35014  1.24596  1771.46965  0.00025  59051.01986   51.2716  1.28421   17.3633     59135.26 
    13.77688  1.55009  1.49341       2.88751         3766.21981  0.03559   0.0128     0.25073  99.79821     17.46586   7780.16069    -3.55394  1.21692   1758.7609  0.00016  59049.81606  51.26591  3.55756    17.435     59132.89 
    13.75422  1.34738  1.45812       2.69982         3839.65579  0.04958  0.01096     0.02515  98.72842     18.80092   7985.44576    -2.70394   0.9514  1833.75534  0.00351  59050.66606  51.30151  4.94924  17.41306  59139.06641 
    13.96028  1.78315  1.87912       2.88387         3919.82255   0.0335  0.01052     0.04674   96.3864      17.0839   3850.84181    -3.34965  0.80785  1751.04579    7e-05  59050.02035   51.2599  3.33205  17.36949  59135.07812 
    13.77525  1.48944  1.18828       4.21703         3130.81274  0.01021  0.01598     0.01606  98.51633     16.15272   3238.57985     -1.9243  0.99054  1804.06115    1e-05   59051.4457  51.28719  1.01836  17.40399     59135.26 
    13.88446  1.63275  1.48469       3.00538         3806.10978  0.02048  0.01485     0.13013  94.09478     17.12128   3276.86555    -3.02657  0.84719  1779.51232    7e-05  59050.34343  51.27239  2.02977  17.35535     59135.26 
     14.0203  1.81854  1.49681       3.13079         3717.25004  0.03073  0.01415     0.12232  99.11868     17.29951   4892.19015    -2.10182   0.7747   1738.3006  0.00011  59051.26818  51.25532  3.06923  17.40102  59138.29441 
    14.01181  1.99363  1.71355       2.92157         3871.00057  0.02857  0.01367     0.01335  99.72237     17.76302   5936.04115    -2.50509  0.90027  1766.04005  0.00032  59050.86491  51.26945  2.85624  17.38953  59136.25394 
     13.8257  1.67227  1.58112       2.73587         3958.21393  0.03074  0.01202     0.02554  99.42782     16.92677   5775.54275    -3.45146  1.13095  1756.19938    5e-05  59049.91854  51.26441   3.0718  17.38098      59137.2 
    13.83075  1.55654  1.47355       2.85974         3941.63859  0.03195  0.01279     0.35256  99.49812     16.88131    3953.5739    -2.85324  0.99156  1735.17381    4e-05  59050.51676    51.254  3.19219  17.41323  59134.29305 
     13.8776  1.73234  1.74776       2.68958         3936.78461   0.0297   0.0109     0.15001  99.80317     19.39877   6995.20172    -4.14337   0.9604  1735.43889  0.01392  59049.22663  51.25432  2.96905  17.41113  59134.29305 
    13.85504   1.8112  1.73573       3.07307         3847.06017  0.02319   0.0126      0.0165  95.65289     18.69552   4232.24275    -2.32244  1.18268  1777.21109  0.00276  59051.04756   51.2723  2.30434  17.44371     59133.91 
    13.72603  1.60819  1.53773       3.47354         3469.80486  0.00708  0.01251     0.07153  99.41299     18.38413   3947.86094    -3.10312  1.31554  1770.95102  0.00135  59050.26688  51.27167   0.7071  17.39818  59134.29305 
    13.75936  1.45144  1.38819       2.81589         3965.44146  0.03054  0.01358     0.21804  96.42223     16.82461   4265.51999    -3.42559  1.07559  1731.63609    4e-05  59049.94441  51.25025  3.03796  17.40859     59135.26 
    13.85633  1.65991  1.58995       3.00866         3777.72573  0.01227  0.01372      0.1572  95.13302     18.85758   5373.87901    -3.84855  0.89283  1778.98662    0.004  59049.52145  51.27283  1.21793  17.42796     59137.22 
    14.02263  1.90576  1.70917       2.81712         3867.82137  0.02123  0.01347     0.01772  98.25675     17.94996   6089.49183    -3.05325  0.75549  1786.57955   0.0005  59050.31675  51.27857  2.11713  17.42765     59139.24 
    14.11497  2.15728  1.92442       2.86089          3919.1684  0.03742  0.01277     0.04305  97.55073     18.57765   6624.48167    -2.95754  0.80039  1755.27474   0.0021  59050.41246  51.26276  3.72828  17.43612  59136.25394 
     13.9924  1.99486   1.8641       2.93285          3816.5613  0.03894  0.01196     0.07537  99.74117      18.2853   4539.82633    -3.55179  0.98216  1750.25355  0.00107  59049.81821  51.26167  3.89279  17.40405     59133.91 
     13.9931  1.95947  1.64046       2.75712         3979.83439  0.03296  0.01393     0.16802  98.75294     19.59823   4235.47862    -2.43007  0.92157  1814.79169  0.02203  59050.93993  51.29249  3.28986  17.36582     59137.22 
    13.97977  1.96973  1.95132       3.16531         3636.51011  0.04581  0.01081     0.02302  97.48049     17.76659   9199.19629    -3.21441  1.07665  1732.07065  0.00032  59050.15559  51.25115  4.56404   17.4047     59133.91 
    13.87831  1.84934  1.80194       2.66964         4006.67341  0.03304  0.01129     0.05083  99.36861     18.55968   3618.47466    -3.81987  1.16403  1751.29274  0.00202  59049.55013  51.26195  3.30134   17.3923  59137.99357 
    14.06012  2.06624  1.82249       2.86455         3841.54884  0.04323  0.01309     0.24966  97.97021     17.08801   4146.65343    -3.34578  0.87178  1801.22051    7e-05  59050.02422  51.28547  4.31002  17.38136  59134.17323 
    13.87438  1.95723  1.80143       2.80252         3916.66202     0.02  0.01319     0.26355  95.52044     18.94582   4074.94506     -3.1942  1.36545  1785.92559   0.0049   59050.1758  51.27647  1.98663  17.39294  59135.08203 
    13.77278  1.40173  1.41588       2.84635          3711.8301  0.01562  0.01196     0.12876  98.84991     19.24904   5329.84594    -3.23937  0.82314  1781.02157  0.00986  59050.13063  51.27624  1.55952  17.39873      59137.2 
     13.9612  1.97394  1.62978       3.00481         3774.31999  0.01346  0.01595      0.1121  96.69425     16.91438    4675.5309      -3.777  0.97141   1755.3806    5e-05    59049.593  51.26225  1.33915  17.37982  59135.07812 
    13.88201   1.6297  1.27389       3.90532         3240.65215  0.00486  0.01719     0.07536  97.74789     17.87076   4036.72115     -3.1097  0.80673  1834.74718  0.00041   59050.2603  51.30135  0.48419  17.44868      59137.2 
    14.03833  1.95281  1.88683       2.63775         4012.95553  0.05096  0.01043     0.31855  99.39969     18.41003   5653.23759    -2.53892  0.88929    1728.672  0.00143  59050.83108  51.25067  5.09124  17.42928  59135.07812 
    13.74443  1.56792  1.41537       3.55152         3535.10734  0.00321  0.01438     0.01507  99.49688     18.39959   4920.01766    -3.16027  1.12466  1813.34077  0.00139  59050.20973  51.29227  0.32056  17.37814  59136.25394 
    13.92284  2.15017  1.85426       2.70829         3919.87127  0.00795  0.01405     0.08765  96.72208     18.51574   6743.60578    -4.13446  1.35906  1780.48839  0.00182  59049.23554  51.27461  0.79082   17.3996     59133.92 
    13.90042  1.84423  1.85426       2.90316         3916.00875  0.03616    0.011     0.01747  97.28036     18.22791   7622.96342    -3.01803  1.08666  1747.28999  0.00094  59050.35197  51.25862  3.60206  17.37097  59135.07812 
    13.81628  1.72932  1.63117       2.87482         3888.99449  0.01755  0.01331     0.01545  97.48649     17.48905   5156.91584    -3.73592  1.18741   1769.0457  0.00017  59049.63408   51.2695  1.74872  17.46008  59137.99357 
    13.91948  1.68775  1.48423       2.88443         3799.11318  0.01673   0.0135     0.06445  99.37823     18.11997   9093.22139    -3.57158  0.80001  1765.81081  0.00073  59049.79842  51.26912    1.671  17.44882     59137.22 
    13.80471  1.57777   1.4451       2.86099         3785.17829  0.01403  0.01404     0.02139  98.81929     18.71096   5406.82922    -3.55553  0.99221  1743.18979  0.00286  59049.81447  51.25757  1.40077   17.4037  59132.35098 
    13.75567  1.50061  1.49504         2.877         3901.79579    0.023  0.01256     0.05778  98.26966     18.11042   4193.95419    -3.42259  1.05985  1740.85106  0.00072  59049.94741  51.25605  2.29424  17.42083  59136.25394 
    13.97565  1.95769  1.58642       3.47646          3417.5232  0.03474  0.01462       0.275  95.29948     17.82302   4034.43015    -2.49372  1.01979   1814.9922  0.00037  59050.87628  51.29034  3.45005  17.39796  59136.25394 
    14.14717  2.16926  1.88733       2.77446          3847.2917   0.0339  0.01306     0.01525  98.10928     18.63862   8385.27336    -2.55403  0.70545  1806.38976  0.00242  59050.81597  51.28805  3.38065  17.38469     59137.22 
     13.8849  1.88147  1.76994       3.47838         3492.17432  0.02616  0.01106     0.01566  99.54568     16.51861   6140.07852    -3.04124   1.1725  1760.72476    2e-05  59050.32876  51.26672  2.61476  17.39532     59135.26 
    13.91479  1.56002  1.36642       2.80175         3920.76153  0.01593  0.01584     0.36552  94.90565     16.97608   6866.14943     -2.7005  0.69688  1790.86839    5e-05   59050.6695  51.27846  1.58068  17.41006  59135.07812 
    13.76998  1.42277  1.38666       2.91266         3855.33548   0.0328  0.01366     0.02205  94.48855     16.18681   3581.53175    -3.27335  0.94035  1783.91978    1e-05  59050.09665   51.2748  3.25335   17.4564  59137.99357 
    13.75454  1.54307  1.24887       4.25388         3163.77385  0.00995  0.01536     0.22516   99.5893     17.49384   3630.45614    -3.73595  1.13173  1800.62784  0.00017  59049.63405  51.28622  0.99402  17.42045     59135.26 
    13.81544   1.6134  1.60533       2.97489         3762.37191  0.02866   0.0114     0.02154    99.865      18.3225   4498.29862    -3.41689  1.06548  1715.47782  0.00117  59049.95311  51.24431  2.86559  17.39097  59135.07812 
    13.60806  1.24521  1.12433         4.025         3274.45958  0.01838  0.01433     0.03705  99.05297     16.57504   3904.22195    -2.53852   1.2429  1774.78254    2e-05  59050.83148  51.27332  1.83586  17.46551     59135.26 
    13.89435  1.95446  1.59077       3.98841          3250.0753  0.00212  0.01508     0.46777  97.33902     18.60757    4680.6712    -2.97648   1.1215  1818.05582  0.00225  59050.39352  51.29314  0.21099  17.40318  59134.17323 
    13.95814  2.06823   1.9267       2.97697         3855.60157  0.01544  0.01377     0.06611   94.6018     17.00065   9343.48385     -3.0441  1.04872  1801.42052    6e-05   59050.3259  51.28336  1.53138  17.34051  59135.07812 
    13.68463  1.36269  1.41317       2.86069         3720.12103  0.03942  0.01185     0.16274  97.37591     18.57681   5860.68083    -3.01653  1.22409  1803.25272   0.0021  59050.35347  51.28607  3.92672  17.40533     59137.22 
    13.99173  1.82704  1.78419        3.0859         3628.61232  0.03309  0.01095     0.02881  99.22102     18.58057   5153.45384    -2.97536  0.77094  1763.57336  0.00211  59050.39464  51.26792  3.30563  17.39265     59135.26 
     13.8789  1.79637  1.73463       2.85238          3897.2532  0.02559  0.01179     0.01181  97.62306     17.54224   6273.57512    -3.03591   1.0799  1752.75542  0.00019  59050.33409  51.26156  2.55017  17.44062  59138.29441 
     13.9227  1.86818   1.6484       3.21757         3672.50378  0.02749   0.0137     0.04182  97.12811     18.27633   6276.21852    -3.16517  1.03432  1754.58869  0.00105  59050.20483  51.26214  2.73694  17.35996  59132.35098 
    13.86783  1.74873  1.77947       3.05484         3804.62324  0.03498  0.01133     0.01751  96.39819     18.16778   4311.11339    -3.21429  1.04856  1763.86899  0.00082  59050.15571  51.26625  3.47934  17.37803     59135.26 
    13.78769  1.58094  1.32623       2.77012         4009.01807  0.02053  0.01519     0.01128  98.50106     18.50235   3007.73768    -3.15824  1.23825  1717.74857  0.00177  59050.21176   51.2446  2.04836  17.43415     59137.22 
    13.79812  1.69216  1.71818       3.00378         3810.52406  0.00696  0.01274     0.31959  94.47071     16.18633   4715.06705    -4.72908  1.06224  1768.28838    1e-05  59048.64092  51.26715  0.69033  17.35443     59135.26 
    13.76872  1.46468  1.44688       3.05193         3819.90597  0.03466  0.01184     0.01359  99.30092     16.58261   4669.66113    -1.97696  1.05882  1726.08578    2e-05  59051.39304  51.24931  3.46224  17.44189      59137.2 
    13.75855   1.5312  1.37775       3.28785         3624.51013  0.00613   0.0147     0.02014  96.15391     18.39825   3564.01608      -2.886  1.06359  1786.21605  0.00139    59050.484  51.27702  0.60991  17.43601  59135.07812 
    13.95394   1.7984  1.58604       3.02525         3792.44987  0.02841  0.01327     0.11397  97.81264     18.93947   5363.40589    -2.22104  0.87448  1753.77161  0.00483  59051.14896  51.26218  2.83152  17.37819  59136.25394 
    13.83791   1.6792    1.653       2.94327         3822.75206  0.01668  0.01221     0.02783  97.42228     17.69371   3135.67147    -3.98746  0.98101  1753.10181  0.00027  59049.38254   51.2616  1.66141  17.37445  59135.07812 
    13.78852  1.60792  1.65831       2.91469         3882.70438  0.03473  0.01144     0.11688  99.35427     18.18159   5378.80717    -3.25513  1.19556  1719.80787  0.00084  59050.11487  51.24618  3.46993  17.33524     59132.89 
    13.99996  2.00247  1.73884       2.86103         3827.86994  0.01766    0.014     0.11023  96.01938     16.95953   5905.78619    -3.16582  0.86339   1789.5886    5e-05  59050.20418  51.27857  1.75565  17.39379  59134.29305 
    13.97488  1.92348  1.74151       2.73929          3856.9633  0.02973  0.01286     0.03947  99.91528     18.61623   7164.02646    -4.07063  0.90086  1758.69593   0.0023  59049.29937  51.26596  2.97284  17.36881     59135.26 
    13.97725  1.81835  1.64464        2.9367          3871.2219  0.01909  0.01355       0.048   98.8029     18.46686   4228.32241    -2.90645  0.79405  1729.49277  0.00163  59050.46355  51.25071  1.90582  17.39992  59136.25394 
    13.62507  1.26388  1.24688       2.94217          3720.5344  0.02646  0.01227     0.02227  99.91087     16.95725   3014.88096    -2.85001  1.23298  1765.50882    5e-05  59050.51999  51.26931  2.64564  17.37636  59138.29441 
    13.83817   1.8733  1.77083       3.35165         3559.39903   0.0088   0.0121     0.15826  97.65238     16.51069   6072.46684    -3.46563  1.21761  1795.72746    2e-05  59049.90437  51.28261  0.87722  17.36607     59133.91 
    13.79134  1.54786   1.3805       2.69658          3969.7374  0.02331  0.01552     0.47383  93.64711     18.73583    5699.9719    -2.35943  1.05455  1821.53891  0.00302  59051.01057  51.29236  2.30885   17.4022  59135.07812 
     13.8446  1.66392  1.65107       2.81288         3866.83339  0.03013  0.01206     0.48935  97.13237     16.27179   4276.27569    -4.03835  0.99919  1754.13854    1e-05  59049.33165  51.26192   3.0008  17.43428     59137.22 
    13.77866  1.52602  1.49686       2.86654         3889.60094  0.01202  0.01263     0.31977  99.59066     17.89795    4787.5135     -3.4517  0.94947  1765.38729  0.00044   59049.9183  51.26905  1.20129  17.39353     59137.22 
    13.82917  1.63735   1.5106       3.03377         3789.03683  0.00508  0.01525     0.07209  95.09164     17.71475   3617.68717    -3.95429  0.92419  1768.06896  0.00029  59049.41571  51.26745  0.50381   17.3544     59133.91 
    13.91908  1.72235   1.5815       2.79766         3896.22353  0.01904  0.01412     0.08661  96.01225     17.58122   3072.28031    -3.93911  0.83499  1792.92263  0.00021  59049.43089  51.28019  1.89317  17.39683     59135.26 
    13.87264   1.6739  1.57918       2.90632         3832.56554  0.00942  0.01359     0.04664   96.6025     17.04463    3592.7889    -3.40046  0.85902  1778.47536    6e-05  59049.96954  51.27355  0.93725  17.39233     59132.89 
    13.87791  1.82214  1.74777       2.83777         3809.13254  0.04218  0.01303     0.12488  93.98136     18.02032   3862.82292     -4.2401  1.19506  1807.98177  0.00058   59049.1299   51.2861   4.1804  17.35125  59134.29305 
    13.77743  1.56729  1.56425        2.9765         3748.28259  0.02457  0.01346     0.08096  91.08161      16.5577   3180.30655    -3.82608   1.1031  1797.34431    2e-05  59049.54392  51.27898  2.42405  17.40531     59135.26 
    13.74625  1.32252  1.09488       3.90477         3215.32594  0.03544  0.01457     0.03678   96.9029     16.87741    3974.2862    -2.61061    0.934  1839.70743    4e-05  59050.75939  51.30314  3.52837   17.4024  59136.25394 
    13.76871  1.63239  1.44792       3.88363         3321.07095  0.01563  0.01321     0.02974  98.72431     18.24272   4428.60469    -2.49712  1.24127  1811.73569  0.00097  59050.87288  51.29101  1.56051  17.39688  59136.25394 
    13.82619  1.62022   1.3829       3.29896         3537.47277  0.02668  0.01447     0.18419   97.7753     17.41731   3947.49833    -2.67707  1.05405   1826.7424  0.00015  59050.69293  51.29757  2.65926  17.39281      59137.2 
