 log(Bfield)      Mns    Pspin  cutoff_power  cutoff_wavelength  fnickel    kappa  kappagamma   mejecta  log(nhhost)  temperature  texplosion  thetaPB      vejecta      A_V        MJD_0   log(KE)      M_Ni  Peak_mag     Peak_MJD 
    14.85166  1.70976   1.7271       1.70698         2321.23683   0.3386  0.05073     0.01612  11.05646     18.95225   4617.55749    -3.83382  0.91703   12280.2529  0.00498  55530.56618  52.78752  23.07653  21.20134  55562.63759 
    14.73475  2.13483   4.6447       4.88851         2320.64751  0.20907  0.04417     0.36849  12.23231     17.03614   7856.29004     -3.5985   1.5227  11396.70339    6e-05   55530.8015  52.73188  14.55389  21.17677  55559.81278 
    14.90317  1.56594  3.08188       0.48802         2917.83639  0.19672  0.02665      0.1589  17.60426     17.57151   6866.17233    -3.04563  0.51696  12956.19352  0.00021  55531.35437  52.87494  14.73007  21.15041      55557.4 
    14.91588  1.71356  2.33397       0.34572         2870.16256  0.07143  0.01251     0.06865  45.28408     19.01162   6074.17417    -8.48142  0.55369  11148.35575  0.00571  55525.91858   52.8172   6.32457  21.18699  55559.81278 
    14.45947  1.70847  4.62313       0.92019         2354.87645  0.33679   0.0575      0.2752   6.69557     17.72092   7470.05988    -5.86029  1.51294  11313.66758  0.00029  55528.53971  52.66744  20.51019  21.19458  55559.81278 
    14.41967  1.81428  5.25745       2.75651         2641.32918  0.07794  0.01666     0.02542  27.58126     20.40104   7579.59403    -9.00918  1.22777  11491.48484  0.13988  55525.39082  52.80686   6.34221  21.22213  55559.81278 
    15.07907  1.91079  1.32352       1.98717         2314.34713  0.12802  0.02214     0.38787  28.87188     16.52561   3775.84158    -2.60859  0.65792  13406.09256    2e-05  55531.79141  52.94422  10.50232  21.15145  55559.81278 
     14.7777  1.67417  1.36497       2.93239         2420.18171  0.06186  0.01288     0.03938  45.19214     18.10923   3656.07451    -1.51426  1.13276  10721.81979  0.00071  55532.88574  52.78317   5.47555  21.15908  55559.81278 
    14.92003  1.81746  0.87817       0.76021         2664.75006  0.13138  0.02646     0.25653  22.33726     20.01982   3415.91378    -3.54313  0.81346  11697.74417  0.05815  55530.85687  52.80572  10.29003  21.29847  55559.81278 
    14.72986  1.70282  3.09286       0.25721         2275.42192  0.21401  0.05095      0.0498  10.19455     18.84282   9249.00199    -6.73029  0.68351  10705.50184  0.00387  55527.66971  52.66078  14.33408  21.22024  55559.81278 
    14.87076   1.8271  2.72209       4.35999         2024.80082  0.13605  0.02358     0.01525  23.37446     18.34811   6549.90539    -1.97518  0.86588  12945.28628  0.00124  55532.42482  52.89736  10.74538  21.16118  55559.81278 
    15.06052  1.72629  0.90204       2.42456         2718.89012  0.32477  0.04071      0.0102  12.63084     20.37039   8503.29463    -1.43032  0.60238  11054.81171  0.13035  55532.96968  52.70831  22.75933   21.1361  55562.63759 
    14.37298  1.80914  5.99855       0.85949           2128.297  0.43081  0.06761     0.03185   4.01499     18.36969   8857.99831    -9.17984  1.07234  11509.82977   0.0013  55525.22016  52.62614  23.04976  21.23645  55559.81278 
    14.45967  1.54521  6.59652       3.88214         2265.56715  0.44439  0.03479     0.01358   9.49614     19.27911   3677.18643    -6.75064  1.48227  12790.04016  0.01056  55527.64936   52.8086  29.30874  21.11532  55559.81278 
    14.67117  1.82447  5.09331       3.77233         2382.33181  0.21631  0.03245     0.36198  14.67941     18.48619   5567.04122    -5.67381   1.2145  11652.32956   0.0017  55528.72619   52.7673  15.62851  21.16541  55559.81278 
    14.61256  1.53221  1.67633       4.44097         2128.74656  0.10844  0.01767     0.07027   33.2008     20.40523   3163.75669    -2.05233  1.35666  13265.35947  0.14124  55532.34767  52.94562   9.11515  21.24062  55562.63759 
    15.01535  1.78604  2.37913       3.09451         2736.67334  0.07309  0.01441     0.15111  42.65789     16.50806   4338.67008    -2.76455  0.59188  11779.85088    2e-05  55531.63545   52.8608   6.40874  21.20522  55559.81278 
    14.94036  1.65011  0.86305       0.07551         3239.13808  0.33103  0.04892     0.02053   10.2687     17.79514   6537.82349     -4.4957  0.66425  11969.06712  0.00035   55529.9043  52.75836  22.20696  21.19726  55559.81278 
     14.4924   1.8189  4.97051       1.32749         2236.08387  0.36396   0.0606     0.06367   5.76112     17.44717    8204.1381    -5.97906   1.4922  11206.45774  0.00016  55528.42094  52.64339  21.37376  21.17202  55562.63759 
    14.78953  1.62904  2.28423       0.56878         3022.29162   0.1891  0.02759     0.05941  15.09782     17.61959   4302.78661    -3.81269  0.76385  10446.59623  0.00023  55530.58731  52.67486  13.73943  21.20472  55559.81278 
    14.64606  1.33124  0.73032       2.46196         2055.88157  0.29749  0.06066     0.05949  10.60534     19.81325   4430.83275    -1.48023   1.1792   12947.7131  0.03614  55532.91977  52.82964  20.09518  21.23436      55557.4 
    14.95654  1.77095  0.75724       2.80508         2443.97609  0.05785  0.01084     0.19701  59.80796     20.01874   3890.93026    -1.74746  0.80346  11963.46047  0.05801  55532.65254  52.89779   5.35478  21.17313  55559.81278 
    14.81924  1.95951  2.65364       0.78265         2979.23693  0.10151  0.01708     0.03045  28.60142     16.36081   5416.46877    -5.14171  1.05419  10910.28798    1e-05  55529.25829  52.76457   8.31348  21.16274  55559.81278 
    15.06384  1.60772  0.78144       0.09754         3003.85191  0.11775  0.01305     0.03728  34.84221     17.96335   4370.42156    -3.30558  0.55658  13792.08633  0.00051  55531.09442  52.98304   9.97948  21.15104  55559.81278 
    14.24006  1.32634   5.0217       2.50579         2330.38224  0.10473  0.01789     0.01772  22.07892     16.71734   9767.96326     -7.7531  1.30863  12215.21336    3e-05   55526.6469  52.84238   8.18476  21.22026  55562.63759 
    14.72262  1.58276  2.95402       0.62454         2714.89992  0.18068  0.02229     0.27424  19.70804      16.5669    4499.5318    -3.28042  0.93139  13228.89614    2e-05  55531.11958   52.9024  13.82438  21.24422      55557.4 
      14.639  1.81379  4.21683        0.0023         2854.85744  0.11432  0.02084      0.0544  20.29265     16.88979   9123.93297    -7.96369  0.84169  11985.41826    4e-05  55526.43631  52.81905   8.79488  21.15578  55559.81278 
    15.02324  1.67685   1.5919       0.99304         2446.18152  0.08722  0.01598     0.21072   41.3201     17.29055   3277.62954    -5.64036  0.53648  12829.27264  0.00011  55528.75964  52.93264   7.60713  21.14149  55559.81278 
    14.77932  1.73668   1.4719       0.74117         2979.73244  0.13822  0.02248      0.2058  24.30177     17.24126   5614.63834    -4.45566  1.16199  11032.61513   0.0001  55529.94434  52.76158  10.99459  21.18238  55559.81278 
    14.69716   1.6684  2.49392        4.2991         2085.45525  0.18977  0.02598     0.04858  19.49684     19.76118   6659.15611    -3.70396  1.53367  12430.04888  0.03206  55530.69604  52.84741  14.48984  21.13827  55559.81278 
    14.93602  1.81803  1.57226       2.93743         2607.20737  0.22574  0.04126     0.03073  13.41623     18.89743   9464.82533    -1.65843  0.83044    10707.695  0.00439  55532.74157  52.68597  16.01623  21.15473  55559.81278 
    14.78159   1.6727  3.57826        3.7953         2010.12335  0.05667  0.01048     0.05066   51.2423     17.42612   6221.68063    -4.57536  0.71278  12243.35619  0.00015  55529.82464  52.90726   5.11912  21.13753  55559.81278 
    15.10767  1.68454  2.20744       1.62312         3159.44232  0.06573  0.01151     0.23034  43.40655     19.76879   7423.55176    -2.36978  0.38798   10502.7237  0.03262  55532.03022  52.76237   5.77968  21.13839  55559.81278 
    14.99508  1.91185   0.7584       1.70938          2321.3438  0.24462  0.03771     0.29546  14.37861     16.88208   9315.05094    -1.35363  1.01045  13247.32534    4e-05  55533.04637  52.87693  17.60066  21.18641      55557.4 
    14.98284  1.85921  1.71436        4.0444         2334.34259  0.27118  0.04908     0.12683  12.68127     19.60767   4976.95002    -1.19776  0.79922  13412.88666  0.02251  55533.20224  52.87661  19.01929   21.1704  55559.81278 
    14.88186  1.90603  2.58854       2.10018         2065.74376  0.19968  0.03752     0.03616  13.84137     17.57143   8295.55544    -3.34852  0.76613  12196.52627  0.00021  55531.05148  52.80181  14.25707   21.2035  55559.81278 
    14.70691  1.60534  1.43473       1.26732          2314.5589  0.11032  0.01949     0.02554  26.78473     19.47276   5200.34544    -2.82664    1.184  11183.35718   0.0165  55531.57336  52.78098    8.9303  21.14235  55559.81278 
     14.7534  1.79129  2.78683       4.98547         2449.81446  0.20858  0.03605     0.01444  15.66978     19.05209   4671.95382    -1.48774  1.39053  12012.22354  0.00626  55532.91226  52.79936  15.26693  21.09227  55559.81278 
    14.91581  1.78565  3.76427       2.21379         2613.60067  0.18583  0.02563     0.01343  18.54696     18.45205   5705.44874    -3.75918   0.6708  11501.88606  0.00157  55530.64082  52.77588  14.05468  21.21994      55557.4 
    14.99555  1.82894  1.02432       0.28357         3191.53497  0.40615  0.06971     0.35637   7.85091     19.34822   9432.35497      -3.994  0.70156  12367.75123  0.01239    55530.406  52.76093  25.66909  21.12099  55559.81278 
     14.7202  1.72102  2.45402       2.79329         2307.84951   0.1348  0.02341     0.14454  25.42049     19.66053    7714.1225    -1.62166  1.50379  13311.48147  0.02542  55532.77834  52.92821  10.81011  21.19836  55559.81278 
    14.41907  1.55197  5.82049       4.23417         2242.37375   0.0913  0.01427     0.01733  25.43358     19.73226   3468.73484    -7.24886  0.81458  12836.40815  0.02999  55527.15114  52.89669   7.32216  21.16401  55559.81278 
    14.72639  1.34515  2.55368       4.75614         2533.80527  0.40546  0.04116     0.01072  10.31785     19.71694   3193.19124     -2.1201  1.09594  11702.54588  0.02895   55532.2799  52.73925  27.22797  21.18415  55559.81278 
    14.49112   1.8985  5.22671       1.12361          2634.1621  0.28991  0.03491     0.13685  11.13252     20.52376   5081.47124    -5.15663  1.46635  12741.26936  0.18556  55529.24337  52.82017  19.78685  21.14828  55559.81278 
     14.7379  1.59854  1.88685       2.38175         2117.41588  0.14208  0.02519     0.03765   22.1493     19.51783   3138.06515     -1.5188  1.04624  13283.93054   0.0183   55532.8812  52.91549  11.11062  21.18674      55557.4 
    14.77576  1.77937  4.91976       1.76138         2679.50264  0.09641  0.01175     0.01645  35.63542     20.21177   9303.09169    -6.70534  0.62567  10602.67515  0.09047  55527.69466  52.75627   8.20219  21.19822  55559.81278 
    14.88651   2.0252  5.83994        0.0664         2421.98723  0.40325  0.02592     0.01144   12.4673     16.98199   4742.66124    -5.01726  0.86623  13798.34664    5e-05  55529.38274  52.89969  28.18316  21.19927  55559.81278 
    14.86007  1.97237  1.02623       0.56647         2467.62097  0.23015  0.04709     0.30301  13.64449     16.01239   5126.02732    -3.94268  1.23609   12213.0653    1e-05  55530.45732  52.80172  16.38554  21.22866  55559.81278 
    14.65945  1.62022  2.72699        0.0524         2712.29649  0.47562  0.03615     0.01281   9.08144     16.41285    7207.2785    -5.24571  1.13714  11504.01411    1e-05  55529.15429  52.71228  31.06093  21.22028  55559.81278 
    14.91806  1.46143  1.58856       3.11264         2757.05306  0.10125  0.02688     0.04929  25.94251     18.22672   6062.57176    -1.63609  0.54282  11999.64007  0.00094  55532.76391  52.83969   8.14907  21.19862  55559.81278 
    14.73322  1.67548  1.46701         0.388         2704.93903   0.1563  0.03341     0.31511  19.31217     16.20585    5078.2356     -4.1669  1.15889  12700.45978    1e-05   55530.2331  52.86532  11.91292  21.13378  55559.81278 
    14.53949  1.96362  4.47429       1.53313         2326.78193  0.47329  0.10605     0.14105   4.40601     20.47214   7755.96648    -3.99691  1.21365  12401.65475  0.16477  55530.40309  52.70174  25.95858  21.13555  55559.81278 
    14.70426  1.57003  2.46451       2.60229         2616.94083  0.25737  0.03245      0.0213  13.88865     19.28375   6749.30014    -2.32293   1.5104  11906.21386  0.01068  55532.07707  52.78118  18.38905   21.2091  55559.81278 
    14.67367  2.18706  4.73151       0.10517         2641.86282  0.06313   0.0135     0.01784  30.60914     18.19932   3318.60354     -9.1333  0.99108  10032.66759  0.00088   55525.2667   52.6969   5.23179    21.209  55559.81278 
    14.91744  1.59979  1.45982       2.69032         2023.63603    0.337  0.05175     0.04978    9.3238     19.01766    6751.8397    -1.92934  0.63281  11602.25939  0.00579  55532.47066  52.72219  22.13647  21.17793  55559.81278 
    14.91284  1.78578  2.00789       0.47459         2679.46273  0.21567  0.03591       0.023  14.42655     18.18837   6188.30637    -3.71435  0.68484  12325.24577  0.00086  55530.68565  52.81455  15.52799  21.21706  55559.81278 
    15.10556  1.79842  2.32138       2.00724         2220.71701  0.23508  0.03803     0.01189  14.63485     16.62796   7380.64643    -3.51093  0.44973  12486.82365    2e-05  55530.88907  52.82711  16.97464  21.19443  55559.81278 
     14.7949  1.56799  3.70361       0.39461         3030.23861   0.1092  0.01797     0.06468  24.50606     16.07227   7877.83884    -7.51374  0.47554  11334.03842    1e-05  55526.88626  52.78565   8.69881  21.22546  55562.63759 
    14.78146  1.64032  0.90343       2.80871          2215.6872  0.47305  0.08514      0.0358    7.1286     18.67694   6742.54953    -1.65307  1.48837  12271.31039  0.00264  55532.74693  52.74443    29.237  21.19634  55559.81278 
    14.54325  1.58489  5.02227       2.28415         2433.58751  0.17282  0.03146     0.42954  15.05021     18.44988   6693.21936    -6.21029  0.92105  12163.60154  0.00157  55528.18971  52.80676   12.5488  21.17623      55557.4 
    14.65884  2.13582  4.52959       0.58451          3616.9839   0.0869  0.02413     0.20518  17.04634     18.56978   5178.93953    -6.95377  1.11132   9434.21376  0.00206  55527.44623  52.59669    6.4666  21.17451      55557.4 
    14.75556  1.62442    1.291       0.00013         3070.27395  0.25582  0.05752     0.28155   9.88901     17.93133    4015.3532    -5.91947   0.8186   11470.7148  0.00047  55528.48053  52.71788  17.02211  21.15388      55557.4 
    14.51802  1.56368  3.74603       1.22938         2591.28633    0.206  0.03631     0.41008  12.72052     16.93981   9927.37013    -5.44987  1.36546  11140.06496    5e-05  55528.95013  52.71562  14.45713  21.25968  55559.81278 
    14.86415  1.81877  1.76398       2.86662         2492.89849  0.15879  0.02385     0.07443  23.46936     17.02278   5101.61601    -1.56969  1.27222  12854.26069    6e-05  55532.83031  52.89156  12.55038  21.16525  55559.81278 
    14.77922  1.65675  1.52251       0.50324         2571.27019  0.46404  0.05717     0.02484   8.57337     18.59168   3198.88013    -3.33346  1.24912  13072.85877  0.00217  55531.06654  52.81775  29.91839  21.16757  55562.63759 
    14.77163  2.08977  3.96984       2.11731         2085.92703  0.11125  0.02122     0.13688  25.93221     17.83908   4545.05517    -4.83628  1.15408  12445.01501  0.00038  55529.56372  52.87131   8.95353  21.14365  55562.63759 
    14.74212  1.73031  4.61674       0.26003         3015.92031  0.18218  0.03608      0.0126  11.12824     17.51245   7611.86897   -16.02123  0.41795   9127.14657  0.00018  55518.37877  52.53037  12.43326  21.15918  55559.81278 
    14.91365  1.94355  2.81014       0.39108         2771.43812  0.25823  0.04432     0.14229  12.76697      17.7233   7132.94072    -5.63254  0.74227  13185.15246  0.00029  55528.76746  52.86234  18.13595  21.14494  55559.81278 
    14.87297  1.86314  1.48415       4.91325         2195.62457   0.2537  0.05311     0.03594   13.4487     16.26897    4232.7768    -2.33974  1.20524  14055.84932    1e-05  55532.06026  52.92251   18.0088  21.19028  55559.81278 
    14.78573  2.07681  2.87113       4.07683         2252.11886  0.22566  0.04376     0.07795  12.34737     19.72774   8341.54988    -2.14398  1.36993  11054.02098  0.02968  55532.25602  52.70621  15.73986  21.17826  55562.63759 
    14.40113  1.76632  5.60713       0.77105         2203.41475   0.3457  0.03923     0.01517   6.23012     19.77291   7106.49647    -7.78717  0.99636  11186.36914  0.03293  55526.61283  52.65012  20.69228  21.15066  55559.81278 
    14.56088   1.6183  4.19887       3.09353         2819.51863  0.14295  0.03139     0.02697   13.9494     19.89439   8933.07547    -4.22997  0.98041   9308.78492  0.04356  55530.17003   52.5678  10.22275  21.15299      55557.4 
    14.76917  1.91861  5.24551       2.64726         2032.93972  0.09641  0.02933     0.08741  16.04158     16.04646   6741.24787    -8.29684  0.54597  10969.71705    1e-05  55526.10316  52.72251   7.08976  21.19196  55559.81278 
    14.93777  1.61952  2.46738       4.85395         2211.59507  0.13449  0.03257     0.37682  19.05266     18.21062   4263.87189    -2.86984  0.50673  11498.21071   0.0009  55531.53016  52.77783  10.22448  21.20488      55557.4 
    14.78778  1.68432  2.08474       4.79236          2343.3527  0.07062  0.01729     0.03252  36.29471     16.37718   3937.29479     -4.2282  0.85546  10597.85769    1e-05   55530.1718  52.75723    6.0271  21.20765  55556.98797 
     14.7423  1.99746  3.72451       2.52319         2248.94915  0.45675  0.06154      0.3721   7.37025     20.01493    3079.1137    -4.27441  1.33697  11448.98775   0.0575  55530.12559  52.68756  28.44961   21.2288  55559.81278 
    14.96231  2.01844  1.08206       4.64943         2279.07174  0.15494  0.02636     0.04933  23.06279     18.47763   3492.67143    -0.89075  1.50851  13502.46493  0.00167  55533.50925   52.9329  12.20727  21.21121  55559.81278 
    14.56326  1.58966  4.00563       3.93818         2064.26849  0.10137  0.02099     0.17399  23.47906     18.57278   8702.36865     -4.6893  1.01276  11493.61383  0.00208   55529.7107  52.79441   8.01236  21.18787      55557.4 
    14.97994  1.47673  1.49949       4.60439          2308.0444  0.07033  0.01298     0.25629  44.15133     18.15432   4132.08031    -2.18251  0.50408  11047.24471  0.00079  55532.21749  52.80749   6.20106  21.18935  55559.81278 
    14.55381   1.5551  2.60945        0.8016          2069.7497  0.31462  0.05869     0.29505   8.48937     16.74398   8141.94833    -5.60552  1.22299  11368.82739    3e-05  55528.79448  52.69548  20.24025   21.1107  55559.81278 
    14.70797  2.18253  5.43556       1.85709         2869.83343  0.04423  0.01423     0.02158  29.14281     16.52081   7504.67598    -6.39497  0.91949   9073.45701    2e-05  55528.00503  52.60588   3.63412  21.16869  55559.81278 
    15.11334  1.81541  0.84549       1.05989         2009.71976  0.40633  0.05421     0.01702     9.338     16.41706   8036.70173    -2.31979  0.55008  12174.80261    1e-05  55532.08021  52.76418  26.69958  21.11809  55559.81278 
    14.48608  1.53734  5.02155       4.30302         2020.19041  0.12253  0.02862     0.41362  16.22314     16.24645   8123.88898    -6.78391  0.84267  12051.23153    1e-05  55527.61609  52.80514   9.03013  21.13069  55559.81278 
    15.03208  1.95125  1.12179       3.28247         2165.34524  0.18321   0.0366     0.08215  17.18007     18.05081   8941.46187     -2.0976  0.79814  12329.08594  0.00062   55532.3024   52.8298  13.65364  21.23325  55559.81278 
    14.68824  1.72209  3.52123       1.04539         2354.52698  0.40999  0.04488     0.13133   8.55853     19.38092   8917.84866    -3.81529  1.24785  12387.23512  0.01336  55530.58471  52.77079  26.42308  21.19424  55559.81278 
