 texplosion  fnickel    Pspin  log(Bfield)      Mns  thetaPB   mejecta    kappa  kappagamma      vejecta  temperature    alpha  cutoff_wavelength  log(nhhost)      A_V         MJD0   kenergy  mnickel            TSD   log(L0)  Peak_mag     Peak_MJD  log(E_rad)  log(Peak_lum)  Rise_Time    E_fold  tau_1  delta_m15     r_peak     frac 
  -19.29009   0.0301   1.5455     14.23901  1.73805  0.67221  21.99752  0.04226     0.03631   7607.03388   4484.12767  1.09204         3227.15047     20.23319  0.09504  58505.15991   7.59332  0.66211   128230.19457  47.02278  19.37305  58557.26432    51.44489       44.75893   22.33501  37.79771   49.5    0.17642  -21.82284  0.99184 
  -18.27514   0.0525  2.12718     13.96589  1.56645  1.20431   8.61695  0.11497     0.26019   9581.26859   6183.92078  1.30856         2636.09164     18.63862  0.00242  58506.17486   4.71875  0.45237    770138.9597  45.92158  19.34315  58557.26432    51.38696        44.6775   22.33501  41.23387   49.0    0.19504  -21.77452  0.98756 
  -20.07682  0.00719  2.78246     13.98252   1.9805   1.1831   7.81022  0.05741      0.4093   8872.66483   4591.53662  1.21105         2496.30531     17.69091  0.00027  58504.37318   3.66774  0.05614  1543153.77973  45.48835  19.24042  58550.90618    51.30796       44.63499   25.55337  34.57935   70.5    0.20736  -21.78662   0.9981 
  -18.00883  0.22217  1.30849     14.47606  1.72124  0.38367  23.42162  0.03833     0.03273   8372.93217   4619.05594  0.94163         3430.93407     20.66293  0.25566  58506.44117   9.79488  5.20347    30554.57784  47.78607  19.30049  58553.32918    51.61746       44.94027   22.33501  32.64348   58.0    0.18236   -22.0106  0.95559 
  -16.35527  0.06163  1.54757     13.96704  1.49946   1.3671  24.38832  0.03093     0.33398   7097.65336   6459.49548  2.16876         3123.30376     20.40799  0.14214  58508.09473    7.3289  1.50313   388132.56098   46.4765  19.29654  58553.32918    51.40355       44.70343   25.77117  36.07963   50.0    0.18892  -21.92769   0.9771 
  -30.47603   0.0027  1.58007     14.01707  1.74138  1.22621  12.15957  0.11309     0.37854   8464.56167   9340.11356  0.41293         3195.37373     16.10819    1e-05  58493.97397   5.19702  0.03287   373190.35372  46.54045  19.32621  58553.32918    51.44168       44.77524   22.33501  37.79771   42.0    0.15286  -21.57298  0.99957 
  -21.96148  0.15765   2.5772     14.19379  1.69912  0.46545   6.50215  0.10463     0.01634   7816.40885   8690.19111  2.46615         2618.32187     20.14253  0.07714  58502.48852   2.36973  1.02504   429299.67654  46.04401  19.30579  58555.75219    51.45051        44.7463   24.05309  37.79771   47.0    0.18188  -21.80723  0.96384 
  -15.59729  0.09531  0.90567     14.49673  1.94125  0.66986  18.63196  0.06974     0.42793    9129.9725   8480.06791  0.95482         3454.71745     18.93614   0.0048  58508.85271   9.26455  1.77578    15009.96686  48.46661  19.31268     58557.26    51.42692       44.75948   25.55337  36.29743   40.5    0.15834  -21.83352  0.99548 
  -28.31583  0.00199  1.83788     14.29643  1.79981  0.51334  25.98053  0.03352     0.11951   6244.78664   9783.51771  1.41119         3375.29747     20.04701  0.06191  58496.13417    6.0438  0.05182   144151.14101  46.83662  19.37617  58558.17519    51.33868        44.6774   20.61693  37.79771   49.0    0.15276  -21.61929  0.99913 
  -15.46999  0.15841  1.32011     14.37039  1.80291  0.70369  29.00795  0.03912     0.05728   8567.82529   5844.42096  2.80317         2639.36667     20.21743  0.09166  58508.98001  12.70239  4.59515    52994.82553  47.55936  19.34989  58555.75219    51.33904       44.67646   18.89885  39.51579   57.0    0.15754  -21.88021  0.96375 
   -22.7199  0.22173  1.94731     13.87589  1.51117   1.3007    8.4716  0.07583      0.1616   8782.70212   3858.25322  0.49322         3561.95328     19.70379  0.02809   58501.7301   3.89806  1.87844   942361.46322  45.89507  19.36293  58555.75219    51.41482       44.75889   18.89885  37.79771   60.5    0.20064  -21.80489  0.95573 
  -15.90517  0.22649  1.05203     14.36472  1.76956  0.65945  14.51051   0.0634     0.02888   8031.74397   8624.46899  0.89738         3485.37179     20.27044  0.10355  58508.54483    5.5838  3.28652    33906.59808  47.94237   19.3817     58557.26    51.36646       44.63669   24.05309  41.10858   45.0    0.19078   -21.8448  0.98353 
   -23.4886  0.00429  1.78366     14.11272  1.93703   1.2147  18.95338  0.04933     0.04882   7987.63934   9560.16955  0.68293         3397.80228     19.45491  0.01584   58500.9614   7.21358   0.0814   340513.50821  46.52122  19.34577  58557.26432    51.45726       44.77608   22.33501  37.79771   41.0    0.18164  -21.69543  0.99885 
  -16.93815  0.00691  2.16437     14.34527  1.97819  0.63392  12.66055  0.07154     0.25433   8368.82304   6058.88505   1.1887         3376.74675     19.87566  0.04172  58507.51185   5.28943  0.08748    175473.3922  46.65024  19.38722  58558.17519    51.36237       44.63043   24.05309  40.16368   46.5     0.1984  -21.83053  0.99823 
  -20.72872  0.07127  1.56947     14.28336  1.72657  0.65549  17.58701  0.06614      0.1271   7722.64842   7937.63661  1.33831         2986.70049     17.94322  0.00049  58503.72128   6.25679  1.25341   107097.17925  47.08475   19.2772  58555.75219    51.38388       44.70605   25.77117  36.07963   49.0    0.16078  -21.68328  0.98408 
  -12.49287  0.01268  1.29681     14.25577  1.78447  0.80295  10.57461  0.09796     0.12694   7944.19126   5867.08292  1.77265         3218.98307      20.5111  0.18023  58511.95713   3.98099  0.13404    85810.62543  47.36106  19.35979     58557.26     51.4429       44.74766   22.33501  37.79771   45.0     0.1859  -21.95858   0.9989 
  -18.90176  0.00866  1.75626     14.12163  1.82226   1.2265  14.43335  0.08103     0.09128   8820.95733   6254.64545  1.07773         3124.35501     19.54511  0.01949  58505.54824   6.69924  0.12498   298089.62348  46.56593  19.26154  58553.32918    51.46722       44.79733   20.61693  32.64348   45.5    0.18327  -21.79402  0.99813 
  -20.80472  0.06492  1.53341     14.47853  1.79984  0.43475  12.53214  0.09022     0.07845   8639.33778   8603.87017  0.76129         3312.64391     18.09263  0.00069  58503.64528   5.57973  0.81358    43380.98337  47.51546  19.36794  58557.26432    51.38216       44.70831   18.89885  39.51579   41.5    0.18539  -21.73449  0.99071 
  -25.44487  0.36819  1.32938     14.07778  1.69474  1.44336    6.3588  0.19693     0.24345   9055.89212   9961.17689  0.49625         3198.38605     16.74712    3e-05  58499.00513   3.11075  2.34123    194385.3067  46.96199  19.32874  58558.17519    51.38266       44.70439   18.89885  39.51579   39.0    0.17108  -21.59683  0.97849 
  -20.98084  0.04147  1.35087     14.19174  1.71025  0.85129  27.84695  0.04063     0.04356   7704.12039   7066.90264   1.3875         3116.05185     20.11298  0.07206  58503.46916   9.85941  1.15481   119844.07118  47.16206  19.33734  58555.75219    51.40735       44.70237   20.61693  39.51579   50.5    0.15877  -21.74597  0.98904 
  -29.39067  0.06944  0.70112     14.20316  1.51252  0.60427  37.92225  0.02983     0.11676   8806.55047   8027.97279  0.08094         3530.42331     20.19045  0.08613  58495.05933  17.54417  2.63343    27088.81378  48.32417  19.31335  58557.26432    51.42099       44.74622   24.05309  34.36155   50.0    0.17431   -21.5881  0.99274 
  -16.24463  0.06059  1.48785     14.38587  1.58396  0.32458  21.46188  0.02688      0.0707   7574.33406   8020.74326  0.99468         3510.12625     20.64467  0.24513  58508.20537   7.34487  1.30034     55071.6097  47.38254  19.32607  58555.75219    51.51734       44.86274   20.61693  35.29594   53.0    0.22194  -22.03844  0.98296 
  -14.14935  0.00241   0.8278     14.10669  1.47607  1.23353  48.62825    0.024     0.39531   8501.40971   7480.13825  0.93021         3606.01838      19.0667  0.00648  58510.30065  20.96514  0.11716    57463.83664  47.84271  19.31142     58557.26    51.34733       44.68478   25.77117  36.07963   40.0    0.19425  -21.79088  0.99956 
  -27.32664   0.0065  2.49789      14.0684  2.14672  1.02289   7.26239  0.08799     0.11317   9482.82845   6957.90314  0.04854         3055.16204     17.82911  0.00037  58497.12336   3.89568  0.04723   907687.85703  45.84754  19.19313  58550.90618    51.37415       44.69864   22.33501  36.07963   62.0    0.19358   -21.8044  0.99887 
  -20.34096  0.00811  2.40815     14.11538  1.89297  0.79282    9.4124  0.06055     0.23845   8389.27445   9399.20533  0.38926         3829.96356     16.78418    3e-05  58504.10904   3.95163  0.07635   599204.81462  46.00504  19.28793  58555.75219    51.41249       44.74124   22.33501  36.07963   47.5    0.20147  -21.75907  0.99795 
   -8.62279  0.00412  0.71389     14.24526  1.45788  0.67566  29.38531  0.04543     0.19012  10552.10588    6955.8602  3.05534         2377.74011     20.61279  0.22778  58515.82721  19.51802  0.12098    22298.91182  48.37702  19.28649  58550.90618    51.58878       44.90544   24.05309  37.79771   42.0    0.17002  -22.08187  0.99967 
  -19.55401  0.00134  1.96728     14.01298  1.73536  1.40422   11.3548  0.11069     0.20209   9388.32294   4461.73396  2.61624         2211.06113     18.67571  0.00263  58504.89599   5.97011  0.01525   587469.86139  46.15152  19.33791  58555.75219    51.39601       44.67265   27.48924  37.79771   49.5    0.16433   -21.7981  0.99969 
  -16.64896  0.05986  2.37246     14.49218   2.1039  0.52607   9.58192  0.10484     0.13112    8464.7318    4480.8614  1.72489         3045.98451     18.52298  0.00185  58507.80104   4.09549  0.57357   113992.14627   46.7846  19.33882  58555.75219    51.56725       44.90352   24.05309   30.9254   47.5    0.18474  -21.76413  0.98746 
  -19.72898   0.0792  1.69098      14.0352   1.6278  1.28915  13.17526   0.0965     0.48186   9022.92957   7285.49564  4.36926         2147.98053     18.67393  0.00262  58504.72102   6.39855  1.04352   367533.64168  46.45887  19.24861  58555.75219    51.45519       44.81316   18.89885  34.36155   49.0    0.15309   -21.7699  0.98311 
  -21.66169  0.04844  1.44609     14.09275   1.6871  1.25899  11.17925  0.12636     0.40829   8427.87206   7130.48588  2.51853         2527.68624     18.74592  0.00309  58502.78831    4.7367  0.54153   213721.04599  46.84575  19.35931  58553.32918    51.51233       44.82239   20.61693  36.07963   49.0    0.15013  -21.65514  0.99393 
  -16.16221  0.29452  1.91412     14.02509   1.5529   1.2369    9.8868  0.09378      0.0355   9148.79125   6028.97872  2.47869         2426.76008      18.5046  0.00178  58508.28779    4.9364  2.91183   470675.48331  46.22333  19.28242  58550.90618    51.49623       44.79098   22.33501  34.36155   53.5    0.18319  -21.78524  0.93794 
  -23.96035  0.10942  1.63487     13.98676  1.56358  0.76571   6.27651   0.1184     0.05222    7567.9866   5547.84654  0.95596         3380.32171      20.5715  0.20712  58500.48965    2.1444  0.68677   412463.60546  46.42061  19.29406     58557.26    51.34277       44.67821   24.05309  36.07963   59.0    0.16991  -21.94149   0.9888 
  -20.55626  0.01461  2.77631     13.88687  1.67736  0.84147   9.85548  0.06086     0.01388   8671.94649   8451.94706  3.22204         2258.90457     16.99364    5e-05  58503.89374   4.42118  0.14403  2021316.44969   45.3009  19.36282  58555.75219    51.50894       44.85174   18.89885  37.79771   49.5    0.17859  -21.77125  0.99373 
  -23.17389  0.06947  1.44767     13.76084  1.32367  0.95114  14.38303  0.03591     0.06587   7592.39393   6935.00417  1.10482         2894.68884     20.57343  0.20805  58501.27611   4.94578  0.99917   774907.02693  46.18004  19.32669  58555.75219    51.40361       44.70718   24.05309  36.07963   70.0    0.18793  -21.99186  0.98365 
  -16.99107  0.14035  2.15053     13.94439  1.71292  1.49406  11.31841  0.06112     0.01634   8509.58336   4101.97689  2.18785         2683.92515     20.44826  0.15595  58507.45893    4.8891  1.58849    950306.1043  45.85963  19.27545  58550.90618    51.46471       44.77292   24.05309  33.93723   52.0    0.20117  -21.95921  0.96192 
  -23.88848  0.00959  1.63714     14.00159  1.76631  1.12664   7.54867  0.12657     0.34383   7792.65616   8634.91071  1.57487         2926.71129     20.55612  0.19992  58500.56152   2.73444  0.07236   436389.72825  46.44786  19.37541  58555.75219     51.4318       44.73546   20.61693  39.51579   49.5    0.16418  -21.90819  0.99901 
  -19.09873  0.07557   1.6551     14.26848  1.68819  0.60078  22.83844  0.03975     0.04378    7710.3352    6887.6592  1.55037         3069.77703     20.32127  0.11641  58505.35127   8.09916  1.72601   124717.10961  46.96269  19.32855  58553.32918    51.55703       44.87313   22.33501  36.07963   53.0    0.17917  -21.86474  0.97487 
  -13.44843  0.00158  0.87418     14.12978  1.34834  0.82464  30.98128  0.03667     0.13103   7531.26909    6196.5414  1.94308         3139.35672     20.11504   0.0724  58511.00157  10.48245   0.0491    52633.11143  47.79418  19.32809     58557.26    51.35515        44.6348   25.77117  37.79771   45.5    0.17117  -21.79588  0.99974 
  -25.21015  0.04865  1.73833     13.97539  1.61949  1.32446  10.75945  0.09267     0.04548   7557.41631   8607.42505  1.06769          3034.4742     18.46452  0.00162  58499.23985   3.66576  0.52342   508946.69575  46.29128  19.34722  58555.75219    51.51394       44.83779   22.33501  34.36155   47.5    0.16698  -21.60853  0.99087 
  -15.03343  0.00493  1.32567     14.16152  1.79812   1.5701  18.31642  0.08136     0.18776  10578.19935   4165.34188  2.50807         2212.01217     17.86417  0.00041  58509.41657  12.22619  0.09035   139467.86066  47.13432   19.3795     58557.26    51.30238       44.59272   24.05309  41.23387   42.5    0.17666   -21.8307  0.99925 
  -18.48071  0.01177   0.7785     14.10111  1.61931   1.4675  67.71352  0.01528     0.01575   7819.70201   7182.29097  0.59015         4466.21403     19.85245  0.03955  58505.96929   24.6992  0.79668    57207.63928   47.9382  19.36262  58553.32918    51.57471        44.8208   27.48924  39.89423   42.5    0.19492  -21.86988  0.99777 
  -21.55526  0.01753  1.89792     14.24187  1.76553  0.71132  19.88017  0.04858     0.02273   7443.46023   5839.84863  2.00934         3057.62593     18.88801  0.00429  58502.89474   6.57048  0.34849   193863.82027  46.67167  19.33291  58557.26432    51.35572       44.66209   24.05309  39.51579   50.5    0.17053  -21.74195  0.99363 
  -22.95051  0.00314  1.83955     14.13336   1.9302  1.21408  18.39167  0.06801     0.01849   7664.31303   6468.37091  1.49162         3213.98322     19.36977  0.01302  58501.49949   6.44458  0.05767   328184.23073  46.50891  19.37426  58558.17519    51.43287        44.7434   24.05309  37.79771   51.0    0.15423  -21.69121  0.99913 
  -14.38332  0.17255   0.8441     14.32657  1.52939  0.70262  42.53166  0.02217     0.02536   8389.61613   7676.77869  1.69597         2795.31601     20.16883  0.08195  58510.06668  17.85763  7.33873    22490.09737  48.24858  19.33858  58553.32918    51.40542       44.69445   25.77117  34.36155   61.5    0.16299  -21.83001  0.97518 
   -15.4026  0.00118  1.48916     14.11753  1.71089  1.41571   6.40955  0.20227     0.08378   8301.11152   9378.18729  1.30778         3662.90568     17.45216  0.00016   58509.0474   2.63467  0.00756   205052.24113  46.84432  19.37856   58560.5982    51.30338       44.58875   29.20732  41.23387   40.0    0.16703   -21.7995  0.99991 
  -26.37371   0.0087  1.35826      14.0668  1.77139  1.51606   9.55891  0.10399     0.03644   7201.85985    7383.9288  0.68722         3774.46227     18.07625  0.00066  58498.07629    2.9575  0.08318   223099.19223   46.9027  19.28834  58553.32918    51.57512       44.86577   17.18078  36.09449   48.0    0.16654  -21.51667  0.99923 
  -10.78702   0.0448  0.93701     14.23835  1.86538  1.21026  18.70191  0.06874     0.20734   9354.68626   8409.91028  2.39336         2596.21637     20.49125  0.17218  58513.66298   9.76274  0.83781       50743.09  47.89075  19.37598  58555.75219    51.42451       44.72389   22.33501  37.79771   42.0    0.15966  -21.93765  0.99718 
   -18.1237  0.07608  2.54223     13.78186  1.52635   1.3657   5.40103  0.10972     0.04157   9345.91583   4593.12774   3.6998         2134.07186     19.31776  0.01155   58506.3263   2.81415  0.41091  2501410.76962  45.24389   19.3585  58560.35553    51.33787       44.69726   22.33501  36.07963   57.5    0.19055  -21.79914  0.98306 
  -22.36971  0.04455   1.3177      14.4845  2.10052  0.56824   4.67501  0.22949     0.05716   7408.86994   6688.57878  0.96598         3346.29536     19.22165  0.00926  58502.08029   1.53078  0.20827     36373.4242  47.79075  19.36402  58555.75219    51.41257       44.73712   17.18078  37.79771   47.5     0.1747  -21.60505  0.99864 
  -21.98189  0.20334  2.86181     14.34446  1.83963  0.31885   4.68891  0.10497     0.02787   8309.58898   3792.81035  1.42318          2836.2651     19.25881  0.01008  58502.46811   1.93134  0.95342   286351.55349  46.16339   19.3448  58555.75219    51.34429       44.69812   20.39913  34.57935   57.5    0.18482  -21.81119  0.96296 
  -19.12997  0.01774  1.91237     14.11575  2.01562  1.32465  14.44337  0.05151     0.07698   8476.23661   6407.76475   0.3757         3516.87133     18.88978  0.00431  58505.32003   6.19016  0.25616   401671.50556  46.40624  19.37509  58558.17519    51.37652       44.72735   24.05309  36.07963   49.0    0.21307  -21.76246  0.99609 
  -19.83131  0.00145  1.69725     14.20333  2.14481  1.37137  10.28707  0.12899      0.0112   8500.41445   4480.90187  4.04556         2107.13859     19.33866  0.01212  58504.61869   4.43404  0.01491   224924.98828  46.78871  19.34705  58553.32918    51.40256       44.68344    30.9254  41.10858   42.5    0.15957  -21.76217  0.99984 
  -14.00745  0.00663  0.84493     14.23813  1.82393  1.01302  31.15493  0.04586     0.11757    8957.8538   4004.77207  2.01323         2863.99466     20.57701  0.20977  58510.44255  14.91289  0.20645    40383.49686  48.07001  19.37188  58555.75219    51.33638       44.56883   35.86183  44.88782   45.5    0.15896   -22.0293  0.99942 
  -14.53002  0.47157  1.90291     14.02554  1.83676  1.13338   7.71205  0.08262     0.13616   8877.14589   3095.20798  1.91393         2736.87298     20.67843  0.26494  58509.91998    3.6253  3.63673    549077.9797  46.23443  19.35723  58555.75219    51.42181       44.73616   18.89885  37.79771   61.0    0.21626  -22.15511   0.9401 
   -17.6272  0.15713  1.95058     13.94437  1.80757  1.01193  12.14774  0.03942     0.36372   6332.39124   5064.39615  1.12052         3792.64321     20.70832  0.28382   58506.8228   2.90575  1.90879   825065.88863  46.02913  19.31092     58557.26    51.35722       44.68415   20.61693  37.79771   72.5    0.18598  -22.05443  0.96508 
  -21.70515  0.10366  1.39865     14.28708  2.06636  0.85346  24.71775  0.03862     0.01559   8137.01453    6305.9422  0.50866         3503.62201     20.22117  0.09245  58502.74485   9.76262  2.56223   100062.75824  47.29236  19.27414  58555.75219    51.38293         44.672   25.77117  41.23387   53.5    0.17405  -21.76206  0.98062 
  -16.97105  0.11838  2.56236     13.91243  1.69622  1.45674   3.49472  0.16351       0.096   9473.87293   5425.04254  3.80152         2063.59939      18.8753  0.00417  58507.47895   1.87109   0.4137  1547848.44809  45.49132  19.36568   58560.5982    51.35367       44.69194   25.55337  36.29743   57.5    0.21497  -21.80747  0.98528 
  -19.45043  0.00756  2.08336     13.89363  1.66851  1.18092  11.69046   0.0616     0.33261   7933.53068   9732.27382  3.71695         2208.72904     20.38443  0.13463  58504.99957   4.38926  0.08833  1097511.94536  45.81324  19.34229  58555.75219    51.37654       44.64423   32.64348  41.23387   50.5    0.16997  -21.90158  0.99785 
