 texplosion  fnickel    Pspin  log(Bfield)      Mns  thetaPB   mejecta    kappa  kappagamma     vejecta  temperature    alpha  cutoff_wavelength  log(nhhost)      A_V         MJD0  kenergy  mnickel           TSD   log(L0)  Peak_mag     Peak_MJD  log(E_rad)  log(Peak_lum)  Rise_Time    E_fold  tau_1  delta_m15     r_peak     frac 
  -21.01551  0.00104  0.85038     14.26979   1.2043  0.46107   31.4904  0.02604     0.07374  4374.87349   4201.56551  0.86387         4522.54811     19.77105  0.03279  59438.31068  3.59531  0.03276   23345.25148  48.12216  19.15577  59494.38364    51.31442       44.58526   22.32697  45.17211   53.0    0.13193  -21.11302   0.9998 
  -16.37808  0.00168  0.72229     14.23929  1.76015  1.52077  26.21171  0.02542      0.1655  3627.06873   5319.91281  1.12862         4653.57182     16.53249    2e-05  59442.94812    2.057  0.04397   28327.48531  48.34476  19.16351  59494.38364    51.24435       44.49973   22.27913  46.94113   49.0    0.13795  -21.31664  0.99993 
  -24.05107  0.00639  1.22634     14.33659  2.02457   0.9916  16.39853  0.06895     0.19391  5400.96442   4626.88746  0.52359         4354.36575     16.66246    3e-05  59435.27512  2.85348  0.10476   60006.87234  47.61976  19.13553  59496.64914    51.41034        44.7282   19.71854  40.26099   52.5    0.12938  -20.98729  0.99941 
    -18.431  0.00132  0.79668      14.0396  1.39418  1.55393  21.74663  0.03587     0.28436  4450.50406   3636.33921  0.81521         4444.65505     19.35684  0.01263  59440.89519  2.56943  0.02866   68471.81863  47.77508  19.11366  59494.38364    51.23145       44.51805   19.09903  45.20424   49.5    0.15118  -21.22601  0.99989 
  -22.21696  0.01791  0.86759     14.25607  1.84664  1.14593  24.05958  0.03549     0.24858  4548.65881   5945.16227  0.58631          4717.5432     18.49631  0.00174  59437.10923  2.96949  0.43099    39690.0579  48.05992  19.08184  59494.38364    51.26707       44.56086   19.95156  42.91308   55.0    0.13397  -20.96782  0.99882 
   -16.9316  0.00507  1.40182     14.09198  1.50114  1.17761   11.1776  0.06988     0.22244   4864.1438   6892.49217  0.98679         4248.85639     18.58623  0.00214  59442.39459  1.57757  0.05665  179330.89203  46.89823  19.19862  59496.64914    51.24499       44.51113   20.79979  47.55613   50.0    0.15913  -21.31957  0.99929 
  -17.33311  0.01881  0.88644       14.312  1.83722   1.0254  12.55666  0.06363     0.28286  4630.48153   3267.33532  0.78607         4473.42091     18.52676  0.00187  59441.99309  1.60603  0.23613   31862.41149  48.13443  19.14405  59498.41437    51.38741       44.70646   18.41106  41.38002   47.5    0.13749  -21.30601  0.99935 
  -20.68952   0.0021  1.14066     14.15219  1.73656  1.28199   12.2708  0.06125     0.01928  4850.56947   5626.94336  0.52218         4755.34401     17.38748  0.00014  59438.63668  1.72221  0.02581  104095.27986  47.37679  19.08448  59496.64914    51.37232       44.69456   18.08321  40.26099   51.0    0.15285  -21.14795  0.99984 
  -19.49033  0.00558  0.83694     14.20321  1.72377  1.15464  37.16095  0.01921     0.06393  4456.53414   4546.85359  0.61686         5339.27382     18.34579  0.00123  59439.83586  4.40259  0.20734   43981.86213  48.01666  19.13446  59496.64914    51.40177       44.71702   19.70102   41.2247   50.0     0.1557  -21.19746   0.9994 
  -15.22789  0.00178  0.87479     14.59331  1.67048  0.37412  30.14852  0.03688     0.30442  5249.16344   6703.45335  1.46598         3850.10382      20.6248  0.23417   59444.0983  4.95534  0.05363    7724.14947  48.72003  19.11531  59494.38364    51.26478       44.53927   21.47759  43.71956   51.5    0.13957  -21.57775  0.99982 
  -11.56208  0.01411  0.76868     14.56882  2.04093  0.78765  33.20013  0.02948     0.01713  5072.12675   7451.69597  1.32338         4271.16118     18.87546  0.00417  59447.76411  5.09503  0.46857     8156.4775  48.89568  19.17493  59496.64914    51.26964       44.55814   21.06211  42.98721   47.0    0.14562   -21.2996  0.99954 
  -16.11421  0.01616  0.90623     14.25543  1.81306  1.43503  17.46338  0.04832     0.06755  4556.61454   4843.31502  0.97703         4290.69278     18.86955  0.00411  59443.21198  2.16292   0.2822   42642.46576  47.98294  19.07712  59496.64914    51.29519       44.59553   20.67136  42.30761   49.5    0.14674  -21.26606  0.99917 
  -14.61658  0.00112  1.08492     14.30478  1.95819  1.55529  36.24058  0.01995     0.03895  4025.40046     4629.012    1.154         4456.45482     18.59511  0.00219  59444.70962    3.503  0.04049   52591.17097  47.76899  19.05507  59494.38364    51.27988        44.5989   17.66773  40.85229   48.5    0.14192  -21.25179  0.99983 
  -17.59622  0.00183  0.82861     14.29794  1.81292   0.9959  15.04188   0.0511     0.46156  4678.72479   8249.89632  0.76028         4402.90596      17.5676  0.00021  59441.72997  1.96419  0.02755   29309.39142  48.22351  19.10962  59494.38364    51.23468       44.52792   17.85466  44.48553   47.0    0.15892  -21.30447  0.99993 
  -18.83475  0.00315   1.0797     14.37904  1.92748  0.79918  11.11739  0.07227     0.29559  5051.05309    8528.4081  0.66272         4433.42189     19.34548  0.01231  59440.49145  1.69197  0.03505   36419.09692   47.9259  19.12401  59494.09713     51.1914       44.45996   18.71776  45.85187   46.0    0.15454  -21.26231  0.99984 
  -19.59258   0.0071  1.00015     14.29349  1.95453  1.35168  32.04061  0.03132     0.02749  5380.35362   7140.77387  0.70145         3882.43127     16.76945    3e-05  59439.73361  5.53286  0.22746   46990.06628  47.88775  19.16475  59496.64914    51.35288       44.65667   20.76661  42.13971   49.0    0.14967  -21.09983  0.99922 
  -26.41707  0.02031  0.76017     14.10035  1.56499  1.51224  15.56236  0.07143     0.25502  5362.05223   5567.53946   0.3502         4500.10471      18.5489  0.00197  59432.90913   2.6691    0.316   52899.45943  47.97808  19.10761  59494.38364    51.29825       44.59882   20.25587  42.56271   54.0    0.13191  -20.86421  0.99914 
   -8.86492  0.00449  1.10229       14.347  1.68508  0.98602  37.22371  0.01821     0.09345  3386.69794   8311.87694  2.18825         4054.10851     18.78069  0.00335  59450.46127  2.54683  0.16707   38461.53457  47.82585  19.09392  59494.09713     51.2799       44.58788   18.29279  42.56271   51.0    0.12771   -21.2693  0.99912 
  -10.95238  0.00343  0.94243     14.22934  1.59541  1.35397  18.94915   0.0442     0.01811  4134.77251   6687.34292  1.83373         4059.62763     19.79212  0.03442  59448.37381   1.9325  0.06495   45762.01195  47.86271  19.19056  59496.64914    51.32943        44.5865    22.2581  46.85883   50.0    0.12585  -21.31746  0.99975 
  -14.42213  0.00799  0.80289     14.19295  1.57655  1.52747  22.84461  0.03551     0.39806  4333.93272   8170.41592  1.28446         4327.57233     18.96837  0.00517  59444.90407  2.55962  0.18246   38809.48404   48.0683  19.19635  59496.64914    51.29293       44.56965   22.30669  43.79344   48.5    0.14823  -21.32956  0.99953 
  -24.94739  0.00198  0.79239     14.21675  1.83789  1.47757  23.32104  0.05363     0.04073  6202.62589   5955.24315    0.171         5222.19091     16.60652    2e-05   59434.3788  5.35213  0.04628   39492.22836  48.13878   19.0761  59494.38364    51.24924       44.55161   17.13594  42.85898   49.5    0.14383  -20.94679   0.9999 
  -16.05789  0.00755  1.38808      14.3245  1.63903  0.75218  10.59048  0.08246     0.06138  4904.69387   6948.40652  1.20895         4142.52629     16.36253    1e-05   59443.2683  1.51973  0.07996   65801.35756  47.38037  19.11998  59494.38364    51.22193       44.50149   20.84059  45.20424   49.0    0.14359  -21.30709  0.99916 
  -20.44713  0.00126  0.98255     14.34832  1.79749  0.76233  16.39522    0.043     0.09768  4115.80929   4707.76159  0.82265         4602.90171     17.22608    9e-05  59438.87906  1.65674  0.02067   32400.84876  48.02825  19.13367  59494.38364    51.21188       44.47355   24.40951  43.75699   52.0    0.14775  -21.09074  0.99992 
  -19.29099  0.02172  0.73702     14.36795  1.88572   1.0016  28.85359  0.03838     0.43385   5784.9814   6835.58562  0.52756         4442.85702     17.60572  0.00022   59440.0352  5.76011  0.62662   17472.15267  48.56701  19.09502  59494.38364    51.15108       44.44639   19.63081  43.74497   48.5    0.14466  -21.11565  0.99916 
  -17.60101  0.00753  0.78184     14.23866  1.79857  1.46448  32.72375  0.02413     0.39972  4637.60232   3239.73465  0.72923         4692.35331     17.34841  0.00012  59441.72518  4.19834  0.24636   34014.03587  48.20588  19.12457  59494.38364    51.29279       44.57329   23.11292  42.85898   48.0    0.14789  -21.28102  0.99952 
  -23.43806  0.00185  1.37627     14.20793  1.98384   1.4731   9.16031  0.08832     0.39482  4911.47245   6375.67892  0.44642         4657.90702     16.70369    3e-05  59435.88813  1.31814   0.0169  133927.89995  47.16208  19.12619  59496.64914    51.24675       44.50862   20.67136  46.48888   54.0    0.14016  -21.03978  0.99987 
  -23.94456   0.0017  0.81441     14.31731  1.77311  0.83326  15.26282  0.05326     0.08694  4010.52196   4394.70206  0.75803          5208.6258     18.07066  0.00065  59435.38164  1.46441  0.02589    25329.0775  48.29228  19.15533  59496.64914    51.28541       44.56813   20.04629  44.29028   54.5    0.12766   -20.9256  0.99994 
  -22.36644  0.00171  0.71888     14.16005  1.58783  1.24354  19.18885  0.05471     0.08338  5366.47648   6319.03386  0.51342         4430.73956     17.91038  0.00045  59436.95975  3.29651  0.03288   36461.66955  48.19451  19.15978  59496.64914     51.3536        44.6478   21.59389  41.75465   50.0     0.1439  -20.97082  0.99993 
  -10.58268  0.04268  1.03782     14.38926  1.89389  1.18691  16.53232  0.05413     0.02767   4627.5062   5369.90112   1.6455         3996.44017     17.09856    7e-05  59448.74351  2.11181  0.70562   31542.84749  48.01506  19.16736  59496.64914    51.42105       44.71808   19.63081  43.18778   50.0    0.14994  -21.24953  0.99763 
  -18.13252  0.01303  0.84858     14.32677  2.04666  1.00716  17.18852  0.03722     0.01009  4056.53721   4790.19707  0.81231         4986.45347     20.33691  0.12068  59441.19367  1.68724  0.22393   30388.74173  48.23979  19.14656  59496.64914    51.35636       44.65024   19.17479  42.29841   49.0    0.13862  -21.41237  0.99951 
    -14.715  0.00229  1.44905     14.26061  1.78665  1.23487  38.07575  0.02492     0.04737  4712.50631   6662.57854  1.41216         4050.12095      17.5406  0.00019  59444.61119  5.04405   0.0871  104906.85648  47.17791  19.13486  59494.09713     51.0954       44.34116   19.70474  49.00308   51.5    0.13647  -21.26889  0.99914 
  -14.19539  0.00358  1.16962     14.51027  2.19325  0.85095  17.24995    0.043     0.47617   4067.5958   4949.92716  1.22706         4387.21624     18.86829   0.0041  59445.13081  1.70251  0.06174    26573.8975  48.04939  19.13802  59496.64914    51.35215       44.63958   19.21483  43.85915   48.5    0.14816  -21.31191  0.99976 
  -15.96047  0.00125  0.79284     14.23578  1.74155  1.45221   22.6968  0.03571     0.15214  4510.32939   3751.17159  0.88432         4911.49093     16.81797    4e-05  59443.36572  2.75428  0.02842    34321.5358  48.17584  19.22899  59494.38364    51.33935       44.58697   23.01655  47.52653   47.0    0.16194  -21.34192  0.99994 
  -18.09093  0.00186  0.97611     14.18191  1.83433  1.30542   16.6894  0.04171     0.23861   4232.3328   7648.13896  0.96109         4274.48559     20.47498  0.16585  59441.23526  1.78331  0.03108   70221.69693  47.70685  19.10446  59494.38364    51.30954       44.63187   18.41233  41.33263   50.0    0.13959   -21.4082  0.99988 
  -20.97468   0.0047  1.35192     14.32215  2.02874  1.03141  46.07926  0.01679     0.04471  4543.67447   6667.17011  0.71918         4604.27002     18.44818  0.00156  59438.35152  5.67475  0.21638   78097.04346  47.42154   19.1605  59494.38364    51.37019       44.65889   19.63081  43.71773   52.5    0.14088  -21.10222  0.99847 
   -14.4702  0.00783  0.88644     14.01089  1.26387  1.46484  19.30997  0.03412     0.11204  3891.08835   7604.67316  1.18275         4512.58705      18.2013  0.00088    59444.856  1.74402  0.15113   87708.83016  47.53221  19.17403  59496.64914    51.28933       44.54159   23.78095  46.03269   49.0     0.1421  -21.27336  0.99913 
  -20.30257  0.00598  0.74335      14.2754  1.79152  0.97094  23.45253  0.03086     0.04487  4145.70285   8225.25698  0.63012         5764.59856     18.09423  0.00069  59439.02363  2.40444  0.14033   25859.63737  48.36706  19.11991  59496.64914    51.27433       44.58146   18.26523  43.69277   50.0    0.13901  -21.12736  0.99974 
  -17.94293  0.00156  0.97978     14.25052  1.94513  1.41582  18.63528  0.04013       0.464  4588.35908   8672.78865  0.76994         4248.89333     19.80446  0.03541  59441.38326  2.34033  0.02915   54700.46541  47.83754  19.13412  59494.09713    51.09227       44.35915   21.21004  47.49779   47.0    0.16303  -21.29928   0.9999 
  -14.42962  0.00764  1.02534     14.21517  1.64157  1.41709  17.28895  0.05195     0.22963  4409.44202   5769.74076  1.48446         4131.56133     19.14934  0.00784  59444.89657  2.00523  0.13207   59494.68286  47.68789  19.10964  59494.38364    51.24847       44.54923   18.71776  42.13774   50.5    0.14594  -21.30111  0.99936 
  -16.21052  0.04084  1.08714     14.27973  1.87369  1.55654  24.59702  0.03416     0.15101  5033.45173   4102.46936   0.9543         4193.81429     17.94023  0.00048  59443.11567  3.71742  1.00444   56706.57922  47.71534  19.11371  59496.64914     51.2595       44.52716   23.05941  43.66119   50.0    0.14654  -21.33482  0.99552 
  -20.70563  0.01082  1.09834     14.25234  1.91334  1.50007  29.96712  0.02815     0.03646  4419.12066   4800.56081  0.86505         4314.54094     18.74222  0.00307  59438.62056  3.49095  0.32412    67050.0366  47.64276  19.14048  59494.38364    51.24073       44.50039   20.67136  47.51107   55.0    0.13803  -21.03187  0.99849 
  -16.29357  0.00487  1.56615     14.31436  2.06356  1.52049  29.52357  0.03005     0.14693  4665.31031   5635.17931  1.23067         4280.05653     18.30813  0.00113  59443.03262  3.83316  0.14383  110503.12553  47.15042  19.14796  59496.64914    51.42961       44.75284   18.00931  40.88311   50.5    0.13163  -21.31278  0.99866 
  -15.06796  0.00254  0.88111     14.15321  1.57588  1.34338  31.41831  0.01957     0.01347  3653.77708   6625.81492  1.14595         4659.20175     19.44713  0.01555  59444.25823  2.50204  0.07989    56101.0963  47.82734  19.05148   59492.4453    51.14044       44.41105    24.7132  42.03154   48.5    0.13758  -21.30598   0.9997 
  -23.98031  0.00368  0.97551     14.28437  2.11548  1.40729   16.2261  0.05138     0.04972  4468.79281    5686.7201  0.55583         5331.59372     18.43377  0.00151  59435.34589  1.93295  0.05974    50459.1543  47.91285  19.14539  59494.38364    51.23522       44.50778   23.05941  43.62242   54.0    0.13002  -20.99181  0.99982 
  -19.37186  0.00573  0.89726     13.93799  1.26536  1.53123    7.9187  0.11921     0.02968  5638.19484   6433.63591   0.6686         4113.55533     20.00163  0.05577  59439.95434  1.50162  0.04538  125860.00709  47.36533  19.08409  59494.38364    51.21565       44.49786   21.53338  43.62242   48.5    0.15503  -21.31583  0.99971 
  -17.62258  0.00186  0.89547     14.21775  1.35441  0.63527  12.16112  0.05922     0.03552  4452.34334   3250.77859  0.89877         4376.75947     19.96523  0.05128  59441.70361  1.43806  0.02268   36996.49158  47.92833  19.13618  59494.38364    51.25852       44.53961   21.37237  43.18778   49.0     0.1494  -21.35283  0.99987 
  -16.97149  0.00151  0.93874      14.3447  1.36058  0.56568  13.92702  0.09728     0.03387   5800.2745   3346.97624  1.25403         3893.52677     19.54504  0.01949   59442.3547    2.795  0.02104   22762.88216  48.10025  19.12045  59496.64914    51.34629       44.63084    21.5193  43.29571   50.5    0.13303  -21.32571  0.99988 
  -19.64463  0.00211  1.06164     14.01203  1.34741  1.13122   8.33641  0.11159     0.48481  5818.10755   7105.40757  0.43838         4555.13691     16.40397    1e-05  59439.68156  1.68333  0.01761  133414.68834  47.22119  19.19792  59496.64914    51.36559       44.65879   19.95162  43.97277   48.0    0.15919  -21.27517  0.99985 
  -15.75689  0.02272  1.01383     14.42535  2.13344  0.98614  20.46644   0.0294     0.01023  3714.04436   4357.64913  0.97254         4708.13323     17.85999   0.0004   59443.5693  1.68408  0.46499   28715.66062  48.12788   19.1673  59494.38364    51.06534       44.28998   29.24269  50.13307   48.5    0.13648  -21.27824  0.99865 
  -13.99357  0.01094  1.12296     14.37147  2.06658  1.28696  13.27605  0.05412     0.01302  3985.05173   8875.29248  1.24558         4510.78305     17.92119  0.00046  59445.33262  1.25766  0.14523    43739.0812   47.8425  19.15306  59498.41437    51.37044         44.663   21.09018  43.69149   48.5    0.13823  -21.28914  0.99943 
  -12.30054   0.0292  0.72306     14.32437  1.66554  1.04158  15.07024  0.04795      0.1419  3814.76181    8289.6554  1.40211         4415.16364     18.68769  0.00271  59447.02565  1.30822  0.43998   18154.57447  48.51307  19.16222  59494.38364    51.16266       44.40617   24.48344     47.04   50.0    0.15601  -21.32376  0.99935 
  -20.02073  0.00684  0.70887     14.13392  1.62803  1.41702  46.85492  0.01703     0.01603  5079.92684   9370.63682  0.50662         4735.21919     17.55128   0.0002  59439.30546  7.21269  0.32063   40999.16467   48.1666  19.16983  59498.41437    51.32235       44.60579   19.71854  44.77845   43.5    0.15441  -21.16409  0.99935 
  -22.02849  0.00287  0.73942     14.21651  1.74376  1.23156  11.74321  0.09032     0.05518  5729.24687   7267.24518  0.36408         4188.05959     18.46212  0.00161   59437.2977  2.29937  0.03365   32663.01292   48.2585  19.15923  59496.64914    51.32881       44.60697   21.59389  44.77845   47.5    0.15331  -20.99561  0.99994 
   -22.4912  0.00964  0.74312     14.22009  1.72628  1.38799  22.02021  0.04141     0.05592  4339.34377   3250.33957  0.85771         4635.29189     17.58977  0.00022  59436.83499  2.47341  0.21227    32127.0973  48.25696  19.06898  59494.38364    51.24678       44.53172   20.71496  42.95616   54.5    0.13044   -20.8868  0.99961 
  -14.65057  0.00161  1.00484     14.21815  1.64079  1.36798  24.82538  0.03744     0.02234   4318.3561   3937.46185  1.45042         4159.43111     18.72614  0.00296  59444.67563  2.76159   0.0399   56333.88189  47.72894  19.16433  59496.64914    51.33184       44.61921   19.71854  43.35544   50.5    0.12272  -21.29829  0.99982 
  -15.02674  0.02297  0.96359     14.36074  1.95417  1.11151  23.29634  0.03186     0.04533  4261.63076   3120.68292  1.22911         4347.28879     19.89809  0.04394  59444.29945  2.52387   0.5351    31994.9318  48.08694  19.15593  59496.64914    51.28907       44.58666   19.93836  43.29571   49.0    0.13958  -21.34856  0.99845 
  -24.53824  0.00236   0.7545     14.31827  1.84275  0.91483  29.75659  0.03455     0.08242  5199.29754   9758.35214   0.3954         4858.55455     17.79317  0.00035  59434.78795  4.79844  0.07029   22493.02289  48.42695  19.12342  59494.09713    51.19758       44.46244   23.33546  44.95084   42.5     0.1338   -20.8986  0.99987 
  -13.82032  0.00158  0.78333     14.27085  1.38987    0.771  20.98361  0.03793     0.01314  3997.06741   5337.70033   1.4347         4198.47307     17.57242  0.00021  59445.50587  1.99982   0.0331   22749.52032  48.26696  19.10252  59496.64914    51.28584       44.56948   19.93836  44.39821   50.0    0.15007   -21.2726  0.99989 
  -17.89015  0.00174  0.71793     14.29797  1.92603  1.37124  21.70684  0.03075     0.01406  3491.06828    7594.7812   1.0321           4868.752     18.63304  0.00239  59441.43605  1.57812  0.03788   23372.52662  48.47264  19.07465  59496.64914    51.32973       44.65416   19.86242   39.0548   49.5    0.14433  -21.27442  0.99995 
