 log(Bfield)      Mns     Pspin  cutoff_power  cutoff_wavelength  fnickel    kappa  kappagamma   mejecta  log(nhhost)  temperature  texplosion  thetaPB      vejecta      A_V        MJD_0   log(KE)      M_Ni  Peak_mag     Peak_MJD 
    14.26397  1.43099   5.63424       4.72921         3391.97568  0.37789  0.02948     0.01145  19.08329     19.14407   3377.23729   -11.03271  0.48668   9826.45049  0.00774  59448.29348   52.6415  28.73716  18.93909  59489.65588 
    14.67696   1.9143   6.82737       0.89933         3308.33136  0.16457  0.02249     0.12855  60.63021     20.05765   4600.27542   -23.38368  0.56042  13068.79739  0.06344  59435.94251  52.97548  15.26644  19.15525   59492.7352 
     14.2438  1.49482   6.46994       0.19734         3186.60983   0.4131  0.02543     0.01078  27.37449     19.44649   3350.84383    -17.2134  0.55928   13404.6524  0.01553   59442.1128  52.94003  33.57003  19.13526   59492.4453 
    14.71437  1.13898   5.01501       0.71503         3254.75737  0.47393  0.02692      0.0106  21.98467     19.99119   3916.30626   -15.86807  0.12856  11431.16867  0.05444  59443.45812  52.78442   37.0102  19.08941  59490.43877 
    14.63128  1.60535  29.19201       4.23312         2730.40408  0.49877   0.0323     0.01011  26.37035     18.44152   4930.75864   -16.50468  0.84736  12612.61739  0.00154  59442.82152  52.88424  40.26241  19.06875  59489.65588 
    14.29445  1.60702   4.29165       1.16441         2891.18633  0.33029  0.03973     0.01359  27.75683     18.72683   4569.12612   -12.22486    1.504   13683.1901  0.00296  59447.10133  52.95897  26.90719  19.15326  59489.65588 
    14.28525  1.53713   2.27493       4.67984         3278.96971  0.08954  0.04842     0.38712  19.37086     19.20805   3586.47022    -8.97991  0.93356   5316.94633  0.00897  59450.34628  52.10926   6.82829  19.08339  59488.30289 
    15.04676  1.92422  10.58819       4.41473         3143.74808  0.44028  0.04355     0.01021  28.25918     16.97964   6628.16713      -17.91  0.36834  13016.68114    5e-05  59441.41619  52.91698  35.98137  19.09258  59489.65588 
     14.9007  1.35612  13.09076       4.81456          3051.5896  0.49726   0.0318     0.01079  25.18333     19.62996   4006.86942   -17.74578  0.13782  11434.90525   0.0237  59441.58041  52.79549  39.80945  19.02267  59488.30289 
    14.08076  1.28108   2.17434       3.56049         3064.15033   0.0383   0.0436      0.0521  19.54931     18.41914   4165.77127   -14.39689  0.88125   4825.04034  0.00146   59444.9293  52.02569    2.9257   19.0958   59492.4453 
    14.03956  1.08414   1.32403       3.80379         2382.25421  0.03443  0.03239     0.48077  23.85438     19.48101    6785.0177    -8.67119  0.84067   5050.81828  0.01682    59450.655  52.08148   2.72945  19.19268  59488.30289 
    14.22374  1.44651   2.12698       4.31074         3215.96142  0.10517  0.05657     0.45088  15.03428     19.40366   4427.35493    -6.31348  1.00745   5360.81857  0.01407  59453.01271  52.09501   7.63516  19.18515  59485.24433 
    15.03872   1.9682   6.23895       3.46689         3049.49207  0.42304  0.03342      0.0105  28.20965     17.38944   5195.98654   -14.69579  1.00909   12634.3657  0.00014   59444.6304  52.89095  34.56151  19.09292  59488.30289 
    14.04244  1.82058   7.57204       4.41374         2400.73431  0.47054  0.02205     0.01036  21.65446     16.38975   4594.91395    -11.6481  1.38108  12346.57173    1e-05  59447.67809  52.85011   36.6424  19.08806   59492.4453 
    14.46935  1.48493  24.80499       4.94702         2896.82702  0.49751  0.03965     0.01137  27.85802     17.37263   6404.68123   -19.16146  0.50987  12609.99368  0.00013  59440.16473   52.8883  40.55532  19.08884  59488.26293 
     14.4014  1.55172   7.78932       4.63415         2950.27705  0.41725  0.04699     0.01083  29.80794      18.4204   5035.08987    -18.8617  1.16334  13432.59344  0.00146  59440.46449  52.94838  34.42079   19.0631  59488.26293 
    14.04575  1.26806    5.6625          0.81         3365.82076  0.46994  0.04147     0.01038  22.94956     18.52621   4105.12267   -20.50941  0.62827   12807.5702  0.00187  59438.81678  52.88661  36.99061  19.06619  59490.43877 
    14.03779  1.36677   5.68029       0.42624         3658.30957  0.38643  0.02727     0.01084  27.89558     18.64661   3395.88945   -15.34042  1.10497   12812.0825  0.00246  59443.98577  52.90222  31.50784  19.13521  59486.57655 
    14.21986  1.58539  29.90825       3.25884         2745.71553  0.49307  0.02609     0.01082  27.05088      17.3466   3980.19555    -13.8178  1.53404  12844.24333  0.00012  59445.50839  52.90202  39.98399  19.22092  59488.30289 
    14.44078  1.68567   8.33603       4.59949         3178.05813  0.18794  0.01669     0.05643  52.83223     17.61965   4748.39561    -17.1079  1.33147  10475.76403  0.00023  59442.21829  52.77395  17.06012  19.09197  59490.43877 
    12.75522    1.818   9.84358       2.93111         2733.19616  0.48348  0.02757     0.01031  29.56724     17.77272   6587.08903   -18.53794  0.55281  13187.38551  0.00033  59440.78825  52.93176  39.82844  19.06605  59490.43877 
    14.11288  1.12393     1.592        3.2895         3396.97944  0.09261  0.05369     0.45579   16.1823     20.42442    4803.2069    -9.08831  0.74059   5308.68494  0.14762  59450.23788  52.09284   6.82145  19.13982   59492.4453 
    14.22359  1.88359   8.88374       1.23111          3016.8596  0.45557  0.01766     0.01064  23.10912     18.16333   3880.77666   -14.54429  1.10168  11719.45141  0.00081   59444.7819  52.81005  35.90497  19.09763  59490.43877 
    14.35674  1.45537   2.56122       3.53185         3281.89229  0.13674  0.04268     0.14808  20.45982     17.77808   4001.89373    -7.45821  0.74501   6616.41359  0.00033  59451.86798  52.30366  10.53618  19.13629  59488.26293 
    14.03744  1.34624   2.26623       4.22607         2932.95375  0.07626  0.04274     0.18317  17.27378     18.92685   3741.74393   -13.96923  1.19089   4675.42269  0.00469  59445.35696  51.98804   5.68967  19.14883  59488.26293 
    14.14775   1.0741    1.6534       2.20489         3098.53814  0.12347  0.04957     0.31329  17.34273      16.8878   3520.09345   -12.73679  0.63048   5672.15475    4e-05   59446.5894  52.15623   9.21864  18.99041  59489.65588 
    13.98177  1.85407   7.21603        4.9583          2495.6529  0.47095   0.0246     0.01018  21.35389     17.98123   4810.16432   -12.58369  1.47819  12212.23668  0.00053  59446.74251  52.83948  36.57957  19.11931  59488.30289 
    13.35398  1.86036  17.43091       3.26352          3064.8543  0.44406  0.02217      0.0105  27.83675     17.52042   5015.44248   -12.32043  1.13076  12683.55549  0.00018  59447.00576   52.8933  36.19347  19.07877  59490.43877 
     14.2771   1.4238   2.47491       4.75016         3223.60524  0.07941  0.03959     0.27678  22.29603     19.59365    4929.7102    -9.95014  0.73045   5377.58479   0.0218  59449.37606  52.13054   6.21728  19.16576  59486.57655 
    13.08334  1.92551   7.23867       4.52488          2608.9367  0.49722  0.02792     0.01009  26.92679     18.02922   5609.67429   -13.85343  1.00443  13353.30013  0.00059  59445.47276  52.93542   40.2872  19.03837  59486.57655 
    14.20137  1.41691    7.6455        4.1534         2806.78802  0.49948  0.03245     0.01019  21.62234      18.0839   5060.52235   -14.45044  0.97947  11456.34444  0.00067  59444.87575  52.78499  38.88568  19.09601   59492.4453 
    13.40378  1.52916  10.63662        3.5143         2747.53235  0.42999  0.02858     0.01051  30.72767     18.39779   4222.45455   -13.65444  0.53612   14039.0399  0.00139  59445.67175  52.98904  35.66076  19.07247  59490.43877 
    15.08889  1.66539   7.84456       0.13467         3803.40406  0.49984  0.02726     0.01087  23.47944      16.7591   4973.91404   -24.12483  0.07155  10861.35191    3e-05  59435.20136  52.74526  39.50906  19.11325  59490.43877 
    14.65558  1.18414   9.86338       3.81128         2741.97507  0.44571  0.03995     0.01032   31.7133     16.52508   7392.75619   -18.54931  0.86887  13476.98505    2e-05  59440.77688  52.95593   37.1682   19.0919  59490.43877 
    14.23984   2.0391   8.12039       4.70597          2896.4207  0.47287  0.02539     0.01091  17.22434     19.48817   4757.97958   -10.56219  1.13419  11032.95843   0.0171    59448.764  52.73354  35.25865  19.14541   59492.7352 
    13.94126  1.31793   6.20347       2.59555         2699.77516  0.47747  0.03551     0.01038  23.52708     17.92508   3140.10771   -14.90635  1.31161  12854.36658  0.00047  59444.41984  52.89176  37.75535   19.0979  59489.65588 
    15.11918   1.7667   8.56955       3.69658          2452.7906  0.45778   0.0209     0.01001  23.65881     16.94649   5678.29547   -12.33923  0.09712  12536.01041    5e-05  59446.98696  52.87042  36.23536  19.10949   59492.7352 
    14.21769  1.24985   1.70388       4.91818         3189.37548  0.05596  0.04273     0.40939  22.76318     20.01813   5731.55638    -8.77298  0.73874   5133.14353  0.05792  59450.55321  52.09179   4.39815  19.24137  59486.44237 
    14.11584  1.45335   2.22981       4.00309         2801.60947  0.09632  0.06603      0.3537   14.4961     18.09036   4414.07702     -12.115   1.1482   5712.84346  0.00068  59447.21119  52.14708   6.94187  19.07673  59489.65588 
    12.64491   1.7822   24.9435       3.08037         3111.60139  0.49868  0.03066     0.01043  25.18854      16.4381   6602.21443   -17.74136  1.48983  11776.43194    2e-05  59441.58483  52.82107  39.92397  19.11128  59490.43877 
    14.04706  1.35676   2.08101       4.30897         3261.91165  0.07251  0.04257     0.33254  22.42026     20.62246   4876.02874   -13.90301  1.00214   5375.83545  0.23291  59445.42318   52.1307   5.68292  19.11451  59490.43877 
    14.18367  1.67224   8.71213       4.46623         2934.42852  0.49625  0.02914     0.01068   20.8008     18.86547   5200.09706   -12.74539  1.13772  11561.66881  0.00408   59446.5808   52.7898  38.35639  19.09742  59488.30289 
    13.94845  1.70962   6.83539       2.91469         2775.30786  0.45882  0.02629     0.01022  20.04733     17.60956   3885.68372   -15.70856  1.13458  11474.09437  0.00023  59443.61763  52.78019  35.21856  19.09089  59490.43877 
    14.24217  1.23804   1.67603       4.85939         2842.08849  0.06781  0.03891     0.16104  29.92529     16.21086   3528.82811    -8.28154   0.7264   6595.94103    1e-05  59451.04465  52.33091   5.59772  19.18424  59494.38364 
    14.55485  2.06215  12.88598       3.88896         3193.88073   0.1295  0.01411     0.03305  82.46781      18.2119   3585.32221   -23.11003  1.40742    9783.8261   0.0009  59436.21616  52.74437  12.58921  19.07984  59490.43877 
    13.24037  1.44562  22.38333       4.72537         3202.20188  0.32518  0.02383     0.42954  36.18941      16.7623   4424.74868   -23.94102  0.26481   9372.52504    3e-05  59435.38517  52.65029  27.73837  18.99124  59490.43877 
    14.35486   1.1812   2.54122       4.67747         3421.44395   0.0641   0.0379     0.07485  20.69146     19.60622    4775.4773   -16.79884  0.33609   4465.13982  0.02244  59442.52736    51.963   4.94977  19.05033  59488.30289 
    14.16258  1.80493   7.46705       3.60334         3076.22544  0.40248  0.03504     0.01126  25.17991     17.84295   4689.30908   -15.13764  1.33944  12446.87836  0.00039  59444.18855  52.86914  32.22061  19.10043  59488.30289 
    12.28769  1.32741     28.88       2.46547         3323.91141  0.46703  0.03039      0.0107  29.51919     17.96852   6243.44774   -10.45631    1.449   15053.9531  0.00052  59448.86988  53.04662  38.46238  19.22688  59486.57655 
    14.06734  1.29519   2.23497       4.11824         2983.63386  0.14424  0.05657     0.36585  15.42242     16.90425    5789.6491    -9.79376  1.25938    5944.9339    4e-05  59449.53243  52.18704  10.52425   19.1224  59488.30289 
    14.52428   1.4101    1.0503       4.95557         3449.28514   0.1025  0.04401     0.15683  25.73226     17.10093   4063.14674    -3.40974  0.67194   5789.63681    7e-05  59455.91645  52.20602   8.23816  19.10581  59486.57655 
    14.46721  1.32502   1.65703       4.46384         3416.82072  0.06399   0.0387     0.49694  26.36478     18.96928   3891.67644    -6.27028  0.49986    5314.2441  0.00518  59453.05591  52.13349   5.16564  19.06886  59486.57655 
    14.41071  1.43582   2.59699       4.12351         3525.14521  0.07689  0.04279     0.38992  19.68076     18.41871   4759.60003    -9.59229  0.50788   4962.75136  0.00146   59449.7339  52.05069   5.88141  19.09013  59489.65588 
    14.54783  1.61943   1.65258       4.93483          3505.7146     0.11  0.04721     0.22426  17.83158     20.40233   4084.93502    -5.96746   0.5605   4371.26638   0.1403  59453.35873  51.93228   8.25707   19.1384  59489.65588 
    14.53166  1.54486   2.08402       4.21677         3440.28982  0.11305  0.04872     0.49714  18.27201     17.01976   3502.44444    -9.22137  0.53694   4679.63066    6e-05  59450.10482  51.99352   8.52623   19.0275  59489.65588 
    14.22365  1.99279  29.23815       4.03942         2969.27002  0.45276  0.02717     0.01031  28.06984     16.99742   5008.09582    -12.9578  0.67154  12632.86304    6e-05  59446.36839  52.89046   36.9574  19.09714  59488.26293 
    13.80036  1.50815   6.09121       0.89632         2143.92523  0.48882  0.02841     0.01033   24.0089     17.22279   3893.93279   -16.34999  0.86445  13308.01522    9e-05  59442.97621  52.92349  38.79607  19.09011   59492.4453 
    14.47643  1.44904   2.46072         4.137         3401.05379  0.09384  0.06684     0.26118  14.20559     19.52973   5527.77784    -9.82342   0.4347   5532.44417  0.01881  59449.50277  52.11745    6.7358  19.06831  59490.43877 
    14.34038  1.38509   1.75894       3.88974         3395.42922  0.09175  0.04735     0.40718  16.85577     19.61453   3426.22284    -6.50384  0.71395   4757.29716  0.02287  59452.82235  52.00105   6.81248  19.10168  59489.65588 
    14.17915  1.81341   6.71111       3.28565         2579.27215  0.37523  0.03302     0.01078  26.62896     18.78724   3703.21991   -14.13492  0.96114  13803.56288   0.0034  59445.19127  52.96337  30.34263  19.13174  59489.65588 
    14.34895  1.33275    2.4018       4.27776         3209.21118  0.10593  0.04812      0.2289  20.71567     18.70926   5509.70695   -10.35021   0.5534   6397.90637  0.00284  59448.97598   52.2755   8.18124  19.20801  59488.26293 
    14.10613  1.22168   1.28343       3.60115         3054.64171  0.08546  0.05263     0.26786  19.11933     18.23366   4633.09244    -5.57358  1.34947   5815.54505  0.00095  59453.75261  52.18604   6.50117  19.13232  59490.43877 
     14.2979  1.56481    2.5566       4.45694         3311.33827  0.10512   0.0497     0.49215  16.36706     19.55354   4298.53306    -9.95911  0.82735   4919.41648  0.01987  59449.36709  52.02766   7.76053  19.12134  59490.43877 
    13.94874  1.70811   6.00164       4.17804         3090.17273  0.43459  0.02812     0.01013  18.60458     18.58783   5621.33514   -16.34776  0.67949   10248.0324  0.00215  59442.97843  52.67588  32.88942  19.12516   59492.7352 
    14.33069  1.24014   2.25021       4.59074         3367.74562  0.08114  0.05132     0.28742  18.04767     16.34541   3061.90727   -11.46784  0.48832   5087.17594    1e-05  59447.85835  52.06502   6.10499  19.28251  59486.57655 
     12.3381  1.80908   28.1249       2.80136         2363.46591  0.49665  0.02411     0.01013  29.28518     19.43892   4188.29898   -14.81291  1.55285  14155.01363  0.01526  59444.51328  52.99253  40.84433  19.12438  59490.43877 
    14.64488  1.99777  12.46891       4.15178         3180.72543  0.47043  0.04385      0.0116  24.46576     19.10194   4351.82556   -17.17482  0.95559  12444.64986  0.00703  59442.15137  52.86672  37.46441  19.11526  59488.30289 
    14.56939  1.47917   2.45163        1.2636         3543.37302  0.47195   0.0342     0.01208   22.3587     16.63491   4972.38776    -8.35133  1.51372  11122.18046    2e-05  59450.97487  52.76197  36.97122  19.11433  59489.65588 
    14.52618  1.58399  22.09822       4.85514         3206.09696  0.49599  0.02796     0.01021  23.64314     17.73821   3403.60322   -12.31886  1.28717  11100.01367   0.0003  59447.00733  52.76469  39.25489   19.0983   59492.4453 
    14.10566  1.60663  11.89089       4.84493         2950.86296  0.47333  0.02867        0.01  25.94539     17.68599   3597.87691   -15.29085  1.20234  11985.66789  0.00027  59444.03534  52.83868  38.09711  19.13016   59492.4453 
    14.61335  1.79824  18.03026       1.21598         2881.31416  0.48413  0.02618     0.01102   28.7428     16.11222   7919.92354   -12.23301  1.13137  15045.41419    1e-05  59447.09319  53.04409  39.68377  19.19081  59482.51624 
    12.50878  1.47544  23.99351       4.20576         3036.74902  0.47421  0.03081      0.0118   26.9585     17.32056   5121.60006   -14.03675  0.70278   13182.1503  0.00012  59445.28944  52.92431  38.43132  19.16491  59490.43877 
    14.01487  1.38197   2.75228        4.7279         3304.42669  0.06469  0.05013     0.31703  17.47931       17.411   3027.19876   -14.25119  1.34784   5116.78959  0.00014    59445.075  52.06738   4.83716   19.2763  59489.65588 
    12.57006  1.67608  13.63084       3.80347         2911.97879  0.48761  0.03371     0.01013   27.5423     16.14063   6353.05179   -14.47677  1.20281  12535.62202    1e-05  59444.84942  52.88229  39.66837  18.95885  59489.65588 
    12.98084  1.93301   5.63049        2.8697         3355.63271  0.49629  0.03539     0.01016  27.28565     18.74459   4579.92762   -13.61385  0.14358   13722.4382  0.00309  59445.71235  52.96013  40.30727  19.02823  59490.43877 
    14.13067  1.35311   3.84885       2.70619         3171.91764  0.22483  0.03037      0.0103  14.87026     17.38805   5044.02013   -11.78289   0.4893   8741.38401  0.00014  59447.54331  52.51876  16.28657  19.11703   59492.4453 
    13.10021  1.82663   14.0826       4.93015          3111.5803  0.49559   0.0318     0.01006  27.99425     19.74494   4302.90539   -14.37949  0.51594  12779.77046  0.03088  59444.94671   52.9003  40.43366  19.05095  59486.44237 
    14.53902  1.44699   0.99105       3.63262         3582.37313  0.12559  0.04837     0.13592  13.52799     20.28895   3709.90696    -3.18966  0.54283   3590.76564  0.10806  59456.13653  51.73769   8.92559  19.10898  59490.43877 
    14.19603  1.31165   2.57052       4.78335         3285.84755  0.06207   0.0463     0.01273  15.96523     18.86667   4558.55865   -10.33868  0.70704   5168.25605  0.00409  59448.98751   52.0684   4.56028  19.06674  59483.49723 
    14.00007  1.11927   1.41774       1.90402         3353.79049  0.14555  0.05677     0.15929  14.95804     19.57797   3111.85827   -13.52477  1.12919   5039.79429  0.02102  59445.80142  52.04093  10.55611  19.11201  59490.43877 
    14.09261  1.44658   2.71094       4.87202         3393.94853  0.06986  0.04771     0.22949  18.90082     19.84813   4673.54576   -15.30459  1.07611   5021.73884  0.03916   59444.0216  52.05762   5.30318  19.13644  59490.43877 
    15.08947  1.67887  13.94506       4.45305         2672.76919  0.47652  0.03232     0.01067  26.45698     18.03232   3885.65509   -19.87534  0.13731  11999.77143   0.0006  59439.45085  52.84123  38.48908  19.14425  59490.43877 
    14.69776  1.55979   7.25231       3.85675         2740.48726  0.40297   0.0316     0.01025  24.40687     16.14032    4570.1984   -20.44645  0.22911   10584.4944    1e-05  59438.87975   52.7259  32.07812  19.00455  59488.26293 
    14.20897  1.96004   7.14378       4.76742          2853.0439  0.34688  0.03288     0.01047  27.36058       19.815   5448.81038   -15.66398  1.37015  12674.83794  0.03629  59443.66221  52.89137  28.18654  19.05615  59486.44237 
    14.60369  1.82373   7.88469       2.51878         2484.32388   0.4651  0.02831      0.0119  21.85365     18.49202   3269.54151   -15.02059  0.49163  11001.80695  0.00172   59444.3056  52.75068  36.28042  19.13378   59492.4453 
