 log(Bfield)      Mns     Pspin  cutoff_power  cutoff_wavelength  fnickel    kappa  kappagamma   mejecta  log(nhhost)  temperature  texplosion  thetaPB      vejecta      A_V        MJD_0   log(KE)      M_Ni  Peak_mag     Peak_MJD 
    12.41724  2.00844  19.62985       2.90616         5712.71303  0.16818  0.01981     0.01081  45.28427     17.18773   4620.07742   -18.87405  0.77418   6257.10743    9e-05  55186.67295  52.31553  14.89097  20.54841  55247.36631 
    14.48851  1.76326   9.19969       0.11197         3842.45536  0.41568  0.02886      0.2816  19.50287     20.72749   4000.56932   -19.87072  1.32825   7521.23897  0.29663  55185.67628  52.41107  31.74135  20.46248  55252.83923 
    13.36468  1.72921   3.32428       1.62202         2391.13335   0.2415   0.3144     0.01983   9.70615     17.33515   3717.31319   -20.83055  1.56538  16872.38458  0.00012  55184.71645  53.05129  16.00392  20.43641  55236.42046 
    12.15344  1.79802  29.10101       0.08694          2747.5528  0.28392  0.13643      0.0429  55.25298     17.75279   5527.50233   -15.67754  1.27688  32750.07215  0.00031  55189.86946   53.7671  25.95577  20.46406  55250.10277 
    12.12977  1.43033   13.7298         0.934         2523.81699  0.35404  0.09291     0.13431  24.29537     17.04227    4391.1284   -15.62384  0.38612  14901.58678    6e-05  55189.92316  53.02267  28.15962  20.40037  55244.62985 
    12.01926  1.50105  11.39329       4.11223         5520.76462  0.39852  0.07445     0.01362  24.99291     17.92041   5750.05866   -23.55459  0.49917   9036.70881  0.00046  55181.99241  52.59045  31.86099   20.4666  55247.36631 
    13.84353  1.60838   6.16865        0.2129          4344.4903  0.13088  0.05908     0.16281  24.78837      17.6403   6722.19076    -22.4628  1.50397  11022.91789  0.00024   55183.0842  52.76238  10.44831  20.48502  55239.15692 
    13.58363  1.43369   4.37769       3.20075         2996.15623  0.00103   0.0398     0.15947   2.08354     18.42434   6912.13992   -12.39883  1.17847    4023.0811  0.00148  55193.14817  51.62836   0.04522  20.48477    55250.449 
    15.04461  1.69656     1.753       3.37729         2593.03862   0.3105  0.11939     0.25272  20.31992     16.82613   8606.99468    -9.12524  0.71393  13531.74244    4e-05  55196.42176  52.92456  23.89441  20.55745  55244.62985 
    12.18752  2.06494  26.93398       4.86858         4084.46247   0.4714  0.19523      0.2383  22.97738     19.91601   3699.95187   -20.71417   1.4434  20166.93533  0.04579  55184.83283  53.28105  37.11378  20.50062    55246.213 
    14.11002  1.79576  27.75692       0.53732         2003.62547  0.42877  0.19013      0.0268  40.56362     19.65101   4239.97299   -18.96686  1.04663  29539.90664  0.02487  55186.58014  53.65572  37.28234   20.4423  55241.89339 
    14.80131  1.75125   3.96424       4.99802         2561.10446   0.4923  0.24322     0.22489  16.36886     17.63517   5679.02913   -19.42069  1.40096  14194.23401  0.00024  55186.12631  52.94807  36.34514  20.45306  55244.62985 
    14.14067  1.65741   5.58507       1.02387         4552.59332  0.02173  0.05412     0.03139  11.81892      17.7883   7464.59937   -22.65957  0.44097   6567.09542  0.00034  55182.88743  52.24996   1.50209  20.55469  55250.10277 
    14.09663  1.72971   7.82238       1.43147         2787.62655  0.12447  0.07396      0.0877  59.64926     16.08088   7181.40009   -21.19299  1.43588  21852.65332    1e-05  55184.35401  53.42091  11.51694  20.61964  55241.89339 
    14.50915  1.78438   5.47181       1.92439         3064.02555  0.25726  0.32253     0.03435   7.14301      17.4772   6993.62831   -22.40208  0.43134    9937.3424  0.00017  55183.14492   52.5614  15.90762  20.28971  55247.36631 
    15.04973  1.80584    7.6615       0.13646         2696.75569  0.13162  0.03512     0.14097  81.37469     20.65767   5716.84348   -15.71591   1.5281  19838.51881  0.25258  55189.83109   53.3575  12.76967  20.44429    55246.353 
    13.92459  1.71524   5.22995       1.66923         5969.08328  0.01141  0.04308     0.01298   9.44865     16.02028   5946.43079   -19.19493  0.89571   3810.08695    1e-05  55186.35207  51.75625   0.75193  20.54281  55250.10277 
     14.6176  1.98807   8.02161       1.05049         5839.93369  0.18194  0.05176     0.03937  71.79514     20.94183   5969.39632   -11.15701  0.91546  26220.52997  0.48592  55194.38999  53.59158  17.32193   20.4875  55250.10277 
    13.96412  1.70701  26.38694       4.17198         4430.95959  0.48339  0.14894     0.02466  15.43162     16.77239   4006.58473   -18.82035  0.58596   13157.6195    3e-05  55186.72665  52.87715  35.27509  20.42906    55246.353 
    14.69019  1.64903  22.45524       3.99562         2181.10381  0.17267  0.06669     0.27888  57.03611     16.15513   4098.75812     -16.482  0.74223  23180.46143    1e-05    55189.065  53.46909  15.86447  20.50367  55255.57569 
    14.20104  1.82167   3.81516       0.66493         4584.56511  0.13231  0.11778     0.01574  32.35514     20.94699   8963.39734   -15.22242  1.34209  13918.17404  0.49172  55190.32458  52.98542  11.07183  20.57726    55246.213 
    13.09361  1.76275  29.21797       1.05765         5178.26446   0.3957  0.14248     0.23604  30.81289     19.42094   5190.16555   -13.79855  0.63498  27518.81653  0.01464  55191.74845  53.57383  32.83298  20.53923  55241.89339 
    14.16478  1.62634  19.31959         2.809         3833.07867  0.29282  0.16718     0.01929  74.97843     17.87658    9074.0442   -29.51618  0.57317  25329.26631  0.00042  55176.03082   53.5644  28.06283  20.41433  55241.89339 
    14.63308  1.57451   9.07878       0.67332         2420.76916   0.1955  0.06724     0.03028  29.71411     19.66296    6277.1115   -14.34514  0.83659   14495.3114  0.02557  55191.20186  53.01427   16.1192  20.44678  55244.62985 
     14.3772  1.94628   3.71847       4.72242         5608.18276  0.38718  0.03941     0.09579  29.39301     21.30133    4850.9611   -11.37436  0.45124  10099.86921  1.11189  55194.17264  52.69962   31.8617  20.57435    55246.213 
    14.55523  1.82828   4.00255       1.57629         2228.33928  0.30841  0.13426     0.01745  11.97161     19.73894   3460.86539   -10.67989  1.09195   8674.36413  0.03046  55194.86711  52.49285  21.37363  20.42996  55247.36631 
    12.30609  1.81776  21.08096       4.55937         4654.04056  0.42337  0.06678      0.1967  17.14013     20.49262     5368.568   -19.13164  0.49344   8554.66255  0.17272  55186.41536  52.51215  31.53816  20.48616    55243.412 
    14.11149  1.84038   6.36523       2.32225         4823.51872   0.3098  0.25649     0.17197   15.2627     19.04654   4805.80916   -20.92771  0.72633  20140.28328  0.00618  55184.61929  53.24598  22.55818  20.48104    55246.213 
    14.21043  1.59657   8.63566       3.58392         5981.78639  0.48071  0.12713     0.01455  37.01196     17.90548   9629.94838    -17.0079  0.79419  21488.07003  0.00045   55188.5391  53.37263  41.16147  20.35459    55243.412 
    13.62876  1.76554  24.50583       2.42556         4621.58511  0.28246  0.09701      0.1307  37.94483     19.63153   9893.76683   -19.33259  0.26168  15014.84032  0.02378  55186.21441   53.0631  24.28777   20.4279  55241.89339 
    14.49509  1.66837   1.78652       2.59382         4626.50035  0.01457  0.09953      0.1378  30.12692      20.0946   4530.78149    -2.20592  0.99639   7855.12647  0.06908  55203.34108  52.48317   1.20428  20.53704  55247.36631 
    14.77164  2.02612  12.97205       3.81813         2061.39337  0.28943  0.06965     0.04134  22.13317     20.08231   4813.00686   -16.08436  0.86061  12755.03219  0.06715  55189.46264  52.88014  22.63033  20.47013  55250.10277 
     12.8922  1.56914  26.10879       0.65853         4074.84493  0.20867  0.06798     0.05094  43.12676     17.90716   9674.43864   -13.25184   1.4149  24998.41257  0.00045  55192.29516  53.51513  18.32901  20.46204  55250.10277 
    13.46009  1.89316  20.26806       3.83869          5872.9607  0.34481  0.08453     0.11249  49.50665     16.86602   5767.80974   -16.21294  0.05812  21430.06481    4e-05  55189.33406  53.39111  30.97532  20.59905  55255.57569 
    12.23204  1.79284  21.11169       1.68711         4247.41113  0.35298   0.0929     0.03517  20.23677     16.70325    7230.9913   -15.84078  1.03432  15216.03454    3e-05  55189.70622  53.02613   27.1426   20.5413    55250.449 
    13.69436  1.70018   4.94225       0.06878         2358.45988  0.01009  0.09415     0.03363   7.76168     19.10789    4015.0601   -27.26579   1.2394   8262.46578  0.00712  55178.28121  52.40943   0.63578  20.50647  55239.15692 
    12.52481  1.34062  28.03719       1.55586         5686.08039  0.37253  0.12931     0.12996  35.46996      19.5224   5419.02931   -18.09018  0.53951  23695.81821   0.0185  55187.45682  53.45444  31.66926  20.52888    55250.449 
    13.81966  1.44629   4.19584       1.14282         3179.23031  0.20388  0.26736     0.02456   6.57932     16.57187   4370.14463   -21.89207  0.60311  11291.38098    2e-05  55183.65493  52.66392  12.36463  20.50882  55244.62985 
    14.26152  1.30334  18.67194       0.65864         2629.11197   0.1535   0.0299      0.0516  41.13234     19.71051   8414.76008   -12.25489  0.99607  15584.38273  0.02853  55193.29211  53.10129  13.37814  20.68466  55255.57569 
    15.13087  1.80048   3.67014       4.60919         4365.45078   0.2055  0.03517     0.03615  22.22076     17.88472   9127.64605   -10.22134  1.27958   6194.19749  0.00043  55195.32566  52.25307  16.07949  20.57152  55244.62985 
    15.03966   1.7568  29.64793       0.13056         2175.37498  0.33236  0.11212     0.18846  25.40011     18.56455   6443.47186   -13.70104  0.54975  20570.46414  0.00204  55191.84596  53.30619  26.64871  20.49672  55247.36631 
    14.12462   1.7944  22.97769       0.35992         4039.67733  0.47771  0.22806     0.10452  32.01584     18.09799   4206.63099   -13.36817  1.43385  41618.54661   0.0007  55192.17883  53.93604  39.90285  20.52801    55243.412 
    14.57871  1.75486   8.36386       2.83878         3109.80902  0.39607  0.15646     0.04036   14.2666     19.63838   5363.41268   -24.78856  0.34054   11104.0355  0.02416  55180.75844  52.72295  28.45346  20.54867  55244.62985 
    14.21177  1.54057   9.65657       0.55626         2695.79756  0.42107   0.0527     0.24138  12.61598     19.56884   5613.69051   -20.89188  1.22969   6196.97991  0.02059  55184.65512  52.20546  29.50033  20.50161    55246.213 
    14.99821  1.63244    10.803       2.64934         2272.41416  0.42433  0.16929     0.01786  24.89424     16.07843   7341.71588   -17.43602  0.74589  16615.69404    1e-05  55188.11098  53.11916  33.89981  20.42712    55246.353 
    13.83191   1.3034   28.2875       0.41106          3425.1203  0.26951  0.03084     0.05559  22.01951     17.06719   3462.86382    -17.3539  0.22986   8834.78138    6e-05   55188.1931  52.56076  21.05313  20.53181    55243.366 
    13.38773  1.97733  25.14354       4.97006         4847.71855  0.31699  0.10461     0.02743  34.59815     16.25575   4896.95652   -18.96645  1.40405  18413.40422    1e-05  55186.58055  53.23352  26.83314  20.53123    55243.412 
    13.17343    1.884  18.72073       2.14429         2293.74219  0.38016  0.20176     0.04673   46.1984     19.74239    3219.6493   -17.64455   1.5185  35211.67533   0.0307  55187.90245  53.81757  33.77082   20.3489  55239.15692 
    14.78845  1.43149   6.37856       1.25691         3230.62886  0.41232  0.10154     0.04064  17.48297     17.20082   7683.51655   -18.24977  0.00709  12971.16342    9e-05  55187.29723  52.87537  30.83318  20.43135  55244.62985 
    14.26663  1.86004  28.41723        2.9251         3864.35719  0.28074   0.0403       0.134  20.06348     19.72294   3426.91498   -13.29805  1.45484   9471.96746  0.02935  55192.24895   52.6137  21.55283  20.46583  55250.10277 
    14.51626  1.59327   5.91182       2.36574         2933.28208   0.3959   0.2076      0.0333    3.8752     18.08695   7241.59113   -12.05107  0.46193   6896.48449  0.00068  55193.49593  52.17708  20.97908  20.38412  55247.36631 
    13.64212  1.92812   2.25084       3.16771          5934.3179  0.13551  0.32821      0.0158  48.88284     19.05932   4112.04981   -34.53374  0.65271  22505.45944  0.00637  55171.01326  53.43275  12.14847  20.37555  55247.36631 
    12.37361  1.70095   5.94549       1.72523         2065.70135  0.45377  0.07142     0.05334  16.32075     20.26834   9152.17452    -17.2641  0.07156  11958.16286  0.10305   55188.2829  52.79892  33.48106  20.45453    55243.366 
    13.98305  1.93184  19.70372       3.55085         3614.08227  0.35915  0.13773     0.07138  30.48473      20.2124   5679.08512   -15.85086  0.79871   24449.3772   0.0906  55189.69614   53.4703  29.74508   20.4498  55252.83923 
    14.58432  1.88268  14.01377       3.64657         5172.87654  0.18068  0.07691     0.02254  71.57233     19.19452   6289.85241   -18.07353  1.32577  23986.50957  0.00869  55187.47347  53.51403  17.19438  20.36561  55252.83923 
    12.58696  1.20509  14.44887       1.83028         4796.48358  0.30588   0.0829     0.05598   36.1481     20.59478   3343.52733    -16.9538  1.12214  21499.34753  0.21853   55188.5932  53.37135  26.08693  20.44837  55241.89339 
     13.8465  1.58337  15.51532       1.14512         2783.16127  0.39928  0.11632     0.46376  51.03895     20.93049   5396.26838   -17.28102  0.96211  26736.00135  0.47338  55188.26598  53.58538  36.04469  20.47996  55250.10277 
    14.00497  1.51183   4.86665       4.91765          5268.2609  0.03617  0.05332     0.01212  20.45384     17.22696    8489.7101   -20.33341  0.70206   6766.71841    9e-05  55185.21359  52.32315   2.78708  20.57596  55250.10277 
    15.03484  1.71656   2.91267        2.2279         4793.75546  0.12251  0.04964     0.11034  68.71824     18.78018   6520.46361    -8.57971  1.21659  21233.45252  0.00335  55196.96729  53.40544  11.58645  20.57627  55255.57569 
    15.17532  1.55714   9.03165       0.66974         4927.38159  0.20966   0.0859     0.10445  47.92044      16.8741    4935.0092   -20.03826  1.17491  19233.54521    4e-05  55185.50874   53.2949  18.73513  20.51933    55243.412 
    14.36425  1.57765   4.17644       4.70816         2279.03492  0.08729  0.26997     0.01538   9.20314     20.19279   8503.93277    -28.6409  0.24785   9936.15642   0.0866   55176.9061   52.5863   5.71762  20.61185  55250.10277 
    15.12587  1.65995   10.5704       2.05182         4944.16828  0.22655  0.05487     0.02179  23.99343     18.26954   3010.87001   -12.13302  0.43318   9635.23171  0.00103  55193.41398  52.64294  17.97843  20.58715  55250.10277 
    14.82554  1.88302   13.1635        0.2076         3385.52975  0.17318  0.05559     0.16244  41.03952     17.59617   3490.05547   -14.29086  0.40894  16820.89467  0.00022  55191.25614  53.16744  15.08752  20.37402    55246.213 
    12.52854  1.31975  22.31274       2.61383          3309.5638   0.2684  0.05254     0.02839  24.03323     19.48967    3582.9032   -19.52313  0.24091  11412.90619  0.01716  55186.02387  52.79014  21.30619  20.48905    55243.366 
    13.94464  1.46033   5.81303       0.06049         3914.02345  0.20709  0.07453     0.46575  10.28505     20.00958   4827.58807   -23.47133  1.51402    6471.9868  0.05679  55182.07567  52.22447  13.89722  20.35625    55246.213 
    14.16674  1.95316  17.41254       2.28348         3949.27255  0.41145  0.07508     0.03944  25.23059     20.89457   8656.85952   -15.56437  1.11742  16399.98814  0.43581  55189.98263  53.10886  32.95058  20.51937    55243.366 
    15.10038  1.85526  28.25547       2.94191         3329.75491  0.23418  0.03114     0.01207  23.48483     18.85211   3382.99733   -21.86716  0.33697   6189.47027  0.00395  55183.67984  52.25682  18.51151  20.48144    55243.366 
    14.10494  1.80872  27.73931       0.59964         4101.82307  0.40893  0.17236      0.0131  45.05386     18.60285   4029.77683   -17.95448  0.45474  23278.52506  0.00223  55187.59252  53.45633  36.17814  20.41731  55244.62985 
    14.18125  2.03026   5.54809       0.69398         3964.06042  0.12008  0.14389       0.018  17.62798     18.70542   3942.71776   -36.40486   1.4417   6675.04218  0.00282  55169.14214  52.29901   8.99399  20.46379  55247.36631 
    14.57301  1.70347  16.30375       3.05421         4359.58118  0.39888  0.21077     0.05704  32.98816     18.70137   3799.66328   -16.99646  1.08458  26576.33268  0.00279  55188.55054   53.5487  33.49065   20.4191    55246.353 
    13.71017  1.62854    3.7164       3.91034         5574.10203  0.09707  0.15648     0.01077  18.85049     20.21854   6692.63102   -22.67209  1.36264  12529.80948  0.09189  55182.87491  52.85158   7.36465  20.62839    55250.449 
    12.86254  1.78532  13.95785       4.22865          4959.7618  0.36313  0.14985     0.01262  55.74192     18.82218   7468.02849    -24.1328  0.18143  22127.21688  0.00369   55181.4142  53.42713  33.24405  20.56831    55243.366 
    13.88899  1.74835   6.02314       2.57162         2114.07402  0.04205  0.03046     0.03779  25.20634     18.05299   4102.92707   -22.21559  1.19844   9301.41731  0.00063  55183.33141   52.6162   3.36705   20.3486    55250.405 
    14.21484  1.32812   3.84313       0.68328         3599.48545  0.00773  0.08548     0.04581   8.11171     20.64107   9612.04672   -26.87299  0.24913   6907.52141  0.24311  55178.67401  52.25823   0.49188  20.49182    55250.449 
     13.8039  1.36998   5.21949       3.89936         3276.19953  0.00121  0.05126     0.01143   7.63893     20.03393   3104.22282   -16.33686  1.51722   5403.01588  0.06007  55189.21014  52.03889   0.07601   20.4442  55241.89339 
    13.53613  1.29182   3.70637       1.53635         4012.19505  0.05184  0.21806     0.19528   5.24047     20.69884   5194.10289    -24.8258  1.16483   8708.12918   0.2777   55180.7212  52.41405   2.97314  20.41928  55244.62985 
      13.658  1.76641   3.10914       2.16105         2822.16105  0.34026  0.21563     0.04219  10.96829     16.46958   3958.35464   -22.77642   0.3088  16643.23402    2e-05  55182.77058  53.05085  23.15012  20.50353  55247.36631 
    14.46793  1.62562  14.33742       4.73267         3527.72958   0.3737  0.12982     0.03372  27.73734     19.86843   4812.73086   -22.87581  0.12123  14799.06094  0.04104  55182.67119  53.02701  30.43959  20.39573  55244.62985 
    14.78376  1.80604   6.05952        4.7664         4744.25716  0.23579  0.11517     0.38038  40.93078     18.98516   9409.18418   -15.91399  1.04759  17487.25831  0.00537  55189.63301    53.201  20.53298  20.52239  55255.57569 
    14.21272  1.63747   6.79163       1.19135         5804.36792  0.11196  0.05141     0.01083  10.18967     16.32703   6270.53637   -16.38893  0.85883   5572.88008    1e-05  55189.15807  52.09368   7.49784  20.50926    55243.412 
    12.02016  1.92854   0.71297        0.6951         5352.49838  0.32171  0.03498     0.02884  14.80068      16.9847   4772.07956   -12.84009  0.31927   8705.80043    5e-05  55192.70691  52.51481  23.28243  20.29119  55241.89339 
     14.1965   1.3805   4.86829       1.43924         4396.98325  0.45601  0.21972     0.08396   9.58316     20.10845   7130.04445    -16.6819  0.20811  19388.24386  0.07131   55188.8651   53.1708  30.13515  20.37377    55246.353 
    14.85094  1.60703   6.54002       0.44836         4525.21468  0.26205  0.09124     0.41264  13.64711      18.2445   5296.60699   -16.23836  0.37534   7507.84118  0.00098  55189.30864  52.37912  18.65688  20.45971  55241.89339 
     14.9865  1.86159  29.57439       3.69113         3087.82125  0.32567  0.06443     0.01071   21.2233     16.21534   4296.51484   -15.73396  0.82516  10453.51253    1e-05  55189.81304  52.70392  25.26644  20.56417  55247.36631 
    14.50679  1.91875  25.89733       1.08905         5898.19877  0.41353  0.04119     0.21624   14.8568     18.68323   4514.00838   -13.31384  0.40157   7195.60448  0.00268  55192.23316  52.34965  29.94972  20.40854    55246.213 
