 texplosion  fnickel    Pspin  log(Bfield)      Mns  thetaPB   mejecta    kappa  kappagamma      vejecta  temperature    alpha  cutoff_wavelength  log(nhhost)      A_V         MJD0   kenergy  mnickel             TSD   log(L0)  Peak_mag     Peak_MJD  log(E_rad)  log(Peak_lum)  Rise_Time     E_fold  tau_1  delta_m15     r_peak     frac 
   -7.55129  0.01366   1.7941     14.59904  1.29868  0.51179   12.7361  0.15903     0.27304   6397.80866   8670.23051  1.70663         4691.80377      16.3627    1e-05  55197.99571   3.10975  0.17397     24599.84299  47.48372  20.53732  55244.62669    50.61817       43.77206   29.07945   58.15891   51.0    0.14168  -20.57069  0.99594 
  -17.51929  0.00223  0.78564     14.41406  1.49939  1.02837  18.14488  0.31292     0.42988  11989.48302   7805.83681  0.12168         4206.02904     19.66442  0.02565  55188.02771  15.55901   0.0404     12766.14029  48.54825  20.46189    55243.412    51.11772       44.49075   20.52667   29.07945   48.0    0.13287  -20.92141  0.99994 
  -18.41711  0.00114   3.9958     14.39383  1.94096  0.65757   6.64853  0.05359      0.0256   4365.81639   5116.26158  0.14895         3949.26706     16.44432    2e-05  55187.12989   0.75593  0.00761    469227.15444  45.68227  20.55906    55250.449    50.84519       43.97926   30.79001   54.73779   68.0    0.16494  -20.47562  0.99946 
   -18.3836  0.00585  3.26025     14.74269  1.51683  0.21715  28.95966  0.01667     0.41718   3533.51453   4514.67221  1.19552         2942.57231      17.7732  0.00033   55187.1634   2.15692  0.16943     48964.14183   46.7334  20.35531  55246.95031    51.11755       44.39532   25.65834   37.63223   65.5    0.13811  -20.41735  0.98848 
    -23.196  0.02671   3.6197      14.0498  1.12498  0.52923   5.44443  0.23717     0.46066   5193.63425   8893.33785  1.99326          5691.7541     16.28262    1e-05    55182.351   0.87604  0.14544   1088176.65101  45.16595  20.44925  55249.27393    50.98096       44.22096   20.52667   49.60613   62.5    0.11703  -21.03407  0.98069 
  -23.41115  0.24064  4.71798     14.39887  1.95603  0.81422   4.84433  0.14722     0.49725   4780.80569   4600.09456   0.4977         3600.83197     19.42344  0.01473  55182.13585   0.66049  1.16572    644123.23081  45.40374   20.5007   55233.0086    50.93274       44.12222   20.52667   44.47446   68.0    0.13241  -20.50491  0.89689 
  -19.01589  0.01482  3.75245     14.33128  1.64161  0.65577  23.32641   0.0115     0.47818   3137.96014   4368.65503  0.63073         3853.61233     17.25188   0.0001  55186.53111   1.37016  0.34578    466827.70602  45.66633  20.47862    55250.449    50.91584       44.11606   30.04254   46.93248   78.0    0.16146  -20.28127  0.97273 
  -26.80544  0.03294  3.26597     14.26977  1.64384  0.80577  25.03217  0.03659     0.49908   4008.87716   4320.16844  0.53356         2581.56894     19.81121  0.03597  55178.74156   2.39978  0.82452    470069.37096  45.78452  20.52023  55244.62669    51.10841       44.33347   25.65834   47.89557   70.0    0.09758  -20.35064  0.95204 
  -26.36573  0.01487   4.3498      13.8273  1.28985  1.03929   4.47339  0.09602     0.02015   3460.12469   7772.92897  2.31744         3234.92215     17.78012  0.00033  55179.18127   0.31948  0.06654   5019789.02204  44.40176  20.37446  55249.27393    50.81598       43.90832   41.05335   56.44835   80.0    0.11307  -20.38264  0.98932 
  -18.78714  0.00108  3.92965     14.26137   1.7928  1.44258   7.86974   0.0481     0.45494   3765.27377   5417.40283  0.53215         4344.71275     16.78731    3e-05  55186.75986   0.66555  0.00851    771467.77892  45.44635  20.33185    55250.405    50.77478       43.90335   37.63223   53.02724   55.0    0.17896  -20.33382  0.99934 
  -17.18931  0.40439  8.47391     14.53289   2.1217  1.24688   5.32752  0.12411     0.36823   5675.64679    6223.4689  1.62401         4022.22766     16.20104    1e-05  55188.35769   1.02372   2.1544   1215858.18363  44.65448  20.39973  55242.30307    50.77599       43.91798   30.79001   53.02724   71.0    0.16507  -20.47499  0.62198 
   -7.48978  0.00348  0.83736     14.51061  1.36883  0.86134  15.80337  0.19505     0.36099    7770.1937   8582.49996  2.42828         3903.08789     17.51674  0.00018  55198.05722   5.69168  0.05505      8487.14882  48.63061  20.41969    55246.213    50.67716       43.83654   35.92168   51.31668   49.0    0.13008  -20.73487  0.99991 
   -2.13608  0.36594  0.81058     14.90195  1.48167  0.55507    5.1342  0.28503       0.147   8445.37601   7485.37964  4.81661         2714.74057     17.49044  0.00017  55203.41092   2.18443  1.87879      1419.93798  49.46973  20.44458    55246.213    50.85942       43.89685   37.63223   73.55391   52.5    0.16317   -20.4768  0.99901 
  -20.12381  0.00973  0.97603     14.45951  1.93508  1.48987  19.74375  0.21383     0.01715   7085.76747   4213.95567   0.1138         3487.17368     16.58767    2e-05  55185.42319   5.91331  0.19205     20626.06218   48.2622  20.46588  55249.27393    50.73846        43.8674   34.99361   57.37642   56.5    0.09091  -20.29107  0.99961 
  -12.96628  0.20043  5.21236     14.37142  1.25705  0.86404  16.79915   0.0362     0.38107   4073.71344   4258.71523  4.12002         3397.48052     17.12386    7e-05  55192.58072   1.66301  3.36709    573310.48926  45.17574  20.48222  55256.24479    50.81836       43.86039   39.34279   75.26447   93.0    0.11264  -20.46791  0.56078 
  -20.00219  0.00281  6.26309     14.14886  1.95754  1.19454   3.35273  0.16282     0.06993   6949.98472   3674.67774  0.31961         5366.00162     16.77811    3e-05  55185.54481   0.96604  0.00941   3592366.23094   44.4116  20.48402    55250.405    50.70778       43.76995    42.7639   66.71169   55.5    0.19121  -20.67009  0.99833 
   -12.4667  0.00221  2.46906     14.41486  1.62561  0.79071  24.67636  0.05156     0.34919   2992.01406   3612.08275  2.18855         5653.00952     17.98634  0.00054   55193.0803   1.31776  0.05447    136202.24362  46.56061  20.48442    55243.412    51.11194        44.4277   18.81612   34.21112   65.0    0.08223  -20.82587   0.9981 
  -13.19214  0.00111  3.07151     14.36024  1.51877  0.79176  26.55442  0.04735     0.05298   3557.14258   5111.72746  3.12465         5146.21248     16.94182    5e-05  55192.35486   2.00432  0.02938    253240.92846   46.0721  20.40552  55246.95031    50.89973       44.09078   32.50057   46.18501   61.0    0.09598  -20.89481  0.99822 
  -34.11592  0.02131  5.11176      14.4409  1.78129  0.22094   6.64927  0.24213     0.01143     6814.215   9389.97675   1.6667         5487.63306     18.29844   0.0011  55171.43108   1.84176   0.1417    567405.73787  45.34855  20.42919  55239.97945    50.93216       43.98602   34.21112   63.29057   54.5    0.11768  -20.80209  0.97992 
  -14.12598  0.00762  4.49873      14.5456  1.98003  0.57797  17.16467  0.02447     0.34755   4227.01569   7557.13772  0.71998         4550.76072      19.7293  0.02979  55191.42102   1.82949  0.13088     301618.6205  45.77988  20.47134  55249.27393    50.83014       43.94573   37.63223   58.15891   53.5    0.18831   -20.5775  0.98864 
  -20.77001  0.02678  6.25504     14.67609  1.94282  0.22599   8.09261  0.04798     0.06969   4741.74762   3361.81012  1.59898         5515.80468     20.14223  0.07708  55184.77699   1.08541  0.21672    313709.57514  45.46829  20.47588  55246.95031    50.85698       43.86505    42.7639   75.26447   70.0     0.1679  -20.93944  0.96193 
  -15.03517  0.00441  2.22353     14.36003  1.17296  0.49315  20.53703  0.03591      0.1431   3911.71703   3026.62541  0.72504         5956.51572     16.26096    1e-05  55190.51183   1.87456  0.09047    102596.73406  46.63291  20.53273  55239.97945    50.73099       43.81546   41.05335   56.44835   51.0    0.14668  -20.61504   0.9958 
  -18.04822  0.03522  0.73029     14.95202   2.0685  0.49318  31.56286  0.08843     0.38658   7614.79624   4229.32992  0.07523         2612.79893     19.33824  0.01211  55187.49878  10.91742  1.11168      1277.65981  49.75109  20.62275  55239.97945    50.67846       43.84382   24.91088   57.19582   50.5    0.13767  -20.69157  0.99962 
  -16.33512   0.1045  4.94238     14.32078   1.9129  1.29495   9.82058  0.05665     0.34862   5433.77968   3591.66405  0.48833          5867.7939     18.63785  0.00241  55189.21188   1.72969  1.02622    990438.26575  45.16684  20.50011  55246.95031    50.79998       43.95551   35.92168   49.60613   56.5     0.1937  -20.70212  0.89713 
  -34.86317  0.02949  5.13171     14.21287  1.87858  0.97585   6.15629  0.27073      0.0172   6090.03776   5259.88427  0.12247         3936.52246     18.32413  0.00117  55170.68383   1.36203  0.18156   1723595.18477  44.88572  20.58102  55249.27393    50.65631       43.77034   47.35279   58.70169   49.5    0.13199  -20.40463  0.97775 
  -19.29384  0.05333  4.14622     14.69667  1.81348  0.38706  13.61808  0.04412     0.08715   4334.34747   3708.33006  0.46628         4892.83453     17.58973  0.00022  55186.25316   1.52613  0.72627    117028.53368  46.22376  20.36245    55243.366    50.55992       43.71358   37.63223   54.73779   59.5    0.15493  -20.46759   0.9419 
   -13.3318  0.00821  4.22822     14.64648  1.88994  0.56995   8.52885  0.17967     0.12187   6025.25814   8611.11753  1.52842         5258.87995     18.14538  0.00078   55192.2152   1.84701  0.07003    159815.50883  46.08936  20.52219    55243.366    50.68711       43.84909   32.50057   49.60613   48.5    0.13986  -20.73934  0.99424 
  -12.49786  0.40655    2.402     14.53579  1.29526   0.8517   6.38265  0.15135     0.36559   8167.26403   6242.22145  0.83632         2501.93303     18.56261  0.00203  55193.04914    2.5397   2.5949     58849.96425  46.85031  20.58753    55250.449    50.77214       43.85509   41.05335   58.15891   61.5    0.18872  -20.53535   0.9011 
  -16.04201  0.00162  3.84659     14.28134  1.45501  0.82987  13.85737  0.03877     0.47493   3581.07076   8324.42661  1.57874         4110.18535     19.27957  0.01058  55189.50499   1.06007  0.02248    547213.14134   45.5234  20.53341    55246.353    50.89678       43.92183    42.7639   65.00113   50.5    0.15761  -20.45952  0.99772 
  -18.06814  0.02292  2.31861     14.62381  1.93124    0.613  28.98452  0.03281     0.45193   3537.70213   5836.05322  1.11868         3462.79033     19.23307   0.0095  55187.47886   2.16389  0.66424     54511.88633  47.08774  20.38416    55246.353    50.82042       43.95105   37.63223   49.60613   63.5    0.09545  -20.40825  0.98474 
  -17.73114  0.32695  6.40529     14.54661  1.98558  0.79333    4.6068  0.17519     0.10789   6119.13746   5890.64965  4.01058         2317.17184     18.01336  0.00057  55187.81586   1.02898  1.50618    610319.17233   45.1681   20.3539  55253.92117    51.07253       44.33001   22.32888   44.38281   64.5    0.14788  -20.42587  0.78885 
  -20.60441  0.00112  1.82453     14.32003  1.60053  0.71312  10.66805  0.08725      0.4794   5486.73024   7551.17658  0.12881         4883.93119     20.80602  0.35543  55184.94259   1.91575  0.01192    113325.93926  46.89648  20.52493  55244.62669    50.68848       43.78794   41.05335   58.15891   46.5    0.15682  -20.84873  0.99977 
  -15.94131  0.39237  3.15829     14.23449   1.6142  1.52807   4.24467  0.18034     0.48262   5599.32036   8608.59927  0.23193         3451.36338     19.24084  0.00967  55189.60569   0.79386  1.66547    507809.80504   45.7722   20.4894    55243.366    50.70975        43.8374   29.07945   58.15891   50.0    0.15625  -20.62391  0.91141 
  -25.68058  0.03548  4.97109      14.2133  1.96351  1.46346   3.75586  0.21979     0.03425   5355.07003   9146.11973  0.22995          5820.1413     18.76773  0.00325  55179.86642   0.64249  0.13325   1687171.82473  44.94182  20.46961  55253.92117     50.8194        43.9973   25.65834   56.44835   43.5     0.1446  -20.55852  0.98564 
  -27.79441   0.1315  6.00055      14.2358  1.83606  1.42024   5.68306   0.0837     0.17109   3082.63011   6209.86143  1.23452         4358.52771     18.50049  0.00176  55177.75259   0.32215  0.74732   2072478.15078  44.65986  20.53149  55244.62669    50.84242       44.03608   32.50057   46.18501   76.5    0.12275  -20.17552  0.88334 
  -23.29929  0.17829  4.41845     14.14134  1.53988  1.21475   3.63912  0.32286      0.3805   5310.72892   9392.14051   0.9831         5898.81487      18.7585  0.00319  55182.24771   0.61225  0.64882   1455973.40705  45.00264  20.54748    55246.353    50.82981       43.81151   46.18501   76.97502   53.0     0.1241  -20.72817  0.92547 
  -16.08335  0.16446  5.20972     15.02887  1.99338  0.21986   5.13263  0.27616     0.07879   8660.80436   7426.11517  0.11401         5101.94893     18.64469  0.00245  55189.46365   2.29659  0.84409     43983.77347  46.49151  20.49076  55244.62669    50.99348       44.19709   29.07945   41.05335   44.5    0.18928  -20.71159  0.91043 
  -22.26067  0.37708  7.25117     13.94862  2.09081  1.35363    5.6993  0.12404     0.01084   6020.18967   5882.48786  1.37088         5276.40999      16.9556    5e-05  55183.28633   1.23216   2.1491  12933375.69499  43.75663  20.55865  55249.27393    50.69515       43.79178   35.92168   66.71169   54.0    0.15852  -20.81527  0.66561 
   -14.0775  0.00794  4.06382     14.60815  2.19874  0.71898  17.30522  0.05736      0.3985   4092.90663   6966.27849  1.07998         4165.20148     17.84936  0.00039   55191.4695   1.72929  0.13737    204905.05345   46.0816  20.42384  55244.62669    50.67569       43.79081   37.63223   53.02724   55.5    0.11931  -20.47213  0.99171 
  -15.44447  0.08612   5.3688     14.16099   1.6248  0.80287     5.896  0.03811       0.012   6901.70511   7211.30677  0.03154         4514.09881     18.99512  0.00549  55190.10253   1.67532  0.50778   2071992.31685   44.7035  20.39896  55242.30307    50.88167         44.118   29.07945   41.05335   48.0     0.2106  -20.54189  0.91958 
  -11.53598  0.27683  2.14988     14.64388  1.71462  0.78417  11.16962  0.12982     0.32195   8170.96466   7312.89803  0.60342         4108.01563     20.47938  0.16754  55194.01102   4.44849  3.09205     37936.26214  47.25913  20.43695  55249.27393    50.82799       44.00337    27.3689   54.73779   58.5     0.1526  -20.85045  0.93777 
   -34.9708  0.07265  4.54977      13.8382  1.33895  0.82658   3.05033  0.15857     0.13308   3552.33888   8015.41284  1.72327         5621.68197     18.67558  0.00263   55170.5762   0.22962  0.22162   5421972.67446  44.34547  20.43535  55244.62669    50.77773       43.88055   39.34279   53.02724   88.0    0.10867  -20.78234  0.96334 
  -21.08547  0.05473  5.28335     14.02179   1.4351  0.85502  13.45574   0.0249     0.40132   4017.10505   3788.13636  1.02115         4880.61711      16.9364    5e-05  55184.46153   1.29527  0.73644   3364625.07754  44.45297  20.53341  55256.24479    50.97863       43.90505   59.86946  100.92281   86.0    0.13771  -20.50376  0.86978 
  -22.23654  0.07086  5.64495      14.3393   1.8231  0.59923   3.09228  0.25591     0.05314   6235.16791   6942.09374  0.59316         4742.20893     20.01032  0.05689  55183.31046   0.71714  0.21912   1130678.05177    44.973   20.3671    55243.366    50.87596       43.91929   34.21112    70.1328   54.0    0.16026   -20.6851  0.96615 
  -15.09972  0.11792  1.40043     14.20174  1.46637   1.3861   4.25359  0.25492     0.37192   6266.50963   4737.49623  0.06574         5036.69674     20.62491  0.23423  55190.44728    0.9964  0.50158    105461.78457  47.11947  20.53685  55249.27393    50.86943       43.92199    27.3689    70.1328   44.5    0.18432  -20.85056  0.99394 
  -12.76017  0.01832  3.66231     14.25005  1.65961  1.23206  15.78321  0.03105     0.49668   4166.29306   7661.37346  0.89156         4017.91174     19.84747   0.0391  55192.78683   1.63426  0.28911    653481.31782  45.54611  20.36642    55243.366    51.34513       44.62693   26.62143   36.66914   52.0    0.17747  -20.51812  0.97861 
  -39.52445  0.04376  2.60428     14.38366    1.717  0.76417  34.96132  0.02357     0.23444   3766.59157   9080.03315  0.05009         4250.23944     16.31421    1e-05  55166.02255   2.95878   1.5299    184775.28871   46.4056  20.40545  55253.92117    51.14484        44.4582   18.81612   39.34279   61.5    0.09434   -20.1143  0.94773 
  -27.41786   0.0895  4.08611     14.00594  1.25075  0.83875   6.12439  0.14822     0.16858   4959.95817   6953.76516  1.31952         3325.71562     16.77011    3e-05  55178.12914   0.89877  0.54811    1886823.5127  44.86767  20.46341  55246.95031    50.80169       44.08233   17.10556   47.89557   67.5    0.11539  -20.47966  0.92563 
  -23.28836  0.01218  2.24802       14.696   1.8483  0.47299   4.45019  0.23574     0.02106   4930.32324   8259.01257  0.03584         3088.53469     18.22796  0.00094  55182.25864   0.64529  0.05421     35171.16998  47.28583  20.51341  55244.62669    50.78224        43.9659   23.94778    56.7816   41.0    0.14902  -20.27859  0.99873 
  -19.65724  0.01098  4.14236     14.25401  1.49949  0.73397   4.21162  0.15918     0.44502   4415.71759   3561.89179  0.99457         4191.04711     16.11274    1e-05  55185.88976   0.48987  0.04623    741696.37543  45.34007   20.5093  55249.27393     50.7972        43.9364    27.3689   61.58002   56.5    0.14984  -20.53066  0.99478 
  -25.24434  0.00792  5.06188     13.98666  1.53964  1.25003    3.9934  0.05784     0.24315   2488.76217   5356.54137  1.61344         3813.28072     17.54319  0.00019  55180.30266   0.14755  0.03162   3895228.86887  44.45711  20.47032  55239.97945    50.77692       43.97532   32.50057   44.47446   93.0    0.12827  -20.19573  0.99477 
  -20.75526  0.02596  3.79231     13.80769  1.16701  0.97351   6.00839  0.05929     0.12854   5731.76196   5178.76958  0.11615          3904.8358     17.66752  0.00026  55184.79174    1.1775  0.15596   3778494.61947  44.60079  20.50225    55250.449    50.83444       44.02032   25.65834   55.95149   78.5    0.15124  -20.56429  0.97834 
   -9.34948  0.18856  1.12484     14.99765    1.696  0.62137  21.82287  0.04659     0.49494   7699.75608   7691.06134  0.76927         5925.02545     16.73198    3e-05  55196.19752   7.71779  4.11498      2014.31311  49.09196  20.47526    55246.309    50.92313       44.04292   32.50057   53.02724   82.0    0.15056  -20.73931   0.9958 
  -19.15621  0.02968  1.63542     14.67208  1.31915  0.33891  38.47877  0.01602     0.42185   2761.60871   8341.58505  0.82964         4611.12217     19.12149  0.00735  55186.39079   1.75054  1.14188     14832.19497  47.79067  20.38766    55250.405    50.86741       44.01808   34.21112   51.31668   64.0     0.1044  -20.23796  0.97783 
  -16.78469  0.18598  3.18675       14.932   1.9182  0.30886   7.18911   0.1425     0.34389   5800.48039   9842.74545  0.31434         5565.57541     16.94469    5e-05  55188.76231   1.44288  1.33701      24740.5158  47.15163   20.5793    55246.353    50.83882       43.85223    42.7639   66.71169   41.0    0.14904  -20.65746  0.94275 
  -13.84624  0.00692   0.9225     14.54877  1.80465  0.94645  27.53279  0.13016     0.47693   8141.26987   5246.90697  0.16627         5505.96692     19.77466  0.03307  55191.70076  10.88583  0.19048     11392.00427  48.53871  20.43643    55246.353    50.87697       43.88278   46.18501   73.55391   52.5    0.12225  -20.64256  0.99968 
  -16.81462  0.06843  1.52531     14.19745  1.36002  0.90907  34.60857  0.01405     0.49347   4652.52388   5536.77931  0.08265         3568.53916     20.43839  0.15245  55188.73238   4.46877  2.36812    118353.85198  46.96249  20.33619  55246.95031    50.85369        44.0952    27.3689    42.7639   76.5    0.16554  -20.64561  0.96119 
   -22.0402  0.00528  1.35042     14.75722   1.7895  0.47362  17.91252  0.04066     0.43626   3731.63041   5080.16622  0.35794         5143.14593     18.52794  0.00187   55183.5068   1.48792  0.09465      9269.44195  48.29358  20.50728  55246.95031    50.76134       43.92677   35.92168   51.31668   49.0    0.15113  -20.08168  0.99937 
