 texplosion  fnickel    Pspin  log(Bfield)      Mns  thetaPB   mejecta    kappa  kappagamma      vejecta  temperature    alpha  cutoff_wavelength  log(nhhost)      A_V         MJD0   kenergy  mnickel           TSD   log(L0)  Peak_mag     Peak_MJD  log(E_rad)  log(Peak_lum)  Rise_Time    E_fold  tau_1  delta_m15     r_peak     frac 
   -5.97445  0.39945  0.87218     14.57593  1.56306  0.98431  16.07145  0.03166     0.04945   9835.28445   6984.12779   1.5629         3726.60104     18.20374  0.00089  58845.57555   9.27377   6.4197    7782.81156  48.69047  18.66786     58873.55     51.2167       44.58555    9.59068   29.4394   75.0    0.29813  -21.39332  0.99223 
   -2.64477  0.20592  1.33658     14.77602  2.00629  1.04346  29.16894  0.01665      0.3334   8945.57712   8072.84932   2.3452         3833.07915     16.25566    1e-05  58848.90523  13.92402  6.00657    9335.91013  48.34909  18.73935     58873.55    51.15065       44.39847   14.38602   34.7925   45.5    0.36839     -21.74  0.98565 
   -2.31464  0.30528  1.41274     14.77983   1.9682  1.00264   19.4819  0.03047     0.10121  10363.82715   7280.63705  2.33056         3537.30622     16.90289    4e-05  58849.23536  12.48242  5.94746   10054.44525  48.26043  18.66331     58873.55    51.13479       44.43466   12.06687  32.43313   58.0    0.31319  -21.53717  0.98205 
   -4.37583  0.46768  1.72307     14.59912  1.60583  0.86866  12.67857  0.03368     0.13304   8491.56614   7908.64459  2.20223         3960.76576     19.23603  0.00957  58847.17417   5.45347  5.92947   28046.81284  47.55406  18.70527  58878.57391    51.39104       44.88308    7.19301   23.9767   52.5    0.37011    -21.684  0.92865 
   -6.69494  0.35709   1.2001     14.60534  1.85444  1.23519  17.71868  0.02511     0.11192   8996.79878   7029.24751  1.61701         3919.05363     18.44653  0.00155  58844.85506   8.55529  6.32723   15268.03532  48.19484  18.69102     58876.56    51.31909       44.74336    9.59068  25.48628   76.0    0.30672  -21.39998  0.98278 
   -2.42461  0.20958  1.30661     14.58601  1.72106   1.5147  28.76839  0.01444     0.18242   8234.13617   8145.95587  2.30331          4038.9771     19.12601  0.00743  58849.12539  11.63533  6.02928   18360.74278  48.00846  18.60438     58873.55    51.30415       44.68132   11.98835  26.37437   52.5     0.3377  -21.66847  0.97773 
   -8.06783   0.3175  0.81371      14.7001  1.86306  0.90658  21.97683  0.02619     0.13577   9977.65316   7303.79055  1.51218         3160.54764     18.68888  0.00271  58843.48217  13.05116  6.97761    4558.15392  49.05935  18.61187     58873.55    51.16294        44.4613   12.06687  30.68313   88.5    0.23087  -21.22173  0.99585 
   -1.85585  0.20976  0.78894     14.74437  1.73365  0.92219   28.0636  0.01769     0.38176   8586.06468   7890.77627  2.98762         3832.50548     19.63382  0.02391  58849.69415  12.34124  5.88672    3251.87732  49.20158  18.64944     58873.55    51.20862       44.54446   11.98835  28.77204   52.0    0.28344  -21.66148   0.9975 
   -5.70097   0.3773  0.80244     14.33773  1.52706  1.21638  14.47776  0.02449     0.39777   8530.53213   7659.99293  0.83982          4003.4396     16.90827    4e-05  58845.84903   6.28465  5.46245   19276.43233  48.35885  18.72039     58873.55    51.22834       44.56605     9.6692  28.66664   61.5    0.35742  -21.47284  0.98993 
   -3.65414  0.36034  1.16385     14.89076  1.79725  0.60243  18.95241  0.03498     0.34027  11852.19937   6761.07212  2.65387         3251.57847     18.81205   0.0036  58847.89586  15.88143  6.82937    3738.43779  48.81897  18.49137  58873.13363    51.22099       44.58273   11.98835  27.04173   54.0    0.34505  -21.75046  0.98693 
   -4.60096  0.31325  0.71986     14.64266  1.73832  1.03645  19.81087  0.01369      0.3878   5368.20949   8452.45225  1.92111         4193.05543     16.22088    1e-05  58846.94904   3.40557  6.20578     4336.3147  49.15736  18.72463     58876.53    51.27595        44.6401    9.59068  28.77204   33.0    0.38641  -21.96816  0.99751 
   -6.59626  0.16416   1.3572     14.54005  1.83205  1.48594  35.81152  0.01333     0.06828   7807.24152   7862.42239  1.50408          4291.5517     19.13305  0.00755  58844.95374  13.02102  5.87889    26058.2285  47.85055  18.66799  58876.20265     51.1572       44.47915   12.06687  30.68313   71.0    0.26614  -21.37342  0.97192 
   -1.73082  0.15187  0.90786     14.76219  1.62624  0.79366  38.11517  0.01319     0.20974   8819.90975   7620.77008   2.3931         3717.21639     16.81885    4e-05  58849.81918  17.68696  5.78852    3721.06821  48.99332  18.75844     58876.53    51.29779       44.66486   11.98835  26.37437   55.0    0.30386  -21.55394   0.9951 
   -3.67468  0.26012  1.65402      14.6425  1.55114  0.79725  23.16076  0.01534     0.06955   6641.55157   7746.58473  2.72022         4068.54342     18.11702  0.00073  58847.87532   6.09423  6.02456   20442.91953  47.71187   18.7254     58876.56    51.26842       44.62461    9.59068   29.4394   54.5    0.34596  -21.70354   0.9356 
   -4.30421   0.3233  2.79601     14.56235  1.84064  1.30997   16.8574  0.01992     0.05255   6405.69869   8091.73653  2.83136         4041.34566     18.13925  0.00077  58847.24579    4.1262  5.44992  100266.82239  46.63958  18.59092     58873.53    51.16436       44.47555   14.38602  29.34719   54.0    0.34432  -21.63452  0.83997 
   -2.27361  0.31062  0.90911     14.71136  1.56001  1.01821  22.32705  0.02912     0.07039  12082.93443   6864.11227  2.91942         3397.90576     17.16054    8e-05  58849.27639  19.44479  6.93512    4523.35008  48.88928  18.62371  58872.57861    51.16656       44.46161   11.98835  31.74486   65.0    0.33057  -21.60029  0.99473 
   -6.64813  0.22195  1.29469     14.64032   2.0387  1.53287  28.00987   0.0173     0.03809   8709.10275   7827.23994  1.64605         3913.75227     17.59505  0.00022  58844.90187  12.67316  6.21668   16629.00651    48.133  18.63681     58873.55    51.23196        44.5746   11.98835  28.66664   72.5    0.27997  -21.36341  0.98265 
   -7.95037  0.13473  0.78251     14.89955  1.84386  0.42223  46.46615  0.01332     0.05469  10339.00701   7068.83789   0.6546         4219.28586     17.40335  0.00014  58843.59963  29.62931  6.26036    1665.05689  49.52616  18.61212  58876.20265    51.40009       44.85132    9.59068   25.5402   76.5    0.26335  -21.32366   0.9954 
   -3.14439  0.40379  1.43957     14.52714     1.57  1.14385  16.42126    0.025     0.04378   9229.01626   6987.67211  1.87604          3668.8564     17.46406  0.00016  58848.40561   8.34343  6.63081   26663.24799  47.72236  18.73541  58876.20265    51.15235       44.45053   14.38602  31.16971   61.0     0.3798   -21.6597  0.95231 
   -4.65235  0.49334  1.64974     14.49012  1.52959  1.04304  12.13812  0.04029     0.23068    8964.2705    7598.5365  1.79811         3987.09392     19.36659  0.01292  58846.89765   5.81847  5.98816   40455.24594  47.41161  18.65692  58873.13363    51.15916       44.41596   14.38602  33.56738   54.5    0.33485  -21.64935  0.92634 
   -6.12336  0.41103  1.54315      14.6681  1.67827  0.72187  15.34347  0.03192     0.49858   9684.27038   7252.76128  1.86782         3558.61686     19.33666  0.01206  58845.42664    8.5839  6.30669    17111.5684   47.8836   18.7165  58876.20265    51.24828       44.59596   11.98835  28.66664   68.5    0.31039  -21.47607  0.94669 
   -3.77049  0.19155  1.05735     14.59225  1.60784  1.18323   30.4942  0.01694     0.22125   8285.14316   7654.87689  2.99827         3458.69111     16.15272    1e-05  58847.77951  12.48661  5.84132   10914.47809  48.38865   18.6294  58872.57861    51.35592       44.74533   11.98835  28.77204   57.0     0.2894  -21.55136  0.98874 
   -4.45544  0.39186  0.77584     14.49654  1.41377  1.52709  18.00724  0.03497     0.16507  12675.00557   6774.37601  2.92917         2804.17517       16.245    1e-05  58847.09456  17.25722  7.05628     8028.8408  48.73503  18.50682  58872.57861    51.17312       44.49951     9.6692  28.77204   69.5    0.31715  -21.54289   0.9945 
   -3.63266  0.34731  0.72369     14.75151  1.98004  0.70733  16.51708  0.02125     0.03144   7566.63405   8082.15392   0.9807          4880.9113     18.28378  0.00107  58847.91734   5.64113  5.73652    3023.99494  49.36583  18.71165     58876.56    51.27176       44.63541   11.98835   29.4394   40.5    0.36925    -21.843  0.99752 
   -4.49655  0.22924  1.34117     14.88908  1.74534  0.48971  24.00817  0.01889     0.04987   7313.36662   7645.67242  3.14222         3933.54751     19.00222  0.00558  58847.05345   7.65986  5.50358    4858.42421  48.56926  18.58226     58873.55     51.2108        44.5406   11.98835  28.77204   49.5    0.31487  -21.72508  0.97593 
   -4.61726  0.19886  1.16327     14.47149  1.59586  1.23268  31.97867  0.01124     0.15196    7098.8551   7342.33957  1.49173         4224.24409      19.7682  0.03258  58846.93274   9.61312  6.35913   22865.96715  47.98129  18.67859  58872.57861    51.17922       44.47952   11.98835  31.16971   61.0    0.33771  -21.65403  0.97412 
   -4.91072  0.38702  0.92794     14.55525  1.78168   1.3846   17.0437  0.02825     0.04963   9693.00846   7561.36673  1.33682         3704.18133      19.1749  0.00831  58846.63928   9.55231  6.59629   11045.48224  48.54145  18.69831  58876.20265     51.2816       44.64675   11.98835  28.77204   63.5    0.33785  -21.55287  0.99199 
   -4.39797  0.30306  0.83886     14.62194  1.54841  1.01324  21.36499  0.02588      0.4062   9764.57297   7857.02943  3.06391         3119.90782     19.63031  0.02372  58847.15203  12.15168  6.47494     5770.2996  48.85015  18.63542  58876.20265    51.19255        44.5082   14.38602  29.32375   64.5     0.2655  -21.48607  0.99464 
   -4.33108  0.21542  0.74174     14.64865   1.5226  0.54238  28.11584  0.01873     0.37454  11462.17758   7378.12144  1.40415         2497.29465     16.84037    4e-05  58847.21892  22.03497  6.05659    3922.94831  49.11731  18.58584     58873.55    51.21523       44.56991   11.98835  28.66664   52.5    0.35522  -21.63303  0.99306 
    -7.2287  0.30314  1.21652     14.62059  1.95683  0.93259  21.30125  0.02275     0.15332  10365.41912   6999.02581  0.65823         4526.51184     17.84472  0.00039   58844.3213   13.6523  6.45728   15431.85607  48.20174  18.53523  58870.06462    51.20191       44.50273   14.38602  32.57373   73.5    0.31773  -21.44946  0.97829 
   -4.93786  0.34313  0.85849     14.86377  1.67426  0.45272  19.22892  0.02533     0.21983  10521.58291   7294.90955  1.08428         3492.73624      16.8152    4e-05  58846.61214  12.69826  6.59798    2145.70067  49.29363  18.68652     58873.55    51.13931       44.41554   12.06687  31.16971   66.5    0.33239  -21.50496   0.9928 
   -3.52398  0.26811  1.24953      15.0034  1.96772  0.55594  25.56839  0.01603     0.37562   9023.76312   6611.93363  2.24539         3687.66973     16.10429    1e-05  58848.02602  12.41955  6.85521    2808.48295  48.92085  18.63031  58872.57861    51.21094       44.51166   14.38602  30.17606   75.5    0.33839   -21.5195  0.98791 
   -3.80528  0.29725  1.24757     14.56775  1.52724  1.35382   20.0304  0.02114     0.04506   7366.77721   7362.94008  3.83675         3737.25393     18.15308  0.00079  58847.74472   6.48443  5.95408   16156.77292  48.05227  18.68273  58876.20265    51.36269       44.78657    9.59068  26.37437   55.0    0.28405  -21.67169  0.97863 
   -5.16729  0.39687  1.48022     14.39578   1.3788  1.13665  14.39876  0.02498     0.14439   6742.37794   8731.78972  1.66976         4395.22435     17.89846  0.00044  58846.38271   3.90462  5.71442   45331.59284   47.4113  18.63253  58876.20265    51.38494       44.84548    9.59068   25.5402   60.0    0.30587    -21.492  0.93425 
   -5.63578  0.37867  0.99231      14.6485  1.63503  0.87686  17.92109  0.02586     0.14249  10029.25219   7319.22812   1.5869         3596.49048     17.70864  0.00028  58845.91422  10.75298  6.78621    7544.52715  48.61145  18.66932  58876.20265    51.10405       44.37273   14.46454  34.78393   76.0    0.31144  -21.42874  0.98866 
    -4.2765  0.47259   1.5793     14.59502  1.99442  1.51815  12.45827  0.03653     0.29589   8733.71284   7261.44731  1.78816         3827.97698     18.70908  0.00284   58847.2735   5.66869  5.88766    29821.6588   47.6972  18.63619  58876.20265    51.44923       44.93839    9.59068   23.9767   53.5    0.32689  -21.66485  0.96299 
   -6.10951  0.17251    1.353     14.35081  1.61502   1.4286  33.94199  0.01033     0.09388   7169.51487   8473.84225  1.16416         4335.88328     18.83737  0.00382  58845.44049  10.40744  5.85537   54571.24025  47.47747  18.74393     58876.56    51.13717       44.45595   14.38602  31.16971   64.0    0.30218  -21.48269  0.95311 
   -3.75875  0.19138  0.88377     14.66441  1.73307  1.10544  34.73947  0.01524     0.02464  11108.24152   7395.47865  1.70561         3504.30975     17.06459    6e-05  58847.79125   25.5706  6.64852    5895.14205  48.84449  18.66806     58873.55    51.13495       44.42593   12.06687  32.45656   57.5    0.35353  -21.62639  0.99496 
   -7.83735  0.32357  1.80345     14.57717  1.79548  1.11902    19.109  0.02304     0.03248   7522.02603   7516.61218  2.17924         4029.86879     17.78546  0.00034  58843.71265   6.44963  6.18303   38006.34729  47.43096  18.74687  58876.20265    51.18287        44.5086   11.98835  31.16971   76.0    0.25926  -21.39826  0.93004 
   -4.81381  0.34722  2.37748     14.73366  1.95734  0.85818  15.94515  0.02659     0.03488   7335.78128   7790.17539  3.08665         3672.40564      18.0213  0.00058  58846.73619   5.11857  5.53651   35026.83386  47.26388  18.61095  58876.20265    51.19035        44.5171   12.06687  28.77204   56.5    0.31571  -21.56791  0.89725 
   -2.15439  0.46391  1.05694     14.92009  1.93699  0.83845  14.52923  0.04454     0.15215  11897.26731   6892.07617  3.15376         3315.84204     19.00769  0.00565  58849.39561  12.26773  6.74026    2903.14194    49.045  18.75224  58876.20265    51.16835       44.40968   12.06687  36.43066   56.5    0.30216  -21.70997   0.9953 
    -3.1006  0.36588  1.28059     14.65637  1.82567  1.25225  16.53506  0.02454     0.11564   7802.05838   7727.35277  2.28526         3879.86971     17.14605    8e-05   58848.4494   6.00415  6.04993   13530.48155  48.18414  18.60503  58872.57861    51.17583       44.46335   11.98835  31.72142   45.5    0.37764  -21.77705  0.98289 
   -2.96607  0.24708  0.73422     14.67558  1.86866   1.3134  26.54696  0.01878     0.10941  10492.84306   7149.29997  1.52618         3770.19936     16.77745    3e-05  58848.58393  17.43525  6.55935    4167.03342   49.1889  18.78364     58876.56    51.26383       44.62207   11.98835  27.04173   65.5    0.34286  -21.54125  0.99805 
   -4.66462  0.24182  1.55216     14.53615  1.71091  1.09081  23.32212  0.01837     0.03452   7864.91926   8046.72217  1.48918         4123.65942     17.73064   0.0003  58846.88538   8.60565  5.63975   32405.39209  47.60958  18.76917  58878.57391    51.16608       44.42736   12.06687  35.96505   55.0    0.31751  -21.55966   0.9515 
   -2.53367  0.21303  1.23079     14.76857  1.70296  0.73697  26.77133  0.01666     0.01303   7348.39593   8100.17157  2.60628         4034.65811     19.17567  0.00833  58849.01633   8.62347  5.70318     6954.3082  48.47743  18.62726     58876.56    51.26836       44.64795   11.98835  27.04173   57.5    0.31815  -21.54095  0.98357 
   -3.84243  0.15876  0.78636     14.84193  1.70944  0.65885  42.16419  0.01416     0.44906  11189.95757   6845.75979  2.40159         3308.30836     17.10873    7e-05  58847.70757    31.494  6.69418    2032.63597  49.40239  18.69891  58876.20265    51.10979       44.38114   14.46454  33.56738   64.0    0.33444  -21.58083  0.99697 
   -3.71994  0.28631  2.39509     14.60591  1.79467  1.05659  19.11308  0.01667     0.08497   6288.19716    8495.0342  2.86212         4018.17359     19.26984  0.01034  58847.83006   4.50827  5.47236   58696.79214  46.99557  18.55016  58872.57861    51.16641       44.47323   14.38602  29.34719   50.5    0.35694  -21.67502   0.8792 
   -3.29312   0.2814  1.17691      14.8256  1.48299  0.41099  21.54076  0.02153     0.35981    8851.6972   7754.35741  1.78739         3735.03586     17.20562    9e-05  58848.25688  10.06795  6.06156    4258.40839  48.66925  18.72329  58876.20265    51.27964       44.60859   11.98835  31.06432   55.5    0.33365  -21.61096  0.97186 
   -6.50678  0.25587  1.44266     14.53254  1.56449  0.81408   24.2438  0.01331     0.02445   6456.56008   7517.89651  1.55318         4191.28279     17.65077  0.00025  58845.04322   6.02879  6.20319   26027.58198  47.72946  18.62046  58872.57861    51.18501       44.47594   14.38602  30.68313   80.5    0.29017   -21.3808  0.94443 
  -10.25032    0.361  0.70305     14.50289  1.63435  0.97741  16.89576  0.02396     0.16725   7120.56846   7585.03318  0.99679         4306.24678     17.11055    7e-05  58841.29968   5.11016  6.09941    7402.02643  48.91887   18.6102  58876.20265    51.31003       44.70865   11.98835  26.37437   92.0     0.2203  -21.11738  0.99558 
   -1.65269  0.45123  0.99257     14.77118  1.91821  1.52483  13.73655  0.03188     0.04022   8209.76855   8003.11718  2.64075         4039.32873     16.43549    2e-05  58849.89731   5.52289  6.19831    5033.59335  48.85634  18.74155     58876.56    51.13807       44.43541   12.06687  33.56738   47.0    0.32916  -21.79405   0.9963 
   -4.81311  0.21759  0.79071     14.84939  1.68959  0.52875  30.36417  0.01814     0.05639  10910.83298   6865.99462  1.29663         3752.33671     17.00152    6e-05  58846.73689  21.56276  6.60704    1962.63567  49.40776  18.63007  58876.20265    51.29565       44.69984   11.98835   23.9767   61.5     0.3444  -21.60435  0.99571 
   -6.20756  0.34615  1.73208     14.62555  1.82414  0.97876   17.4932  0.02874     0.27557   8388.04352   7516.76374  2.26065         3674.11707      16.3586    1e-05  58845.34244   7.34206  6.05521    28504.3262  47.59786  18.72001  58876.20265    51.15751       44.44565   14.38602  33.56738   68.5    0.26922  -21.43624  0.94073 
   -6.47638  0.17271  1.28142     14.61228  2.11558  1.51404  36.91398  0.01078     0.17602   7943.69298   8290.65322  1.06311         4559.72203     18.25569    0.001  58845.07362  13.89514  6.37554   19234.09319  48.09482  18.67648  58876.20265    51.15876       44.48114   14.38602  29.34719   74.5    0.29288  -21.38421  0.98129 
   -8.65794  0.23753  0.74137     14.57255  1.89235  1.17619   29.5354  0.01535     0.36203   9078.99161   7560.05445  0.57975         4695.90845     17.27091   0.0001  58842.89206  14.52263  7.01567    6914.84764  48.96599  18.55996  58872.57861    51.33905       44.75405    9.59068   25.5402   89.0    0.24602  -21.25656  0.99626 
   -7.20403  0.46716  0.74674     14.59084  1.55272  0.65641  14.35212  0.03255     0.08547  10835.11749   7138.06918  0.40202         3264.30294     18.75998   0.0032  58844.34597  10.05103  6.70475     5291.4551  48.99002  18.64978  58876.20265    51.15087       44.45778   12.06687  32.43313   82.0    0.30368  -21.30864  0.99261 
   -6.45859  0.20034  1.47788     14.48096  1.56924  0.78205  29.10701  0.01126     0.02742   7257.85775   7366.13941  1.53596         4085.96665     19.85217  0.03953  58845.09141   9.14622  5.83127   34742.88944  47.58439  18.68862  58876.20265     51.1754       44.48285   12.06687  29.34719   64.5    0.33852  -21.57302  0.93865 
   -5.14541  0.24661  0.84123     14.59768  1.77739  1.06396  27.76164    0.022     0.36901  10466.74543    7220.3154  1.05971         3414.89081     17.91213  0.00045  58846.40459  18.14244  6.84637    7448.34392  48.79674  18.63577  58876.20265    51.30185       44.68124   11.98835  26.37437   73.5    0.27866  -21.43477  0.99407 
