 texplosion  fnickel    Pspin  log(Bfield)      Mns  thetaPB   mejecta    kappa  kappagamma      vejecta  temperature    alpha  cutoff_wavelength  log(nhhost)      A_V         MJD0   kenergy  mnickel           TSD   log(L0)  Peak_mag     Peak_MJD  log(E_rad)  log(Peak_lum)  Rise_Time    E_fold  tau_1  delta_m15     r_peak     frac 
    -2.2189  0.01043  2.41242     14.53823  1.86329  1.22352   8.06769  0.05049       0.044   8577.89109   3995.34663  1.14096         3966.43397     19.45691  0.01591  58257.24594   3.54109  0.08411   84439.44595  46.84767  18.35667  58283.48047    50.89968       44.45065   12.22929  23.54582   27.0    0.48893  -21.15463  0.99789 
   -2.11692  0.00506  1.65567      14.8106  1.79741  0.50948  21.74346  0.01686     0.02245   7668.31124   4210.03513  0.87895         4585.90185     16.45702    2e-05  58257.34793   7.62703  0.10997   10944.62229  48.04635  18.29831  58283.48047    50.91667       44.45769    10.8098  24.24255   26.5    0.50221  -21.18031  0.99888 
   -1.47438  0.01418  2.11897     14.62458  1.71594  0.86006   9.29449  0.05827     0.03516   9082.75644   4267.33935  1.43671          3968.4197     18.04354  0.00061  58257.99046   4.57392  0.13179   40308.56399   47.2457  18.33003  58284.31361    50.98543       44.53657   10.59457  23.55331   27.5    0.45133  -21.19042  0.99732 
   -1.32251  0.01808  0.93734     14.68722  1.82617  0.86844   7.02848  0.04432     0.19987   5669.84174   3532.30293  1.31891         4332.47446     19.66446  0.02566  58258.14233   1.34782  0.12705    6290.93085  48.78788  18.32235  58285.44141    50.85123        44.3749   10.59457  27.78948   27.5    0.40113  -21.06544  0.99985 
   -1.99443   0.0155  0.78154     14.61768  1.75308  0.98205  23.43684   0.0173     0.03742   7971.69178   4172.32004  0.83808         4373.96146     19.97408  0.05234  58257.47041   8.88438  0.36335    5783.03133  48.96458  18.29527  58284.31361    50.91042       44.45071   10.54861   25.2265   24.0    0.48682  -21.57929  0.99976 
   -1.48109  0.08286   0.9211     14.59512  1.77706  1.49334   4.56309  0.09986     0.08083   7894.08719   3974.93142  1.08445          4367.7789     18.10155   0.0007  58257.98375   1.69625  0.37812      9034.057  48.63405  18.34556  58284.31361    50.90752       44.47047   12.12128  22.22234   26.5    0.50495   -21.6116  0.99963 
   -2.34125  0.13136   3.5873      14.4541  1.71548  1.34676   6.27162  0.08089      0.0114   9220.67626   4911.53023  1.99227         3728.87961     16.90444    4e-05   58257.1236   3.18077  0.82384  253246.50308  45.99015  18.37146  58284.31361    50.96216       44.51911   10.59457  22.79389   28.5    0.44331   -21.1694    0.947 
   -3.13736  0.01561  2.35379      14.4599   2.0548  1.39318    5.8458  0.06535      0.0218  10983.21223   3603.22464  0.72795         2349.58708     20.23806  0.09611  58256.32748   4.20659  0.09125  127150.98868  46.73376  18.30362  58283.48047    50.94336       44.50281   10.54861  23.59926   27.5    0.51405  -21.24331  0.99803 
   -2.55436  0.05369  0.72482     14.57952  1.90455  1.51093   3.50786  0.09106       0.076   6431.37732   4634.28874  0.82814         4530.04071     18.21101   0.0009  58256.91048   0.86552  0.18833    6442.06634  49.01916  18.32725  58284.31361    51.04435       44.63848    9.71812  21.85859   27.0    0.47648  -20.89512  0.99992 
   -2.49975  0.01163   3.1509     14.63978  2.09909   1.0076   3.96409  0.14724     0.06391   10995.7082   4183.80943  1.13599         3733.10408     18.62911  0.00237   58256.9651   2.85902  0.04611  101659.00493  46.58686  18.35346  58285.40234    50.88174       44.41795   10.10106  25.71015   26.5    0.47707  -21.21746  0.99826 
   -1.68105   0.0282  1.59801       14.493  1.65423  1.36136   3.97448  0.09558     0.46606   6749.70083    3632.5086  1.41601         4201.16557     19.27076  0.01036   58257.7838   1.08013  0.11208   40510.31587  47.47272  18.32311  58284.31361     50.8831       44.40932   12.12128  24.51058   27.0    0.43197  -21.14383  0.99887 
   -1.23341  0.00514  0.74085      14.7317  1.62687  0.68271   6.84047  0.04716     0.34089    5380.0556   3831.89636  1.40544         4457.72904     16.40528    1e-05  58258.23143    1.1811  0.03516    2852.59064  49.28549  18.40069  58284.31361    50.77096        44.2515   13.43881  27.67418   27.0    0.42426  -21.04241  0.99998 
   -2.05166   0.0015  1.32145     14.40988  1.51044  1.55466    4.8509  0.07103     0.12699   6545.29326    3295.7321   1.2237         4196.48837     19.12575  0.00742  58257.41318   1.23967   0.0073    37091.3651  47.63657  18.34744  58283.48047    50.99673       44.57942    8.40664  23.67034   27.0    0.45217   -21.1495  0.99995 
   -1.91992  0.01163  2.02921     14.68645  1.68426  0.67603  16.19293  0.02466     0.01124   7757.57727   4086.76243  1.30077         4123.64189     16.18964    1e-05  58257.54493   5.81306  0.18827   27289.08546  47.44461  18.32179  58283.48047    51.03712       44.61498    8.40664  23.67034   27.5    0.49587   -21.1101   0.9964 
   -1.85038  0.00922   2.8414     14.73026  1.91302  0.68288   5.09284  0.06571     0.01031    6176.8972   4961.94207  1.72698         4075.06843     17.40277  0.00014  58257.61446   1.15912  0.04697   49669.06129  46.94741   18.3099  58284.31361      51.059       44.64709    9.71812  21.85859   28.5    0.42122  -21.07478  0.99837 
   -1.72429  0.01022   0.9335     14.50798  1.67238  1.17177   4.57903  0.05607     0.07922   5413.39336   4670.76096  1.10393         4434.54123     19.14632  0.00778  58257.74056   0.80046  0.04679    13044.2368  48.43653  18.36718  58285.40234    51.07039       44.64186    9.71812  22.62342   27.0    0.47674  -21.09186  0.99992 
   -1.24687  0.00548  2.08357     14.84954  1.46487  0.34713   5.69967  0.07596     0.12621   7607.62711   4763.55126  1.58143         4215.98087     19.22981  0.00943  58258.21797   1.96777  0.03124   11807.29207  47.72488  18.30966  58283.48047    51.10201       44.72804    8.40664  20.17463   27.0    0.44671  -21.17702  0.99917 
   -2.04345  0.08672  0.95693     14.60499  1.84377  1.02539   3.80676  0.07621     0.01873   6348.52771   4386.72309  0.86425         4723.33627     19.53852   0.0192  58257.42139   0.91523  0.33011    9667.13713  48.58749  18.34659  58284.31361    50.92712       44.47466   12.12128  23.65383   25.5    0.49416  -21.26549  0.99953 
   -2.23787  0.00608  1.35173     14.44527  1.62176  1.35435    7.8953  0.04167     0.04724   6606.95548   4289.44264  1.03001         4430.83604     18.94452  0.00489  58257.22698   2.05588  0.04803   35403.58555  47.66801  18.34237  58283.48047    50.89529       44.43976    9.28309    25.322   27.0    0.48324  -21.11284  0.99967 
   -1.51026  0.00607  1.19728     14.59201  1.64404  0.81645   6.27783   0.0509      0.0143   6358.32949   4047.67216  1.21629         4337.33277     20.11086  0.07171  58257.95458   1.51399  0.03812   14325.10946  48.17227  18.30063  58283.48047    50.85676       44.39361   13.11886    23.513   26.0    0.40431  -21.30733  0.99983 
   -2.24739  0.00144  2.01489     14.59354  1.75455  0.86072   4.86591  0.07664     0.31373   7774.96105   3743.05748  1.07711          4265.2546     19.53353  0.01898  58257.21746   1.75464  0.00701   42993.05113  47.27111  18.36122  58285.40234    50.95817        44.5114    8.40664  24.62549   26.5    0.50338  -21.15652  0.99987 
   -1.98732  0.00851   1.5449     14.58206  1.75081  0.98285  10.33347  0.03473     0.05707   7270.07702   4125.40672  1.03788         4399.33975     18.12697  0.00074  58257.47752     3.258  0.08792   26590.94229  47.70955  18.33144  58284.31361    51.14347       44.75073    7.31677  22.57599   26.5    0.50064  -21.20149  0.99926 
   -1.90866  0.00296  2.52021     14.48116  1.78067  1.38963    7.2919  0.05136     0.01047   7196.87582   4007.33977  1.37323         4156.78646     18.29751   0.0011  58257.55619   2.25297  0.02161  114538.51556   46.6576  18.34261  58284.31361    50.84274       44.37117   12.22929  24.40257   27.5     0.4415  -21.11846  0.99935 
   -2.01795  0.00916  1.34142     14.58415  1.69873  0.92655  13.61517  0.02484      0.0419   6722.85955   4722.44393  1.06023         4401.34467     19.19209  0.00865  58257.44689   3.67078   0.1247   19265.45288  47.95906  18.36969  58284.31361    50.93123       44.47198   12.12128  23.65383   27.0    0.48237  -21.18949  0.99929 
   -1.88806  0.01809  1.19425     14.63884  1.88975  1.18571  32.21513  0.01229     0.06734   7887.49919   4090.28178  0.93257         4606.48682     18.33873  0.00121  58257.57678  11.95544   0.5829   13204.63359  48.27033  18.36532  58283.48047     50.9602       44.52511    9.28309  23.56359   27.0    0.47814  -21.10901  0.99857 
   -1.51947  0.00249  1.11818     14.64268  1.92194  1.45254  22.81999  0.03009     0.03106  10754.06889   5817.77202  0.95826         3963.49827      18.2573    0.001  58257.94537  15.74303  0.05682   11566.64024  48.39236  18.30006  58284.31361    50.95166       44.49785   12.12128  23.65383   27.0     0.5181   -21.4232   0.9999 
   -1.40304  0.00364  0.74902     14.77815  2.01749  0.79188   7.77357  0.03368       0.278   5163.59121   3578.62837  1.15502         4674.90951      18.4997  0.00176  58258.06181   1.23638  0.02831     2919.5204  49.35936  18.33487  58283.48047     50.8496       44.38846   12.22929  24.40257   26.5    0.46618  -20.99462  0.99999 
   -2.05231  0.00456  1.79366      14.6135  1.78345  0.87627  20.20494  0.01836     0.02939   7739.94183   5443.25492  0.96938         4379.73779      16.4854    2e-05  58257.41253   7.22038   0.0922   31590.92553  47.51306  18.36867  58283.48047    50.92277       44.45333    9.28309    25.322   26.0    0.49192  -21.16834  0.99882 
   -2.46271  0.00285  1.10244     14.65496  1.82968  0.70707  19.62082  0.02059     0.07916   8818.72559   4362.40816  0.80431         3725.91864     20.50926  0.17947  58257.00213    9.1024  0.05584   10115.44171  48.44152  18.32353  58283.48047    50.82634       44.35851   14.14149  22.49037   26.5     0.5077  -21.25132  0.99983 
    -2.4897  0.00525  1.53149     14.44447  1.60325  1.30432   8.39797  0.05031     0.03649   7834.29438   3790.38417  0.98677         4315.28043     17.58439  0.00021  58256.97514   3.07469  0.04405   45091.75485  47.44952  18.34914  58284.31361    50.94873       44.51587   10.59457  23.55331   27.0      0.455  -21.10046  0.99955 
   -2.57962  0.02141  0.80977     14.61122  1.63856  0.71932   7.66261  0.03825     0.01688   7034.02396   4138.79049  0.60122         5187.30398     16.55448    2e-05  58256.88523   2.26158  0.16406    5978.14461  48.89001  18.34986  58284.31361    50.99717       44.58044   10.59457  22.79389   26.5     0.5328   -21.0405   0.9998 
    -1.7216  0.01902  1.68257      14.7688  1.52561  0.44545   5.90403  0.06042     0.10812   7710.63113   4339.66856  1.09901         4113.45726     18.73975  0.00305  58257.74324    2.0939   0.1123    11630.7826  47.93473  18.37156  58284.31361    50.84751       44.36381   10.91781  26.15476   26.0    0.51953  -21.13628  0.99836 
   -1.61481  0.18568  0.92948     14.62766  1.73957   1.2734   5.90408   0.1068     0.01188  10537.41665   6985.75541  0.92675         4118.13259     18.34117  0.00122  58257.85003   3.91064  1.09627     7752.0323  48.68339  18.35343  58284.31361    51.02858       44.59257    9.71812  23.67034   24.0    0.48855  -21.28494  0.99895 
    -1.7659  0.00653   1.5523     14.52809  1.76138  1.40275  20.77736    0.021     0.04236   8490.21277   4858.30089  0.96677         4368.87881      16.4045    1e-05  58257.69894   8.93418  0.13559   34628.79656  47.59331   18.3448  58284.31361    50.91375       44.47074   12.12128  23.65383   25.5    0.51393  -21.17875   0.9989 
   -1.90268  0.04028  2.01958     14.54343  1.50514  0.82189   7.23026  0.07454     0.02404   9043.96369   3101.39169  1.58491         3852.54206     19.70414  0.02811  58257.56216   3.52776  0.29125   46671.05588  47.16685  18.31184  58285.40234    50.84805       44.38504   13.11886    23.513   28.5      0.429  -21.17891  0.99323 
   -2.18244  0.07053   1.6163     14.67525  1.64031  0.64445   6.86517  0.06403     0.01188   8475.07443   4335.16761  0.90741         4334.13203     18.49458  0.00174  58257.28241   2.94148  0.48419    17753.9939  47.81743  18.34929  58283.48047    51.05348       44.65488    8.40664  21.85859   26.5    0.46238  -21.17711  0.99461 
    -2.5786  0.00506  2.89362     14.77241  2.12743  0.73575   9.23858  0.05551     0.29035   8975.73381   4780.06985  1.36168         3786.34328     17.60245  0.00022  58256.88624   4.43989   0.0467   47176.96312  47.00009  18.34909  58285.40234    51.05051       44.64252    9.71812  21.85859   28.0    0.44118  -21.10523  0.99858 
   -2.11202  0.00529  0.93509     14.57632  1.78918  1.24875  10.65086  0.03489     0.07103   6909.15333   3354.96723  1.00067         4346.08753     17.09944    7e-05  58257.35282   3.03292  0.05635   10221.98162  48.57026  18.35287  58284.31361    51.01625       44.60606   10.59457  21.74698   26.0    0.46269  -21.16101  0.99993 
   -1.72248  0.00404  1.13653     14.52534  1.59605  0.83457  10.08663  0.04389     0.10646   8367.62264   4073.70895  1.12887         3789.91744     20.56138  0.20235  58257.74236   4.21286   0.0408   17035.53882  48.12937  18.34231  58284.31361    51.04147       44.63591    9.71812  22.60528   27.0    0.43593  -21.35063  0.99982 
   -2.03896   0.0177   1.6467     14.46372  1.62681   1.3138   4.48981  0.08326     0.08391   7092.50853   3629.53523  1.16842         4320.26363      16.5707    2e-05  58257.42588   1.34727  0.07948   48410.39748  47.36201  18.36535  58284.31361    50.88246       44.41141   13.11886    23.513   27.0    0.46375  -21.15949  0.99905 
    -2.0811  0.02042  2.06001     14.59888  2.00551  1.37436   6.63356  0.06722     0.02028   8268.43261   4536.24956  1.14152          4129.5006     18.31799  0.00116  58257.38374   2.70533  0.13544    50121.1574  47.24331  18.32888  58284.31361    51.03503       44.61241    9.71812  22.60528   27.0    0.46929  -21.17159  0.99807 
   -2.10845  0.00799  2.25688     14.42779  1.54096  1.20336    7.1418  0.07565     0.05527   9607.55297   3469.06348  1.35734         3764.29495     17.10602    7e-05  58257.35639   3.93242  0.05704  101634.36779  46.74258  18.35934  58284.31361    50.98693       44.51837   12.12128  23.68994   27.5    0.46494   -21.1721  0.99831 
   -2.12068   0.0568  1.87641     14.36756  1.37987  1.42132   4.70461  0.11585     0.15228   9551.71866   4717.57061  1.35535         3934.38652      18.2727  0.00104  58257.34416   2.56043  0.26724   83020.46547  46.94284   18.3658  58285.40234    51.00995       44.56925   10.59457  22.79389   27.0    0.46711  -21.17621  0.99398 
   -1.38836  0.00105  1.81238      14.5742  1.76363  1.13567  12.05743  0.03625     0.02218   7494.08487   4185.19511  1.43429         4078.21657     16.56456    2e-05  58258.07648   4.03942  0.01272   38221.92047  47.41644  18.35461  58285.44141    51.12392        44.7083   10.12014  21.82904   27.5    0.43717  -21.09232  0.99984 
   -2.19729  0.00799  1.13809     14.48654  1.53207  1.19817   24.7334  0.02413     0.06681    9426.4655   3682.47631  1.02422          3835.1169     19.06283  0.00642  58257.26756  13.11018  0.19756   19604.51664  48.04941  18.36858  58284.31361     50.9261       44.47681   10.59457  25.18054   27.0    0.45984  -21.14132  0.99925 
   -3.18158  0.00174  0.99014     14.55933  1.88479  1.06902  29.48347  0.01053     0.41328    7410.9111   3324.45184  0.50134         5735.77967     18.44581  0.00155  58256.28326   9.65937  0.05131   13055.89364  48.43691  18.34763  58284.31361    50.96012       44.53078   12.12128  21.26719   27.0    0.51428   -21.0086  0.99991 
   -2.59592  0.00469   1.2634     14.36025  1.38165  1.49183  10.52457  0.04742      0.0263    8674.2376   4443.86798  0.95416         4210.62407     18.40046   0.0014  58256.86893   4.72383  0.04939   38975.96531  47.61536  18.34364  58283.48047    50.90294       44.45666    10.8098  23.65383   27.0    0.45889  -21.06174  0.99962 
   -1.69933  0.03128  1.99274     14.63995  1.30346  0.49013    7.6455  0.06851     0.10813   8746.19541   4677.84818  1.57613         3996.98239     18.67296  0.00262  58257.76551   3.48876  0.23912   25229.54771  47.38313  18.33832  58284.31361    51.02157       44.59109   10.10106  22.24048   28.0    0.41357  -21.16515  0.99304 
    -1.2085  0.01889  0.72175     14.44456  1.40447  1.46486  12.84723   0.0321     0.07434   6573.03487   3989.74755  1.33811         4434.62953     18.85873  0.00401  58258.25634   3.31107  0.24275    8769.48006  48.75661  18.33714  58284.31361     50.9408       44.48669   12.12128  24.24255   27.5    0.40607  -21.12665  0.99982 
   -2.11895  0.04399  3.29303     14.45029  1.74701   1.3431   6.54403   0.0626     0.01673   8480.48198   3897.33631  1.50164         4006.21571     18.70569  0.00282   58257.3459   2.80746   0.2879  221162.74752  46.13124  18.34085  58284.31361    50.84966        44.3702   13.11886  25.26519   28.0    0.47898  -21.17378  0.98428 
   -1.66841  0.00445    1.262     14.58222  1.77928  1.02255   7.09144  0.03923     0.03477   5704.89598   8350.22087  1.14395         4605.83596     17.77778  0.00033  58257.79643   1.37676  0.03152   18018.92214  48.06125  18.38511  58284.31361    50.92091       44.45751   12.12128  23.65383   26.0    0.44795  -21.14901  0.99987 
   -1.33174  0.01369  0.77418     14.70049  1.74524  0.81264  16.42187  0.01969     0.11305   6328.70255   4558.09275  1.10784         4433.50133     19.27639   0.0105   58258.1331   3.92355  0.22482     3858.1151  49.14664   18.3846  58284.31361    50.85267         44.369   10.91781  26.15476   27.0    0.45618  -21.02624  0.99987 
   -1.33637  0.00323  0.74402     14.39549  1.27695  1.07224  11.81642  0.03059     0.08815   6353.88186   4661.97861  1.27478         4424.15573     19.92453  0.04669  58258.12848   2.84571  0.03822   10621.42338  48.60567  18.30675  58284.31361    50.98681         44.559    8.78958  24.04681   27.5    0.40065  -21.11607  0.99995 
   -1.51911  0.01108  1.45084     14.44386  1.48688  1.24146  12.65239  0.02785     0.10293   6483.94766   3687.39411  1.42877         4259.52027     18.30929  0.00113  58257.94574   3.17306  0.14024   37637.05562  47.54226  18.34512  58285.40234     51.1568       44.77666    8.06371  21.82904   27.0    0.40129  -21.18339  0.99867 
   -2.04435  0.06934  1.02055     14.61247  2.05252  1.30068   4.13241  0.08288     0.12769   7737.85453   4899.79352  0.80652         4293.07386     20.28361  0.10674   58257.4205   1.47595  0.28654   11825.83384  48.49063  18.37292  58284.31361    50.89103       44.42489   12.12128  24.24255   25.5     0.5419  -21.35894   0.9996 
   -1.47466  0.00147  1.90325     14.49914  1.74051  1.41983  10.41526  0.02744     0.02465   5651.30355   3380.42344  1.49533         4351.71347     19.26484  0.01022  58257.99018   1.98424  0.01526   58777.64585  47.18132  18.36735  58284.31361    50.82919       44.34612   14.14149  24.99496   27.0    0.43982  -21.14744  0.99976 
   -2.01402  0.02094  1.46074     14.47631  1.62151  1.17672   3.64691  0.10504     0.04078   7468.30651   5242.02013  1.02539         4222.58567     17.40403  0.00014  58257.45083   1.21338  0.07638   35831.15321  47.59536  18.36238  58284.31361    50.97421       44.54045   12.12128   22.0266   26.5    0.45813  -21.18476  0.99934 
   -1.21964  0.00324  0.98733     14.70113  1.48298  0.49642  10.27987  0.04902     0.02127   9590.70349   6501.27395  1.42397         2823.86817     20.37546  0.13188  58258.24521   5.64047  0.03334    5316.38019  48.72544  18.36231  58284.31361    50.94738       44.47492    10.8098  24.51058   26.5    0.46749  -21.25362   0.9999 
