 texplosion  fnickel    Pspin  log(Bfield)      Mns  thetaPB   mejecta    kappa  kappagamma      vejecta  temperature    alpha  cutoff_wavelength  log(nhhost)      A_V         MJD0   kenergy  mnickel            TSD   log(L0)  Peak_mag     Peak_MJD  log(E_rad)  log(Peak_lum)  Rise_Time    E_fold  tau_1  delta_m15     r_peak     frac 
   -5.52811  0.00382  0.88848     14.03971  1.77827  0.60044  33.88134  0.29707     0.01418   10114.9038   5921.88051   0.1395         3526.95971     17.35024  0.00012  56734.55089  20.67813  0.12948   108565.06051  47.58586  18.78991  56836.52063    51.57773       44.55259   53.37836   88.2796   69.0    0.06055  -22.26355  0.99949 
   -7.23489  0.07784  1.13996     13.95385  1.82678  0.66375  24.46186  0.28541     0.01257   8769.10025   6606.11605  0.13021          5688.8044     19.47077  0.01642  56732.84411  11.22088   1.9042   272630.81545  46.98118  18.69651  56839.28193    51.61865       44.61665   59.53741  78.01453   68.5    0.06397  -22.30617  0.98807 
   -5.43996  0.00258  0.83505     13.83612  1.89411  1.41521  41.75857  0.28801     0.01048  10534.81322   5989.08095  0.27023         2212.11911      18.0983   0.0007  56734.63904  27.64563   0.1076   260860.57421  47.28642  18.82868  56833.75933    51.50598       44.49304   61.59042  80.06755   70.0     0.0624  -22.26457  0.99966 
   -7.07926  0.34002  0.71496     13.76854   1.5667  0.85112  24.69644  0.32388     0.01097   9401.41763   6145.27551  0.00428         4995.02107     20.50699  0.17853  56732.99974  13.02112  8.39738   215916.16343  47.42098  18.75679  56839.28193    51.60989       44.62045   55.43138  78.01453   68.5    0.06812  -22.46359  0.97452 
   -8.39456   0.0043   1.1265     13.75218  1.78059  0.98754  25.15991  0.31119     0.01037   8883.98252   6026.45309  0.17192         3319.78473     19.94076  0.04847  56731.68444  11.84545  0.10828   656875.38653  46.59846  18.79538  56836.52063    51.56984       44.56134   57.48439  82.12056   68.5    0.06721  -22.29833   0.9993 
   -6.49942  0.00412  1.00667     13.93234  1.91267  0.91367  34.51752  0.28801     0.01388  10460.72801   6315.79719  0.17182         2079.95428     16.23351    1e-05  56733.57958  22.53153   0.1423   245779.76052  47.15417  18.75935  56836.52063    51.59208       44.60943   59.53741   73.9085   67.0    0.06026  -22.26983  0.99935 
   -7.19444  0.00113  0.77136      13.4975  1.31607   0.9321  18.81224  0.32811     0.01293   8879.79423   6792.41507  0.43249         2725.30436     20.74377  0.30796  56732.88456   8.84858   0.0212   735548.58546    46.747  18.78455  56839.28193    51.63532       44.63745   51.32535  82.12056   67.5    0.06472  -22.59531   0.9999 
   -7.20685  0.00714  1.19216     14.15936   1.9671  0.41448  27.03509  0.31138     0.01125     9621.791   6720.24989  0.11178         5072.14961     19.71597  0.02889  56732.87215  14.93024  0.19302    124620.0146  47.31442  18.73969  56833.75933    51.58646       44.59472   57.48439  75.96152   66.5    0.06716  -22.34411   0.9988 
   -7.94826  0.26515  1.71759      13.9788  1.85643   0.6223  19.12803  0.24267     0.01171    7683.1289   6759.78425  0.68387         5432.24592     19.46161  0.01608  56732.13074   6.73556  5.07182   560705.14374  46.31895  18.71468  56833.75933    51.55429       44.57335   63.64343  71.85549   69.0    0.06879  -22.29111  0.93288 
   -8.07498  0.00599  0.98725     13.83265  1.69725  0.63135  23.53307  0.30864     0.01169   9210.51049   6938.43199  0.17666         3892.78943     20.62562  0.23461  56732.00402  11.90894  0.14092   331981.71954  46.98862  18.75979  56839.28193    51.59651       44.59524   59.53741  78.01453   65.5    0.06756  -22.50478  0.99925 
   -7.58985  0.01913  1.25792     13.79235  1.99275   1.1279  22.84681  0.30473     0.01414   9164.59842   6479.98565  0.25533          4372.3816     20.42418  0.14754  56732.48915  11.44668  0.43707   761860.77371  46.48712  18.82248  56836.52063     51.5732       44.54358   57.48439  86.22659   68.0    0.06557   -22.4207  0.99704 
   -6.69395  0.00224  1.07477     13.84316  1.85473  1.02619   31.3567  0.26958     0.01208   9448.56892   6447.87038  0.10137         5452.93169     19.28997  0.01083  56733.38505  16.69896  0.07025   409644.43754  46.86208  18.85936  56836.52063    51.56665       44.54576   51.32535   88.2796   68.0    0.06374  -22.28689  0.99961 
   -8.24603   0.0054  1.10851       13.533   1.4357  1.19223  22.34782  0.28955      0.0119   8780.63645   6216.89031  0.24747         2645.55485     17.51468  0.00018  56731.83297  10.27813  0.12065  1407206.09591  46.18807  18.83315  56833.75933    51.56959       44.53881   49.27234  92.38563   68.5     0.0665  -22.30734  0.99895 
   -6.87632  0.00782  0.91199     14.01971  1.67532  0.50868  25.57284  0.32152     0.01188   9209.91366   6856.93862  0.20039         2070.13656     16.43382    2e-05  56733.20268  12.93949  0.19992   118161.79307  47.50048   18.7768  56836.52063    51.58166       44.57038   53.37836  86.22659   66.5    0.06473  -22.26781  0.99908 
   -5.27497  0.02026  0.86071     13.84542  1.87266  1.48213  18.12915  0.33357     0.04497   8956.32753    6222.6977  0.25463         4045.72865     20.61124  0.22697  56734.80403    8.6749  0.36724   262510.64744  47.25245  18.71948  56836.52063    51.77824       44.78157   57.48439  78.01453   72.5    0.05743  -22.33888  0.99874 
   -6.12088  0.00123  0.73376     14.03575    1.516  0.44427  34.32609  0.19877      0.0104   8192.62793   5822.71547  0.18178         2302.54824     17.96615  0.00051  56733.95812  13.74352  0.04225    64285.62961  47.91033  18.73531  56833.75933    51.58958       44.61089   61.59042  71.85549   69.5    0.05582  -22.23971  0.99985 
   -6.89523  0.01811  1.09328     13.82994  1.74884  1.02086  26.60063  0.29595     0.01635   9402.47863   6158.00563  0.06735         5674.17984     18.64226  0.00244  56733.18377  14.02826  0.48179   424773.79792  46.80597  18.76457  56833.75933    51.55821       44.57517   59.53741   73.9085   68.0    0.06195  -22.22695  0.99702 
   -7.00951  0.05767  1.25741     13.83616  1.95558  1.14075  25.92012  0.32846     0.01255   9602.56561    6396.1783  0.23609         5139.75471     19.82681  0.03729  56733.06949  14.25735  1.49475   610554.99636  46.57544  18.81569  56836.52063     51.6036        44.6018   49.27234  86.22659   67.5    0.06625  -22.29581  0.98969 
   -8.23834  0.15809  1.20242     13.86736   1.6453   0.5539  22.74635  0.32231      0.0102    9218.3046   5982.36112  0.23904         2293.55104     17.05608    6e-05  56731.84066  11.53031  3.59587   406873.04308  46.71552  18.74657  56833.75933     51.5596       44.57214   59.53741   73.9085   68.0    0.07105  -22.32228  0.97097 
   -7.88271  0.00478  1.05418     13.96253  1.63838  0.49094  29.23464  0.28671     0.01183   9342.96582    5741.5721  0.14016         4393.91005     19.72236  0.02932  56732.19629   15.2228   0.1398   200910.51373  47.13443  18.70891  56839.28193    51.64713        44.6772   55.43138   73.9085   69.5    0.06236  -22.34164  0.99911 
    -8.3633  0.09366  1.08674     13.77832  1.71099   0.8821  23.78132  0.32607     0.01618   9983.53896   5990.36306  0.01915         5991.57514     20.37404  0.13145   56731.7157  14.13944  2.22734   520808.45533  46.71317  18.74451  56836.52063    51.58275       44.57667   57.48439  80.06755   67.5    0.06523  -22.42295  0.98601 
   -7.91007  0.01768  1.10399     13.84817  1.66284  0.73201  30.15246  0.28688     0.01098   9472.08367    6325.9173  0.14725         4148.23249     19.35707  0.01264  56732.16893  16.13768  0.53323   378656.62535  46.82552  18.73722  56839.28193    51.68494       44.69252   59.53741  75.96152   69.5    0.06417  -22.26029  0.99636 
   -6.79014  0.00653   0.8936     13.76175  1.55402  1.05883  33.13187  0.28537     0.01449   9945.85939   6285.63601  0.22301         2886.87659      16.6746    3e-05  56733.28886  19.55049  0.21636   345185.21793  47.01997  18.74543  56839.28193    51.61256       44.59993   55.43138  84.17357   70.5    0.05721  -22.22095  0.99893 
     -8.149  0.20477  1.32328     13.85122  1.68508  0.72374  19.73401  0.28737      0.0117   8081.47934   6323.90604  0.35339         4142.69674      18.2732  0.00104     56731.93   7.68819  4.04097   543629.57315  46.51686  18.66593  56836.52063    51.61511       44.63736   57.48439   73.9085   69.0    0.06681   -22.2201   0.9623 
   -7.14743  0.04295   0.9618     13.98628  1.55325  0.54896  32.15221  0.24351     0.01325   9154.98741   6046.49725  0.15297         3316.97191     18.66208  0.00255  56732.93157  16.07509  1.38105    142125.1042  47.34124  18.69872  56836.52063    51.58122       44.59625   63.64343   73.9085   69.5    0.05596  -22.17857  0.99214 
   -7.61931  0.00356  1.49228      13.7905  2.13205  1.26204  25.23152   0.2415     0.01062    8623.0963   6702.47363  0.35613         5397.61585     20.24465  0.09758  56732.45969  11.19173   0.0899  1156938.76005  46.18663  18.74739  56836.52063    51.60471       44.60682   53.37836  82.12056   67.5    0.06916  -22.42182  0.99922 
   -7.28507  0.01295  0.78954     13.62067  1.53684  1.41689  34.28182  0.28197     0.01098   9916.19255   6302.83693   0.0814         3003.42457      20.4489  0.15618  56732.79393  20.10856  0.44387   510326.37692  46.95287  18.73268  56833.75933    51.55978       44.57488   61.59042   73.9085   69.0    0.06432  -22.42073  0.99826 
   -7.30275  0.00131  0.93313     13.90034  1.97236  0.72032  23.31638  0.29426     0.01278   8952.68518   6637.51629  0.25729         3383.74478     20.67638   0.2637  56732.77625  11.14795  0.03059   252352.49751  47.22194  18.76239  56836.52063    51.58527       44.58242   59.53741  78.01453   68.5     0.0631  -22.56896  0.99988 
   -7.57831  0.10782  1.37715     13.91628  2.02711  0.84983  25.21668  0.29018     0.01207   9236.28423   6396.00673  0.18875         4806.51901     19.84476  0.03886  56732.50069  12.83245  2.71885   524922.16548  46.57767  18.80371  56836.52063    51.57745       44.55599   55.43138  84.17357   68.0     0.0674  -22.31137  0.97886 
   -8.53858  0.00129  1.33418     13.74144  2.09459  1.39804  23.55451  0.32502     0.01346   9777.21415   6260.83206  0.07535         5998.62205     20.43265  0.15044  56731.54042  13.43172  0.03038  1138852.85965  46.28305   18.7033  56833.75933    51.54397       44.56249   63.64343  71.85549   68.0    0.06891  -22.47174  0.99978 
   -6.64429  0.02784  0.96106     14.03111  1.74312  0.57043  33.45861  0.27131     0.01195   9715.42932   6611.28927  0.06518         2895.03044     16.20241    1e-05  56733.43471  18.83905  0.93157   129548.74028  47.43223   18.8095  56833.75933    51.57107       44.57986   53.37836  78.01453   68.0    0.06214  -22.23767  0.99554 
   -5.24798  0.02062  0.70463     13.82834  1.38212  0.78933  42.61445  0.23618     0.01066   9610.01069   6145.89166  0.34928         4331.18876     19.10948  0.00715  56734.83102  23.47642  0.87852   140478.32113  47.56585  18.65994  56839.28193    51.64424         44.652   57.48439  78.01453   71.0    0.05583  -22.16597  0.99683 
   -7.97075  0.01018  1.34878     13.44401  1.33257  1.28011  16.59488  0.29723     0.01307   8394.45046   6328.88325  0.68263         4125.60024     18.80693  0.00356  56732.10825   6.97567  0.16886  2913160.54383  45.66929  18.80712  56836.52063    51.55052       44.53016   59.53741  84.17357   67.0    0.07591  -22.28415  0.99755 
   -8.02972  0.00307  0.94675     13.95096  1.34182  0.32755  18.05544  0.32066     0.01165   8256.00632   6201.18395  0.06873         4414.86568      19.3701  0.01303  56732.04928   7.34134  0.05536    139978.5783    47.298  18.79302  56833.75933    51.58913       44.57997   51.32535  84.17357   67.5    0.07227  -22.32935  0.99961 
   -7.99838  0.01518  1.49825     13.93777  1.90216  0.66184  19.52088  0.30592     0.02061   9223.90737   6160.55032  0.45991         3006.50544     20.14965  0.07841  56732.08062   9.90733  0.29627   528067.59997  46.47423   18.7756  56836.52063    51.58705        44.6049   59.53741   73.9085   68.0    0.06369  -22.30243  0.99693 
   -7.58837  0.00796  1.04875     13.71606  1.68009  1.06057  27.98612  0.32761     0.01138   9479.11841   5649.96618  0.07813         4547.86201     16.81529    4e-05  56732.49063   15.0005  0.22288   634418.26032  46.65046  18.79129  56836.52063    51.60156       44.60258   51.32535  82.12056   69.5    0.06576  -22.30575  0.99864 
   -6.94968  0.00948  1.15556     13.60436  1.17743  0.60527  23.98068  0.24372     0.01063   8643.61586   6286.03355  3.28573         2462.23853      19.8583  0.04009  56733.12932  10.68758  0.22731   902853.16989  46.25858  18.71895  56839.28193    51.61744       44.61049   57.48439  80.06755   70.0    0.06356  -22.25986   0.9971 
   -7.77522  0.08477  1.15112     13.81168  1.43137  0.56896  19.91107  0.31113     0.01054   7910.71734   6698.01354  0.49979         4307.86257     19.67082  0.02603  56732.30378   7.43282  1.68785   419225.83451  46.67991  18.79056  56836.52063    51.59047       44.57918   53.37836  84.17357   68.5    0.06414  -22.23042  0.98442 
   -7.68234  0.02986   1.2938      13.7646  1.63215  0.82618  19.67668  0.33935     0.01246    8579.1874   6394.24983  0.37072         4460.30495     18.37959  0.00133  56732.39666   8.63916  0.58759   750100.25896  46.38275  18.69612  56836.52063    51.66945       44.66848   59.53741  78.01453   67.5    0.07048  -22.23603  0.99431 
    -7.5001  0.00101  1.04207     14.20327  2.08441  0.50355  26.21663  0.33541      0.0182   9381.34184    5909.4114  0.04827         2533.94827     16.89762    4e-05   56732.5789  13.76366   0.0265    82425.99736  47.63597  18.71695  56836.52063    51.61253       44.62019   57.48439  75.96152   69.5    0.05354  -22.22868  0.99989 
   -7.91295  0.05179  1.36946     13.61227  1.67992   1.3673   18.8946  0.33603     0.01207   8865.33096   6347.92113  0.37376         4983.96672     19.55107  0.01976  56732.16605   8.85839  0.97856  1744433.91296  45.97938  18.81992  56833.75933    51.54238       44.53214   59.53741  80.06755   67.5    0.07297   -22.3445  0.98985 
   -7.65185  0.00313  1.09334     13.81707  1.79735  0.95362  29.65403  0.29638     0.01201   9466.89205   5907.32614  0.13266         3379.20174     19.11907  0.00731  56732.42715  15.85352  0.09273   463244.28803  46.78016  18.73089  56833.75933    51.63043       44.64199   61.59042   73.9085   70.0      0.061   -22.2769  0.99945 
    -8.2728  0.02432  0.86391     13.73215  1.20321  0.50773  26.48223  0.31333     0.01159   9692.29964   6510.84307  0.05273          2768.0535      20.0213  0.05835   56731.8062  14.84005  0.64415   286286.46255  47.01945  18.73322  56839.28193    51.74529       44.74917   55.43138  78.01453   67.5    0.06988  -22.34136  0.99562 
   -8.11476  0.01041  0.72891       13.558  1.11041   0.7908  25.30792  0.31678     0.01254   9269.52633   6638.24074  0.00791          2099.0809     18.73005  0.00298  56731.96424  12.97175  0.26342   419426.87906  46.96632   18.8174  56836.52063    51.57723       44.55167   55.43138  86.22659   66.5    0.06632  -22.29633  0.99856 
   -8.52082  0.01174  1.08107     13.74075  1.76565  1.02686  29.25009  0.29747     0.01014   9062.22227   6015.55724  0.03192         4223.63063      19.1737  0.00829  56731.55818  14.32926  0.34338   632305.48722  46.64712  18.75175  56836.52063    51.57338        44.5783   59.53741  78.01453   70.0    0.06108   -22.2972  0.99794 
   -6.43312  0.02892  0.76799     14.02002  1.79574   0.7295  39.22431  0.17526     0.01204   8505.83663   6393.45681   0.0758         4268.52752     16.90414    4e-05  56733.64588  16.92843  1.13435     89686.6961  47.79965  18.79963  56836.52063    51.56746        44.5648   55.43138  80.06755   70.0    0.05671  -22.19392  0.99674 
   -7.07471  0.00122  1.19713     14.07415  1.79748  0.49434  25.36978  0.27822     0.01466   8966.46911    6332.4053  0.16732         5469.38141     17.90995  0.00045  56733.00429  12.16709  0.03099    170002.8821  47.13677  18.69787  56836.52063    51.60322       44.60273   59.53741  78.01453   67.0    0.06397  -22.25821  0.99978 
   -7.61764  0.02798  1.29163     13.67466   1.6388  1.14643  22.24334  0.26289     0.01056   8082.98076   6490.89494  0.44419         3929.18877     17.66005  0.00025  56732.46136   8.66903  0.62245  1135809.78058  46.20579  18.67217  56839.28193    51.62969       44.63982   59.53741  75.96152   68.5    0.06521  -22.22002  0.99404 
   -8.83253  0.00399  1.35413     13.64272  1.66778  1.09101   20.6763  0.28648     0.01316   9004.24904   6390.48081   0.2388         5636.93628      20.0043  0.05611  56731.24647   9.99988  0.08246  1471777.60786  46.05982  18.71484  56836.52063    51.60236       44.59792   59.53741  78.01453   67.0    0.07121  -22.38726  0.99915 
   -6.78929  0.07953  1.19729     14.06257  1.77529  0.50049  27.46529  0.31836     0.01172   9762.83425   6998.69072  0.59048          2316.2665     17.99505  0.00055  56733.28971  15.61576  2.18425   177155.09363  47.11336  18.69602  56833.75933    51.59574       44.58958   59.53741  78.01453   66.5    0.06789  -22.20567  0.98429 
   -6.48791  0.01005   0.9716     13.93645  1.72484  0.66167  33.15212  0.27458     0.01213   9872.58967   6267.60068  0.05744          5637.8439      18.1725  0.00083  56733.59109  19.27528  0.33306   202601.83728  47.22398  18.77058  56836.52063    51.56557       44.55942   57.48439  80.06755   67.5    0.06385  -22.32358  0.99833 
   -8.60696  0.00194  0.91915     13.93206  1.51821  0.36584  22.80368  0.33446     0.01082   9578.88275   6520.62132  0.07281         5264.33401     20.63815  0.24148  56731.47204  12.48136  0.04423   162851.06458  47.31161  18.70732  56836.52063     51.7499       44.76342   57.48439  75.96152   67.0    0.06974  -22.56267  0.99976 
   -7.16159  0.00237  0.92819      13.7296  1.52645  0.98467  27.89044  0.29551     0.01613   9794.16865   6088.41858  0.02266         5205.03027     18.99128  0.00545  56732.91741  15.95944  0.06609    424201.9367  46.88968   18.8982  56830.99802    51.52678       44.49395   51.32535  90.33262   68.0    0.06258  -22.30701  0.99964 
   -5.46979  0.03245  0.83047     13.95827  1.98957  0.99713  29.78654   0.2833     0.01262   9149.69317   6484.99442  0.05089         3736.29928     18.25476    0.001  56734.60921  14.87511  0.96645   154412.32497  47.54028  18.76903  56836.52063    51.66643       44.66755   55.43138  80.06755   68.5    0.06147   -22.2451   0.9972 
   -8.62015  0.00213  1.63298     13.94589   1.9275  0.64007  19.34749  0.30089     0.01581   9132.18028   6285.44538  0.21241         4786.62753     16.02032    1e-05  56731.45885     9.625  0.04118     612335.499  46.34089  18.72116  56839.28193    51.66002       44.69547   53.37836  71.85549   65.0    0.07158  -22.26269   0.9995 
   -7.66404  0.03394  1.47151     13.88838   1.8362  0.75569   23.9819  0.23702     0.01172   8448.82146   6474.55806  0.31604         4667.11242     18.34619  0.00123  56732.41496  10.21181  0.81403   617308.48314  46.40674  18.79519  56836.52063    51.55466       44.54544   61.59042  78.01453   67.5    0.06981  -22.23279  0.99148 
   -8.59368  0.00535  1.19222     13.85262  1.50708  0.49102  18.82696  0.33158      0.0128   9005.53433   6123.16114  0.06399         4533.25652     18.92234  0.00465  56731.48532   9.10807  0.10066    392117.3301  46.70085  18.67798  56836.52063    51.64329       44.66823   59.53741   73.9085   65.5    0.07642  -22.30933  0.99906 
   -6.79129  0.00652   1.0933     13.86288  1.94346  1.02656   33.1514  0.30734     0.01173  10065.55432   5855.84173   0.0836         5590.67807     18.42212  0.00147  56733.28771   20.0357  0.21602   405611.87423  46.87183  18.72925  56836.52063    51.63887       44.64006   59.53741  78.01453   70.5    0.06456  -22.30156  0.99885 
