 log(Bfield)      Mns    Pspin  cutoff_power  cutoff_wavelength  fnickel    kappa  kappagamma   mejecta  log(nhhost)  temperature  texplosion  thetaPB      vejecta      A_V        MJD_0   log(KE)      M_Ni  Peak_mag     Peak_MJD 
    13.68877  1.53801  2.18964       1.70442         3441.87149  0.00211  0.05667     0.01278  13.46557      19.6138   7822.33226   -10.36144  0.37513   5866.16261  0.02283  56729.71756  52.16361   0.14966  19.02626  56816.98018 
    13.59909  1.77682  1.78889       0.03165         4238.65082  0.01274  0.05107      0.0102   21.5353     16.17641    6950.4495    -6.33096  1.37349   5039.98526    1e-05  56733.74804  52.07143   0.99082   18.7733  56840.73493 
    13.27936  1.70981  2.44848       1.48804         3758.47046  0.16834  0.13238     0.04424   5.43357     17.17794   7434.80686    -9.83822  1.29754   7290.30598    8e-05  56730.24078  52.26363   9.74308  19.03436  56816.98018 
     13.5131  2.04763  2.21803       0.33878         3817.12403  0.25037  0.04181     0.01687  13.09801     20.79444   8548.28382    -6.99113  1.47176   6745.75201  0.34608  56733.08787  52.28251  17.67666  18.86547  56833.94786 
    13.67123  1.87571  1.92977        0.0222         4860.01491  0.07184  0.02432     0.01013  21.24734     17.26905   7257.41286    -4.97843  1.42871   4867.65813   0.0001  56735.10057  52.04012    5.5747  18.70985  56840.73493 
    13.90856  1.67142  2.04588       1.55291          3255.1246  0.07618  0.05013     0.01007  15.84246     19.58968   7145.98187   -10.69893   0.1801   6717.27352   0.0216  56729.38007  52.29544   5.58782  18.48662  56857.70261 
    13.46644  1.71389  1.82037       1.08913         2732.12145  0.02741  0.12196     0.01008  16.50321     17.19101   5810.29038    -7.28128  1.52987    5292.4303    9e-05  56732.79772  52.09185   2.02672  19.25488  56810.19311 
    14.05452  2.16582  2.52499       3.99499         2809.40519  0.03121  0.05599     0.01005   8.36442     17.45777   8417.10435      -9.773  0.16303   5643.69071  0.00016    56730.306  52.08573   2.00093  19.03386  56813.58664 
     13.9501  1.27953  1.88791       3.78767         2012.56836  0.06261  0.03571     0.01111   12.6553     19.90127   6862.10647   -10.43064  0.15141   6025.31356  0.04426  56729.64836  52.18134   4.38899  19.12296  56806.79957 
    14.53614  1.25035   0.9012       0.98097         2023.60935  0.09452  0.28755     0.01356  84.48188     20.29112   5586.60939    -6.22211  0.03079  16130.58386  0.10861  56733.85689   53.1802   9.22107  19.21144  56813.58664 
    14.83749  1.80114  1.19204       1.73318         2550.58617  0.10635  0.30833     0.02614  69.04427     20.61375   5178.23345    -4.65875  0.03495  15698.33323  0.22828  56735.42025  53.14342  10.06514  19.10892  56810.19311 
     13.5298     1.48  1.67133       0.02759         4500.55832   0.0071  0.02496      0.0112  22.07296     16.80094   6741.91091    -6.83267   1.3374   4724.51232    4e-05  56733.24633  52.01727   0.55522  18.73578   56837.3414 
    13.91242  1.46087  1.53896        3.0589         2207.91847  0.00132  0.11938     0.01024  17.69127     17.77448   5727.60604    -8.20746   0.3448   4871.81892  0.00033  56731.87154  52.02578   0.09862  18.65207  56840.73493 
    13.51879  1.45509  1.83402       0.04544         2966.33276  0.00842  0.01486     0.01115  31.09312     17.32122   6548.76099    -4.68247  1.38945   5898.63104  0.00012  56735.39653  52.23676   0.69959   19.0535  56813.58664 
    13.56598  1.62119  1.42447       0.54992         3557.05554  0.00158  0.19836     0.01063  19.38434     16.23844   5795.31387    -5.40423  1.41763   5258.61302    1e-05  56734.67477  52.09974   0.12043  18.59286  56840.73493 
    13.65641  1.95654  2.23517       1.76018         3619.02169   0.0678  0.05452     0.01025  10.20694     20.73687   7691.03115   -11.00685  0.42384   5620.76305   0.3031  56729.07215  52.10127   4.54246  19.02668  56810.19311 
    13.77167  1.95692  1.77133       0.52035         4133.78288  0.03976  0.13231     0.01201  18.24918     18.27972   5818.81909    -5.98033  1.39036   4341.59624  0.00106  56734.09867  51.92829   2.99788  19.05908  56813.58664 
     13.3156  1.56081  2.18282        0.8202         3636.78519  0.02346  0.07811     0.02538   6.55459     16.42736   9095.60719    -8.66991  0.89701   7035.82908    1e-05  56731.40909  52.25267   1.42176  19.22777  56803.40603 
     13.7331  1.74857  1.96538       1.28742         3474.34278  0.01727  0.20873     0.01367  12.62378     17.31918   6920.74008    -8.82876  0.68295   5409.47281  0.00012  56731.25024  52.08747   1.21003  19.08897  56813.58664 
    13.38376   1.8179  2.35656       2.15058          2317.8412  0.05262  0.06255     0.02077  10.65661      17.3034   7765.98724   -10.58688   0.8349   7905.96816  0.00011  56729.49212  52.40161   3.55843  18.98704  56816.98018 
    13.48307  1.76998   2.3198       1.63988         3623.83105  0.06552  0.05087     0.01283   9.24206     20.04238   9991.17371    -7.48596  0.69522   5715.08095  0.06125  56732.59304  52.10631   4.29526  19.01525  56816.98018 
    13.82581  2.05606  2.74516       1.55828         2989.51772  0.00419  0.03183     0.01285  13.92796     20.42999   7467.35873    -8.20695  0.52186   5663.78482  0.14953  56731.87205  52.13609   0.29953  19.00422  56820.37371 
      14.909  1.88278  1.26258       1.78072         2107.17851  0.09981  0.26566     0.02179  71.34807     20.25216   5041.19426    -4.23253  0.03811  14089.86378  0.09929  56735.84647   53.0517   9.49325  19.05539  56806.79957 
    13.42248  1.67354  2.11972       0.70503          4185.1357  0.03092  0.11402     0.02944   5.71294     16.04814   9823.66419    -7.73907  0.61959   7528.50069    1e-05  56732.33993  52.29697   1.81188  19.15623  56810.19311 
    13.45683  2.01594  2.29198       0.45755         2945.73124  0.00267  0.08156     0.01593   7.48299     18.10534   9937.68102    -8.01517  0.90136   6466.15223  0.00071  56732.06383  52.19285   0.16695  18.92976  56823.76725 
    13.60461  1.84568  1.40085       0.27171         5839.09828  0.00583  0.28807     0.01182  14.99767     19.43979   5829.75165    -5.62704  1.47062    5442.9629  0.01529  56734.45196    52.108   0.42313  19.11265  56813.58664 
    13.80797  1.98076  2.42956        1.7311          3319.7522  0.17608  0.06631     0.01064   8.83665      16.3906   7798.04837   -10.80631  0.30403   5369.41391    1e-05  56729.27269   52.0478  11.42989  18.99764  56813.58664 
    13.44204  2.18424  2.55986       0.22849         3826.36275  0.02573  0.06665     0.01772   8.19686     16.17138   8509.15722    -9.63012  1.15947   6864.11724    1e-05  56730.44888  52.25378   1.64225  18.49553  56844.12847 
    13.42603  2.03696  2.59657       0.49245         4484.17081   0.0472  0.06966     0.02192   8.08259     20.01737   8825.47632    -8.58315  1.33481   7078.24621  0.05782  56731.49585  52.27908   3.00271  19.31299   56800.0125 
    13.32957  1.70411  2.34213       0.65004         2947.55311  0.04434  0.07653     0.02676   7.86675     16.40822   8526.48288    -9.08265  1.18607   7446.24199    1e-05  56730.99635  52.32042    2.8037  18.88582  56806.79957 
    13.52789  1.64125  2.30906       1.46366           2792.514  0.00537  0.03353     0.01311  11.95503     20.25857   7502.59865    -8.15618  0.84655   5560.82667  0.10076  56731.92282  52.10653   0.37194  18.72781  56854.30908 
    13.34789  1.77457  2.34807       0.95031         3366.01363  0.02095   0.0874     0.02361   6.50435     17.17996   8951.39096    -8.36702  1.13391   6696.86939    8e-05  56731.71198  52.20898   1.26724  18.95985  56816.98018 
    13.63365  1.99454  2.63337       1.08839         3102.63989  0.23621  0.04873     0.01208  11.53435     17.03162   8224.94445     -9.1915  0.58065   6272.69484    6e-05   56730.8875   52.2079  16.24281  19.15207  56810.19311 
    14.12562  1.96936  2.25771       2.45939         2453.85189   0.0239  0.03335     0.01103  12.68343      20.8195   6843.64913    -9.05165  0.20551   5950.21813  0.36663  56731.02735  52.17064   1.67632  19.19064  56796.61896 
      13.731  1.95465  2.25948        1.5245         3252.46967  0.13538   0.1014     0.01122   9.79423      19.6619   7617.96815   -11.14294  0.40028   5603.42807  0.02551  56728.93606   52.0947   8.98924  19.13202   56800.0125 
      13.911    1.538  1.94704       3.04059          2029.0341  0.30335   0.0979      0.0114  12.82814     18.44417   5895.26095    -9.41816  0.24361   5768.26145  0.00154  56730.66084  52.14468  21.32588  19.03265  56803.40603 
    13.82857  1.38209  2.00975       2.44647         3446.69439  0.11726   0.0557     0.01088   9.73063     20.14826    6942.2765   -10.83033  0.20628   5073.38915  0.07816  56729.24867  52.00777   7.77488  18.87336  56810.19311 
    14.14925  1.48706    1.989       2.84147         2485.92232  0.01717  0.05323     0.01096  17.70252     19.07389   5561.66149    -8.91025  0.16091   5465.64888  0.00659  56731.16875  52.12574   1.28735  18.98035  56810.19311 
     13.6879  1.99613  2.02614       2.02546         3367.30805  0.07548  0.23023     0.01347   9.05411     16.69261   7848.75832    -9.18282  0.45894   6250.62817    3e-05  56730.89618  52.18214    4.9262  19.02156  56820.37371 
    13.45492  1.93848  2.47998       0.29196         3776.35068  0.07423  0.07963     0.02719   6.29151     16.02404   9421.93014    -7.03488  1.30012   6977.36172    1e-05  56733.04412  52.24115   4.45368  19.01695  56816.98018 
    13.49791  1.48025  1.37834       0.47491         3701.42669  0.02281  0.21076     0.01603   16.3939     16.94054   4458.25427    -7.42377  1.55322   5377.07363    5e-05  56732.65523  52.10506    1.6844  18.74072  56827.16079 
    13.21729  1.66669  2.14806       0.98195         2002.39391  0.00685  0.06778     0.02123   7.36576     17.23425   8613.10734     -9.8827  1.25711   8099.98635   0.0001   56730.1963  52.38693   0.42678  19.00793  56813.58664 
    13.55923  1.54865  2.04569       0.70964         3890.87121  0.03236  0.05543     0.01157  12.53939     17.56351   7667.12041    -9.98982  0.48344   5780.94846   0.0002  56730.08918  52.14455   2.26431   18.7642  56813.58664 
    13.50928  1.68588  2.27389       0.99304         2518.95746  0.03092  0.06875     0.02122  11.81691     17.95246   5506.50732    -9.49615   1.2997   5630.11759   0.0005  56730.58285  52.11623   2.13703  18.74699  56847.52201 
    14.82629  1.69404  1.14508       1.72284         2133.50539  0.09017  0.28025     0.02009    72.785     20.14782    5098.0241    -4.54643   0.0391  14436.98696  0.07808  56735.53257  53.07416   8.60284  18.83776  56827.16079 
    13.78824  1.99488   2.7231       1.80342         2478.82517  0.12115  0.05304     0.01376   8.64154     19.09556   7175.79488   -11.27311  0.47212   5548.12377  0.00692  56728.80589  52.07407   7.82504  19.12203  56813.58664 
     13.7692  1.64639  2.17474       2.10644         3027.72594  0.00291  0.06002     0.01007   10.8955      18.9561   7351.19293   -11.50474  0.30955   5237.39122  0.00502  56728.57426  52.04598   0.19756  18.94858  56820.37371 
     13.3263  1.53842  2.15445       0.29165         3584.33916   0.0667   0.0959     0.03324   5.91757     16.21987   9364.62868    -7.94946  1.08444   7287.96347    1e-05  56732.12954  52.27252   3.94259  19.01823  56810.19311 
    13.91686  1.79906   2.4128       2.59109         3120.98298   0.1824  0.05072     0.01011   9.58817     19.08661   7607.69029   -11.67296  0.19666   5448.97454  0.00678  56728.40604   52.0684  12.05541  19.20266  56810.19311 
    13.94796  1.51583  1.97447       2.87718         2080.22672  0.03094  0.04904     0.01117  13.90093     17.74478   6279.44726    -9.32859  0.23198    5692.4036  0.00031  56730.75041   52.1403   2.21103  18.98425  56810.19311 
    13.35099  1.80686  2.24581       1.21918          2061.0126  0.01337  0.11298     0.03096   6.05932     16.75368   8391.19558    -7.06259  1.28256   7361.92907    3e-05  56733.01641   52.2838   0.79511  19.06427  56813.58664 
    13.62519   1.5552  1.81206       1.85356         2744.75453  0.34714  0.16282     0.01207  10.20285     19.72937   7314.76591   -10.91787  0.38748    5814.8866  0.02979  56729.16113  52.13072  23.25537  19.14383  56813.58664 
     13.3069  1.90969  2.32746       1.04391         2848.03665  0.14185  0.08453     0.02174   5.36615     19.28077   9609.15525    -8.27556  1.15108   7064.82174   0.0106  56731.80344  52.23499   8.18422  19.09716  56803.40603 
    13.27364  1.87015  2.16828       1.03887         3567.64461  0.03044  0.24011     0.04049   6.36256     17.98873   6011.48044   -11.40097  1.55806   7649.58345  0.00054  56728.67803  52.32222   1.83131  19.11694  56803.40603 
    13.56184  1.74714  2.11886       1.58442         2775.57339  0.00517  0.07734     0.01872   8.90276     19.07585   7356.76911   -11.16882   0.4267   7244.52598  0.00662  56728.91018  52.30869   0.33623  18.91147  56823.76725 
    13.74906  1.62854  2.45231       1.59348         2246.11182  0.31076  0.05866     0.01666  11.83091      17.0679   6552.80841    -9.84382  0.56208   5201.14932    6e-05  56730.23518   52.0475  21.48301  18.80379  56827.16079 
    13.32486  1.41503   1.9512       1.32302         2292.52133  0.03058   0.0489      0.0158   13.9944     16.36298   6972.58388    -6.69063  1.32421   6151.16189    1e-05  56733.38837  52.20821   2.18811  19.08131  56813.58664 
    13.96399  1.61023   1.4883       2.07301         2705.05314  0.00809  0.30402     0.01247  12.71752     19.59563   6261.48777    -9.29114  0.25887   5852.21514   0.0219  56730.78786  52.15646   0.56748  18.75171  56830.55432 
    13.52521  1.58985  1.53851       0.06966         3167.66051    0.012  0.18276     0.01795  15.11537     19.59957   5652.17514    -7.40613  1.41532    5577.6153   0.0221  56732.67287  52.12991   0.87238  18.85319  56823.76725 
    13.59133   1.7675  2.19423       0.03882         4611.01955  0.00149  0.02146     0.01062  24.42263     17.66267   7822.66353    -6.19747  1.40325   5651.49686  0.00026  56733.88153  52.18094   0.11878  19.15772  56816.98018 
    13.74602  1.59614    2.014       2.35276         2900.23632  0.32669  0.09367     0.01288   9.76558     19.79802   7426.90677    -11.2413  0.26759   5893.41266  0.03489   56728.8377  52.13825  21.67833  18.96156  56806.79957 
    13.34176  1.51732   2.2059       1.45692         3236.24537  0.00402     0.04     0.01762   8.70429      20.4503   7211.79931    -6.38996   1.3455   6364.61486  0.15669  56733.68904  52.19403   0.25991  18.63624  56840.73493 
     13.3057  1.64104  1.90298       0.71557         2994.85901  0.01787  0.19483     0.01751   11.4545     17.23258   6187.21698    -9.31086  1.30453   6648.34273    9e-05  56730.76814  52.25778   1.22699  19.05045  56816.98018 
    13.43175  1.53994  2.08703       0.68405         2522.43231   0.0184  0.03114     0.01449  22.59697     16.84284   6792.99762    -5.50408   1.4718   6609.72527    4e-05  56734.57492  52.31081    1.4441  19.06878  56810.19311 
    13.80418  1.86894  2.12649       1.63332         2696.48203  0.14341  0.11761     0.01192  13.28688     18.81077   7105.53779    -8.87398  0.47727   5480.18782  0.00359  56731.20502  52.10331  10.15464   18.9131  56820.37371 
    13.35543  1.42347  2.33331       2.12653         2673.75922   0.0479  0.19217     0.11517   3.53419     16.72531   7407.77225    -8.29576  1.03046   8215.43788    3e-05  56731.78324  52.31803   2.47421  19.10907  56810.19311 
    13.58557  1.97203  2.22861       0.10634         2858.41475  0.17208  0.14525     0.02069  10.92382     18.11891   5680.21761    -9.37485  1.49534   5825.70761  0.00073  56730.70415  52.13869  11.69795  18.97965  56816.98018 
    14.01826  1.43222  1.98282       3.23516         2465.26231  0.11091  0.04661     0.01017  13.11147     16.83299   6465.16559    -9.56582  0.13394   5827.18584    4e-05  56730.51318  52.15546   7.83201   19.1285  56816.98018 
    12.99507  1.74536  1.33171       1.08042         3214.25535  0.09448  0.29811     0.01012   7.96974     16.19409   7997.53363    -8.77427  1.39362   7255.45135    1e-05  56731.30473  52.29917   5.99185  19.02482  56830.55432 
    13.62722  1.55145  2.19683       1.44153         2588.74618  0.01514  0.05018     0.01508   9.80867     16.46076   7265.77023    -10.6763  0.43061   6335.04897    2e-05   56729.4027  52.20143   1.00593  19.31657  56803.40603 
    14.39789  1.70218   1.7687       2.48204         2781.51822  0.05506  0.13375     0.01487   26.1135     19.30921   5485.66164    -7.29742  0.10048   7881.40435  0.01132  56732.78158  52.47507   4.43672  18.99167  56813.58664 
    13.57032  1.61815  1.78017       0.22609         2041.40295  0.00295  0.07232     0.01062  16.57628     16.27444   6493.94205    -9.22289    0.912   5082.50013    1e-05  56730.85611  52.05707   0.21796  19.20302  56810.19311 
    13.54822  1.15105  1.61388       1.45435         3555.71231  0.01022   0.0859     0.01024  13.55504     19.29458    6971.8326   -10.79767  0.37079   5183.92205  0.01095  56729.28133  52.05681   0.72659  19.03819  56806.79957 
    13.46668  1.66719   1.9256       0.09911         2916.12374  0.00212  0.04278      0.0122  16.21786      16.8585   7489.34072    -7.06712  1.28354   5885.44877    4e-05  56733.01188  52.18261    0.1561  19.11556  56806.79957 
    13.80991  1.42361  1.94567       2.56271         2798.34051  0.09993   0.0747     0.01023  10.92321     17.05707   6403.68895   -10.54533  0.23738   5163.73207    6e-05  56729.53367  52.03392   6.79326  18.98184  56823.76725 
     13.2484  1.93807  2.37573       0.31057         3857.43043  0.18243  0.09142     0.02788   5.76316      18.2248   9891.83026     -7.8372  1.40524   8829.36126  0.00093   56732.2418  52.43635  10.71405  18.83351  56816.98018 
    13.64643  1.69639  2.11064       1.98075         3390.66884  0.04502  0.08548     0.01016  10.42858     19.24148   7570.71156    -10.9059  0.38981   5398.39149  0.00969   56729.1731  52.06822   3.03019  18.99186  56810.19311 
    13.45596  2.02295  2.35433       0.38179         3325.13331  0.07996  0.07138     0.01722   8.89768     16.86353   8608.33327   -10.05647  0.82052   7164.84291    4e-05  56730.02253  52.29903    5.1984  19.17755  56803.40603 
    14.17601  1.60558  2.09183       2.13182           2796.569  0.13596  0.04901     0.01207  17.44367     20.49628   6300.19731    -8.78692    0.134   6238.70379  0.17418  56731.29208  52.23941  10.16284  18.50931  56857.70261 
    13.99469  1.95112   2.3104       2.77156         2865.11095  0.00105  0.06015     0.01004  12.43553     20.01555   7448.38495   -10.51425  0.20331    5738.0835  0.05758  56729.56475  52.13734   0.07349  18.96107  56813.58664 
    13.50983  1.58816  2.19118       0.05756          3394.8522  0.00671  0.02033     0.01027   22.2726     17.81537   8194.98591    -6.07306  1.09907   6370.02874  0.00036  56734.00594  52.27757   0.52511  18.95342  56820.37371 
     13.8058  1.55892  2.70918       1.49309         3553.49257  0.24927  0.03793      0.0138  14.23493      16.8019   5815.50358    -8.68365  0.44564   4689.74305    4e-05  56731.39535  51.97409  17.89929  18.64499  56850.91554 
    13.97235  1.67512   2.1437       2.89632          2271.2494  0.28224  0.07846     0.01008  11.56141     18.94735   6817.84728   -10.05041  0.22715   5396.70854  0.00492  56730.02859  52.07746  19.41775  19.04484  56816.98018 
     13.9836   2.1039  2.44794        3.0224         2481.51249  0.00335  0.04792     0.01024  12.47989     20.26127   7527.40559   -10.83807  0.23544   6080.08507  0.10139  56729.24093  52.18795   0.23422  19.03662  56816.98018 
    13.73992  1.80053  2.41551       1.69814          3415.9618  0.35656  0.06505     0.01093   9.39935      19.6852      6868.08   -11.35132  0.37939   5338.01429  0.02691  56728.72768  52.04864  23.46306  19.03604  56810.19311 
