 texplosion  fnickel     Pspin  log(Bfield)      Mns  thetaPB  mejecta    kappa  kappagamma      vejecta  temperature    alpha  cutoff_wavelength  log(nhhost)      A_V         MJD0  kenergy  mnickel                 TSD   log(L0)  Peak_mag     Peak_MJD  log(E_rad)  log(Peak_lum)  Rise_Time     E_fold  tau_1  delta_m15     r_peak     frac 
  -17.16787  0.49029  14.25932     12.08593   1.5465  0.97299  5.80148  0.08897     0.15896   4975.41856   9602.08893  1.46349         5541.14732     18.01376  0.00057  59097.16807  0.85669  2.84439  196565686765.31143  38.85649  20.43389  59153.06756    50.54449       43.47871   41.29065  108.57667   96.0    0.09678  -20.05658  0.00013 
  -19.78114   0.4519   6.35451     12.13427  1.64763  0.58651  6.79858  0.10062      0.0789   6074.53396   9511.14035  1.07249          4685.5035     19.52563  0.01864  59094.55479  1.49648  3.07231   33288236732.64117  40.35725  20.42219  59153.06756    50.54543       43.47847   39.11523  109.52263  103.0    0.07072  -19.95073  0.00166 
  -14.49837  0.44684  14.96956     14.70689  1.19728  0.79069  6.06761  0.13194     0.42344   6874.48188   8983.83562  1.08045         5841.29729     18.72401  0.00294  59099.83757  1.71051  2.71122        960844.91944  44.01397  20.43636  59153.06756    50.66089       43.52375   39.59576   121.2572   89.0    0.08706  -20.17377  0.15072 
  -14.26789  0.48395   15.3433     12.98939  1.55823   0.9342  5.92092    0.097     0.35081   6047.51783   9564.32726  1.39893         5585.66786     18.37335  0.00131  59100.06805  1.29173  2.86544    3576845198.81776  40.53614  20.36032  59158.21875    50.52544       43.49977   45.99866   84.31105   96.0    0.08678  -20.12294  0.00553 
  -16.53552  0.44777  11.46741     12.65037  1.26644  0.21856  6.26303  0.07339     0.40199   4968.59012   8632.15599  1.24032         5283.16037     17.66762  0.00026  59097.80042  0.92231  2.80443    7737365239.96957  40.36391  20.38146  59160.44273    50.59849       43.52471   49.45009   97.78806  101.0    0.12375  -19.97521  0.00028 
  -17.98365  0.45138  13.85224     13.09374  1.73823  0.42332  6.18405  0.08994     0.26484   5151.72473   9207.66826  1.47774         5256.35715     17.00596    6e-05  59096.35228  0.97905  2.79138    2011306460.45073  40.92243   20.4292  59155.52595    50.56347       43.48841   42.01694  110.53244   97.0    0.09384  -20.00461  0.00366 
  -15.82108   0.4675   4.92745     12.79126  1.48256   0.8483   5.7099  0.07356     0.18223   4492.70052   9533.46463  1.67663         5328.70622     18.29154  0.00109  59098.51485   0.6875  2.66936     874086243.52623  42.11306  20.38788  59149.33984     50.5285        43.4974   34.05001  106.76481  107.0    0.11578  -20.03302  0.15592 
  -19.27582  0.42672  12.97192     12.93318  2.02178   0.1566  7.81976  0.11731      0.0147   6405.13131    8333.0473  1.31655         5559.58943     19.03767  0.00606  59095.06011  1.91371  3.33683    4297258097.94033  40.71538  20.38059  59155.25781    50.48185       43.48733   40.54172   92.93058   66.5    0.07081  -20.17838  0.00028 
  -11.86708  0.43161   8.23104     14.66706  1.45953   0.9213  4.51163  0.26123     0.46233   7143.57699   9021.72444  1.14515         5557.33535     16.33607    1e-05  59102.46885  1.37338  1.94727        425425.78002  44.97333  20.37854  59149.33984    50.53866       43.52458    39.4958   97.78806   75.5    0.08345   -20.1132   0.5263 
  -17.14754  0.49396  12.14287     14.52186  1.75933  0.98482  3.62813  0.21455     0.20826   5369.20941   8937.93779  1.40525         5474.31747     17.66698  0.00026   59097.1884  0.62392  1.79215       2178156.29016  44.00746  20.38834  59155.25781    50.51799       43.49221   44.14051   97.78806   75.0    0.12383  -20.13681  0.41779 
  -14.14774  0.48151   11.3316     14.53959  1.29461  0.86354  4.79067  0.16622     0.41934   6018.01019   8605.80685  1.43969         5478.60415     17.25723   0.0001   59100.1882  1.03497  2.30674       1286317.21285  44.16306  20.36806  59155.52595    50.54081       43.52532   43.50728   88.00926   80.5    0.13753  -20.18825  0.28984 
  -16.74272  0.45628  10.77951     14.63374  1.17429  0.64555  5.03006   0.1672     0.21494   5919.40369   8438.83981  1.51899          5225.0748     18.50216  0.00177  59097.59322  1.05137  2.29514        684398.29124  44.43812  20.36781  59155.52595    50.52842       43.49647   41.07099   89.96502   84.0    0.13196  -20.10497  0.28202 
  -14.32352  0.47847   4.38091     12.58519  1.93551  0.21766  6.04523  0.13188     0.05161   7972.86176    8675.6716  1.12178         5154.25628     19.34829  0.01239  59100.01242  2.29228  2.89244    2330035033.35577  41.90515  20.34546  59155.25781    50.51025       43.52724   42.30045   84.09774   85.0    0.06111  -20.07734   0.0094 
  -16.54092  0.48597  12.52548     13.69441  1.55487    0.972  5.45053   0.1249     0.20112   6882.87668   8302.85885  1.15875         5521.33331     17.53857  0.00019  59097.79502   1.5403  2.64881      92530394.76884  42.29867  20.38932  59153.06756    50.55349       43.50068   38.83129  107.56687  106.5    0.10342  -20.09729  0.16046 
  -14.07591  0.43572   2.80855     12.45511  1.58409  0.18386  6.25746  0.08847     0.32907   6402.69945   9174.72421  1.29315         5009.47665     19.24667   0.0098  59100.26003  1.53021   2.7265    1426743002.73735  42.41731  20.41664  59155.25781     50.5337        43.4819   40.80701  109.78661   95.5    0.10995  -20.02368  0.02291 
  -16.38627  0.49474  17.66534     14.81208   1.5571  0.46169  5.06249  0.07617     0.01404   4157.59913    9503.7717  1.43696         5447.68274     19.53745  0.01915  59097.94967  0.52201   2.5046       1072058.12661   43.9367   20.3405  59157.23828    50.50674       43.49163   42.81343   84.31105   72.5    0.12199   -20.0777  0.16592 
  -19.37984  0.36237  15.85731     14.31582  1.54753  0.90771  6.24107  0.09338     0.30242   5809.50457   8832.93956  1.18881         5540.71686     16.88802    4e-05   59094.9561  1.25651  2.26156       8438731.32791  43.13175  20.37828  59158.21875    50.47844       43.49497   46.34475   74.91245   91.0     0.1036  -20.07173  0.20359 
  -16.70921  0.47941  15.11427     12.51535  1.75761  0.64974  6.14928  0.08594     0.04994   5315.28349   9147.12297  1.39315         5537.84811     18.84923  0.00393  59097.62673  1.03634  2.94803    34738873507.2673  39.61418  20.42038  59155.25781    50.59659        43.5013   41.29065  110.53244   94.0     0.1149  -20.10189  0.00037 
  -18.08964  0.37041  14.19712     14.77676  2.09559  1.37279  6.33759  0.09894     0.27978   3897.54935    9745.3638   1.8132         5891.06944     19.71465   0.0288   59096.2463  0.57429  2.34753       1096485.17188  44.24575  20.37816  59153.06756    50.54741         43.496   39.11523   97.78806   87.0    0.10545  -20.18335  0.34605 
  -16.87365  0.46017  13.07338     12.89162  1.94137  1.45615  6.19735  0.07359     0.05282   4506.06025   9698.94731  1.53598         5353.54136     19.35369  0.01254  59097.46228  0.75063  2.85184    5075267740.65348  40.61872  20.40444  59150.60917    50.59406        43.5077   40.06118   112.4882   96.5    0.10285  -20.02013  0.01021 
  -18.16687  0.49858  11.84859     14.52859  1.67795  0.95976   3.7689   0.1999     0.19672    4867.3259   8806.26496  1.56188         5592.43662     17.30052  0.00011  59096.16907  0.53263  1.87908       1917561.24033  44.06354  20.39708  59155.52595    50.56178       43.49742   41.07099  103.65535   79.0    0.12756  -20.14208  0.40168 
  -15.39598  0.49034   9.21732     14.70123  1.27161  0.53949   3.8782  0.21641     0.22333   5354.28024    7393.2949  1.40515         4939.68946     16.62706    2e-05  59098.93995  0.66322  1.90163        397116.36569  44.84507  20.41748  59160.44273    50.51624       43.47885   42.81343   94.08986   81.5    0.12815  -19.98645  0.42274 
  -15.72294  0.49499   3.83937     12.44476  1.57545  0.30485  5.97971  0.16227     0.36525   9465.25284   9191.95737  0.99118         5576.00088     16.34104    1e-05  59098.61299  3.19574  2.95987    2781071557.42819  41.85352   20.3985  59153.06756     50.5587       43.49618   39.77725  108.57667  102.0     0.0799   -20.0715  0.01563 
  -16.15686  0.36537  17.21576     14.81912  1.94736  0.08609   7.2165  0.06529     0.17242   5431.17646   8731.09755  1.36084         5175.96045     16.58575    2e-05  59098.17908  1.26982  2.63666       1232759.08399  43.99556  20.44518  59150.27734    50.55112       43.47957   42.03647  113.69814  105.0     0.1323  -20.00696  0.10682 
  -18.31197   0.4671  10.12117     14.53542  1.43292  0.43374  3.56906  0.24113     0.23552   6192.43472   8419.66079  1.09609         5309.92645     17.22074    9e-05  59096.02397   0.8164  1.66712       1157848.37377  44.35095  20.44038  59155.25781     50.5303       43.49023   47.56211   101.9129   77.0    0.10556  -20.11898    0.444 
  -17.15733   0.4462  13.64004     14.63156  2.05456  1.15331  4.40042  0.18868     0.48722   5123.88638   8961.83052   1.4855         5605.88916     17.91041  0.00045  59097.17861  0.68916  1.96346       1936670.06387  44.02488  20.37289  59150.60917    50.53847       43.50195   37.15946  105.61111   77.5    0.11753  -20.15389  0.39701 
  -19.52635  0.44351  11.13351       14.387  1.47943  1.14146  4.93827  0.20502     0.36436   5874.20581   8015.45112   1.0697         5152.82007     18.69584  0.00276  59094.80959  1.01648  2.19018       2865348.22722   43.8885  20.44081  59155.25781    50.55038       43.47814    42.8541  110.53244   82.5    0.11486  -20.08855  0.34998 
   -14.5075  0.34495   10.7099     13.25517  1.42047  0.13474  8.01868  0.06038     0.20401   5459.47171   9233.41312  1.58399         4689.88219     19.82424  0.03707  59099.82844  1.42571  2.76602     467169657.79944  41.69223  20.42431  59153.06756    50.55332       43.48963   42.15456  104.66515   95.5    0.11716   -19.9784  0.00234 
  -16.45643  0.42936  12.46789     14.61252   1.8391   1.1948  4.59891  0.19361     0.45775   5586.87361   9219.02243  1.26503         5716.90753      16.8497    4e-05   59097.8795  0.85629  1.97458       1581103.98903  44.14291  20.39165  59160.44273     50.5521       43.48762   43.02675  101.69959   75.5    0.09555  -20.12316  0.40015 
  -18.72799  0.42897   3.51844     12.03852   1.9311  0.87278  6.83295  0.13311     0.28839   8267.32524   9113.95283  0.98907         5347.87363     16.48755    2e-05  59095.60795   2.7859  2.93114   18590187383.91294  41.19266  20.43235  59153.06756     50.5104       43.46069    35.2037   97.78806  104.5    0.07568  -20.01042   0.0223 
  -13.38277  0.48518  21.55471      13.6606  1.58015  1.26974  5.88536  0.06323     0.45371   4277.95402   8886.45817  1.94169         5654.81939     17.81629  0.00036  59100.95317   0.6425  2.85547      325380753.3116  41.28807  20.35832  59153.06756    50.59766        43.5083    35.2037  117.34568  105.0    0.12469   -20.1795  0.03226 
  -15.40983  0.41687  17.49602     12.64054  1.19353   1.1555  6.71091  0.06241     0.45536   4508.01114   9830.47028  1.49066         5432.02767      16.8313    4e-05  59098.92611  0.81354  2.79758   17760361892.43478  39.61035  20.40425  59153.06756    50.54973       43.48546   40.34469  109.52263   97.0    0.11091  -20.01442  0.00089 
  -10.93007  0.42715   7.85676     14.97171  1.83679  0.78124  5.21554  0.19903     0.47479   5639.14063   8673.43412  1.62739         5238.40623     16.39299    1e-05  59103.40587  0.98936  2.22782        119931.85194  45.66348  20.41812  59155.25781    50.56579        43.4761   44.98251  111.47839   83.0    0.11519  -20.09526  0.60461 
  -11.65581  0.44042   6.60829     14.85117  1.45097  1.25033  5.40755  0.14908     0.42273   5264.81705   9070.31292  1.86084         5183.46769     17.14283    8e-05  59102.68013  0.89412  2.38161        116767.65178    45.723  20.38873  59150.60917    50.61003        43.5329   34.87974   109.8466   89.0     0.1186  -20.06256  0.59872 
  -16.68249  0.40446   16.9678     13.61351  1.71062  0.73434  7.38339  0.07487     0.08009   5524.52636   9244.93286  1.19276         5346.98509     18.23595  0.00096  59097.65345  1.34423  2.98626      271146930.8235  41.60954  20.42221  59155.52595    50.53926       43.48333   47.49433  105.61111   97.0    0.09991  -20.06804  0.03586 
  -12.94589  0.30124    1.5481     12.17227  1.40815  0.39821   9.1563  0.11065     0.39982  12286.64784   7232.19786  0.61205          4182.2075     18.15473  0.00079  59101.39004  8.24544  2.75822    1417461524.03027  42.88639  20.43465  59153.06756    50.55539       43.50864   39.25284  109.52263  109.5    0.09075  -20.13591  0.23284 
   -13.4486  0.47144  10.58167     14.81429  1.73569  0.86288  4.43733  0.17819     0.43297   4922.09757   9440.93057  1.62194         5277.72215     16.49502    2e-05  59100.88733  0.64128  2.09194        424428.97806   44.8314   20.3948  59155.25781     50.5569        43.4993   45.24973   101.9129   79.0    0.11494  -20.06467  0.44754 
   -13.3502  0.48484    10.131     14.66493  1.63279   0.9938  3.99846  0.24585     0.28915    6163.5774    9037.7318  1.46039         5392.81639     17.73478   0.0003  59100.98574  0.90612  1.93861         728108.2067  44.60827  20.44236  59155.52595    50.46622        43.4813   46.93827   84.09774   73.0    0.10687  -20.13512  0.46452 
  -15.24815  0.38386   3.11691     12.99271  1.54792  0.09875  7.77858  0.07148      0.2671   5279.99426    9484.8267  1.46018         5455.96849     19.66522   0.0257  59099.08779  1.29358   2.9859     144406269.05996  43.31156  20.38289  59148.15077    50.59601       43.51291   37.15946  113.43416   98.0    0.09127  -20.11512  0.04627 
  -15.86959  0.38917  10.05268     13.95307  1.28345  0.56869  5.92287  0.08465     0.22775   6279.98371   8158.95646  0.97948          5707.5833     17.39533  0.00014  59098.46635   1.3934  2.30501      14949070.94765  43.19805  20.39699  59157.98434    50.58568       43.51078   47.57421  102.29311  112.0    0.13419  -20.09359  0.27706 
  -15.63902  0.35351  18.82237     15.07199   1.8518  0.47418  7.08257   0.0714     0.43111   4131.10541   9095.65868  1.59611         5700.40687     18.27991  0.00106  59098.69692  0.72103  2.50378        437294.87325  44.34632  20.37834  59155.25781    50.47122       43.51696   43.02675   80.18621   91.5    0.11609  -20.11018  0.18876 
   -9.67866  0.33341   7.04212     14.87517  1.97553  1.01881  6.32174  0.21163     0.47051   6441.03026   9575.67753  1.24901         5654.74489     16.71144    3e-05  59104.65727   1.5645  2.10773         161648.5881  45.66055  20.38092  59153.06756    50.56275       43.48036   41.07099  111.47839   81.5     0.0658  -20.13293  0.69207 
  -14.00165  0.49877   6.15123     14.65409  1.49755  0.85149  3.70924  0.32685     0.43745   4935.99313   7480.55246  1.53099         5450.56395     16.74849    3e-05  59100.33428  0.53909  1.85004        258780.85515  45.45337  20.37622  59155.52595    50.55311       43.52018   45.12012   93.87654   80.0    0.10298  -20.08785  0.68611 
  -18.41612   0.4988  15.31996     12.31112  1.73291  0.20084  6.04015  0.09002     0.11043   4943.71762   9675.78427  1.23805         5610.00719     18.17998  0.00084  59095.91982  0.88061  3.01283   90128460365.55695  39.18224  20.41741  59153.06756    50.55139       43.47619   41.28754  109.78661   96.5    0.08457  -20.05348    1e-05 
  -17.76955  0.47346  18.45058     12.48479  1.60594   0.6661  6.38545  0.07875     0.04483   4621.93041   8115.50662  1.27715         5477.96983      16.3287    1e-05  59096.56638   0.8137  3.02324   54448479419.77791  39.20657  20.35511  59153.06756     50.5129       43.48958   41.55152   93.87654  102.0    0.10204  -20.03174  0.00015 
  -20.80076  0.39737  16.49643     14.67056  1.83696  0.91059  6.07016  0.10091     0.48334     4201.406    9074.6893  1.35194         5705.48661     17.83271  0.00038  59093.53518  0.63917  2.41208       2116282.78104  43.77259  20.36186  59150.60917    50.50115       43.51009   42.30045   91.92078   90.0    0.10557  -20.06338  0.23512 
  -16.52624  0.47429  15.33118     14.26102  1.55826   0.7351  5.12176  0.10826     0.03365   5897.21774   7953.86176  1.02108         5485.66162     16.66985    3e-05   59097.8097  1.06253   2.4292      10222702.13394  43.08077  20.38944  59153.06756     50.5676       43.51156    41.2086  109.52263   81.5    0.12499  -20.06957  0.19477 
    -16.239  0.49833   11.6758     13.56032  1.81234  0.66655  5.44607  0.07899     0.10582    4666.0406   9859.58817  1.47021         5489.72537     18.70112  0.00279  59098.09694  0.70731  2.71395     173777631.13166  42.15252  20.40603  59157.23828    50.50663       43.49409   41.29065   98.79787  101.5    0.10742  -20.03301  0.10385 
  -20.21797  0.46857  16.42333     14.18624  1.57881  0.40743  6.06469  0.10988     0.17789    6080.8757   9458.24036  1.00731         5718.30517     18.52526  0.00186  59094.11797  1.33773  2.84176      16771954.84262  42.81167  20.38698  59155.52595    50.60174       43.52384   44.71853  111.74237  110.5    0.07142  -20.02659   0.1059 
  -19.37534  0.42084  17.12477      13.2265  1.37098  1.56624  7.03655  0.06358     0.06591   3864.68561   8813.07281  1.56794         5605.28188     16.50786    2e-05  59094.96059  0.62692  2.96128    1315538098.75262  40.81952  20.40651  59153.06756    50.53762       43.48879   42.30045  109.52263  106.5    0.09555  -20.03072  0.01457 
  -18.97365  0.49478  13.77136      13.7103  1.53151  0.23293   6.3979  0.08233     0.01739    4059.8644   8277.83498  1.70499         5637.47156     19.04467  0.00616  59095.36229  0.62905  3.16554     102398110.50512  42.16572  20.47025  59153.06756    50.54556       43.46094   44.71853  111.74237   90.5    0.08998  -20.12947  0.01664 
  -15.02658  0.49831  12.61812     14.66582  1.48343  1.23264  5.08582  0.14312     0.48464   5004.45832   8141.74764  1.44668         5560.83921     17.58313  0.00021  59099.30936  0.75981  2.53431       1021974.90772  44.22868   20.4239  59158.21875    50.49231       43.48626   46.93827    86.0535   92.0    0.11687  -20.12189   0.2702 
  -14.15923  0.43722  16.31341     12.90313  1.35085  1.31162   6.8262  0.06154     0.02498   4852.49809   9067.88821  1.42101         5978.61048     17.43165  0.00015  59100.17671  0.95882  2.98453    5214939432.00269  40.25711  20.37801  59158.21875    50.56727       43.51191   44.25621   97.78806   90.5    0.12873  -20.15692  0.00403 
  -14.68887  0.46858   7.63008     14.56979  1.44026  0.92778  3.80406  0.28059     0.47351   5372.60553   7776.51206  1.40775          5344.7706     17.40477  0.00014  59099.64707    0.655  1.78251        564596.09047  44.91049  20.35536  59158.21875    50.55284       43.51859   44.98251   91.92078   76.5    0.11975  -20.07795     0.58 
  -15.97155  0.48738  21.24919      14.0432  1.55698  0.51251  6.03125  0.09847     0.23194    5912.5575   7990.69376  1.13635         5697.10165     17.88934  0.00043  59098.36439  1.25772  2.93952      53504111.42521  42.07806  20.42523  59153.06756    50.52906       43.47695   40.78705  109.52263  104.5    0.12797  -20.10716  0.04326 
  -17.25924  0.44021  17.15755     13.38005  1.47512  1.52453  6.87434  0.06049     0.26604   3944.56443   8147.85399  1.56148         5898.13529      17.1081    7e-05   59097.0767  0.63805  3.02615      700577623.8615  41.12331  20.41885  59153.06756    50.54972       43.48944   37.15946  107.56687  109.5    0.10277  -20.11054  0.02626 
   -8.12237  0.49721   4.20136     14.90389  1.27735  0.62198  4.29016  0.30435     0.48748   7373.03434   9531.93141  1.46022         5381.09468     16.91916    5e-05  59106.21357  1.39121  2.13313          32593.3877  46.61525  20.40481  59155.52595    50.53247       43.49327   41.28754  107.83085   85.5    0.05507  -20.08422    0.783 
