 log(Bfield)      Mns     Pspin  cutoff_power  cutoff_wavelength  fnickel    kappa  kappagamma   mejecta  log(nhhost)  temperature  texplosion  thetaPB     vejecta      A_V        MJD_0   log(KE)     M_Ni  Peak_mag     Peak_MJD 
    14.75507  1.16283   3.03303       3.19212         3703.20597  0.09286  0.03856     0.21922   6.95453     19.31788   6230.18575    -2.74463  1.14658  5600.14039  0.01155  58928.83562  52.06053  5.70614  18.55746  58947.53709 
    14.86445  1.82749   10.6088        3.8107         3706.42164    0.027  0.02549     0.04621   7.65716     19.62203   5686.11991    -6.69156  0.67729  5157.80296  0.02327  58924.88868  51.99879  1.69649  18.51153  58947.53709 
    14.90212  1.21002   2.74437       3.44795         3678.33766   0.0285  0.01202     0.24587  21.53174     16.86666   4957.26114    -1.79748  0.83033  5384.94889    4e-05  58929.78277  52.12892  2.21709  18.54465  58947.53709 
    15.15551  1.80334   7.99405       4.30233         3846.65528  0.03657  0.01745     0.02911  14.19135     17.69691   6306.68148     -3.8466  0.58793  5249.27033  0.00028  58927.73365  52.07172  2.62434   18.5422  58947.53709 
    14.95945  1.88471    9.4556       4.08546         3650.39639  0.10686   0.0552       0.403    3.9931     17.77156   6883.95807    -5.13988  0.82854  5030.44448  0.00033  58926.44037  51.90657  5.70876  18.54906  58947.53709 
    15.08083  1.88841   6.86719       3.62083         3740.55649  0.07938  0.03524     0.09261   7.26939     19.60342   6390.30313    -3.49478  0.82452  5466.83076  0.02229  58928.08547  52.04411  4.92835  18.54272  58947.53709 
     14.9913  1.60219   4.87333        2.4696         3879.00535   0.0493  0.02044     0.16509  11.48114      16.9747   4404.98261    -2.49051  0.86941  5517.31166    5e-05  58929.08973  52.09602  3.38647  18.57445  58948.45751 
    15.14924   1.8559   1.82051       2.49332         3834.92036  0.03632  0.01424     0.04941  18.20304     19.87765   6453.19192    -1.26487  1.09877  5573.09088  0.04192  58930.31538  52.14498  2.73749  18.55645  58948.45751 
    15.00723   1.3617   2.87816       2.77911         3820.29193  0.05189  0.02247     0.10234  11.21279     17.31115   5145.08705    -1.54562  0.75524  5458.55716  0.00011  58930.03463  52.08456  3.54729  18.55335  58947.53709 
    14.59421  1.22024   4.26367       1.32741         4069.79047  0.03364  0.01989     0.01128  12.11123     17.74187    6760.7735    -6.53373  1.16062  5084.56048  0.00031  58925.04652  52.02993   2.3371  18.54337  58947.53709 
    14.99539  1.86303   7.55864       4.44813         3793.50663  0.05596  0.02546     0.06187   9.64346     18.71682   6321.47356    -4.00318  1.05174  5004.45124  0.00289  58927.57707  51.99503  3.70306  18.51646  58947.53709 
    14.89616  1.50761   5.23798       4.07475         3683.64961  0.03738  0.01582     0.01375  15.22954     19.99286   6305.80648    -2.88152  0.98317  5188.08664  0.05465  58928.69873  52.06767  2.72077   18.5394  58947.53709 
     14.5202    1.384   8.62083       4.11046         3686.85269  0.02419  0.02521     0.07747   8.81098     18.37623   6997.24687     -7.1922  1.23767  5387.24216  0.00132  58924.38805   52.0504   1.5691  18.54516  58947.53709 
    15.00875  1.56105   5.25361       3.19553         3771.39684   0.0395  0.01961     0.05467  12.40435     18.31769   6750.40873    -2.80244  0.73755    5181.067  0.00115  58928.77781  52.04842  2.75802  18.54055  58947.53709 
    15.12201  1.95675   4.23193       2.62132         3925.45769  0.16229  0.06102     0.04346   3.83847     17.44701   6703.86109    -1.95189  1.08914  5381.42624  0.00016  58929.62836  51.96049  8.57749  18.54059  58948.45751 
    15.12833  1.90431   6.57491        4.8775         3789.77596  0.08847  0.03534     0.05301   6.30951     18.52706   7950.80669    -2.12179    0.877  4955.57005  0.00187  58929.45846  51.94425  5.31193  18.54008  58947.53709 
    14.66275  1.47952   8.86924       4.44365         3629.02774  0.04716  0.02865     0.10211   7.75041     17.75867   4634.01076    -6.19332  1.06136  5471.54177  0.00032  58925.38692  52.05129  2.97191  18.52197  58947.53709 
    14.79247  1.39645   7.93794       3.51303         3734.75902  0.03498  0.01881     0.10992  11.36656      16.6268   5854.33624    -6.21625  0.67813  5076.07873    2e-05    58925.364  52.02271  2.39828  18.55487  58947.53709 
    14.62555  1.85705  11.19458       4.39599          3619.8645  0.00898  0.02537     0.04433   7.71806     18.09446   6467.42585    -8.11785  1.23846  5427.91577  0.00069   58923.4624  52.04392  0.56505  18.52422  58947.53709 
    14.65974   1.9357   9.50892       1.29632         4054.43678  0.00742  0.02579     0.09091   7.14203     16.27618   6475.86406      -8.965  1.20174   5374.5743    1e-05  58922.61525  52.02753  0.45905  18.53781  58947.53709 
    14.65103  1.28257   7.69843       4.29961         3631.12044  0.04092  0.02429     0.19738   9.59664     17.65232   6567.42748    -6.57742  0.84405  5294.67602  0.00025  58925.00283  52.04354  2.70511   18.5605  58948.45751 
    14.63386  1.94216  10.43094       1.96505         4066.61119  0.00433  0.01793     0.01673  10.65813     17.97837   5910.33881    -8.97962  1.43843  5133.98989  0.00053  58922.60063  52.02662  0.29283  18.56717  58947.53709 
    14.74409  1.94287   8.36871       0.90913         4064.72477  0.01335  0.02343     0.10391    7.9707     16.45561   7822.29238    -7.37909  1.03774   5472.8554    2e-05  58924.20116  52.05428  0.84651  18.54463  58947.53709 
    14.80586  1.61711   7.46234       2.36643         3818.01872  0.05632  0.03088      0.1135   7.03865     18.82529   6377.24466    -6.11713  0.93227  4974.78917  0.00372  58925.46312  51.95891  3.47069  18.54311  58948.45751 
    14.94835  1.93881    8.6815       4.40941         3528.28968  0.04327   0.0232     0.20163   9.40052     19.87955   6754.40422    -5.01443  0.91974  4865.68138   0.0421  58926.56582  51.96818  2.84758  18.54524  58948.45751 
    14.75532  1.94426  11.58293       3.73611         3878.91856  0.00273  0.02392     0.46701   6.93564     16.23299   6050.82944    -6.63531  0.90229  4891.64646    1e-05  58924.94493  51.94276   0.1674  18.54345  58947.53709 
    14.98851  1.62507   4.93215       4.81125         3665.83333  0.07536  0.03223     0.15301   8.06756     18.47688   6831.42997    -2.23272  1.07754  5388.51001  0.00167  58929.34753  52.04198  4.79258  18.56629  58948.45751 
    15.11304  1.79926    5.4992       4.05924         3837.62766  0.05424  0.02391     0.11168  10.59907     17.46782   6635.87771    -2.98691  0.82813  5015.51263  0.00016  58928.59334  52.00583  3.66319  18.52078  58947.53709 
    14.74503  1.42837   8.10825       4.55125         3683.00265  0.03127  0.01708     0.05215  12.85404     18.63328   6332.75496    -5.05491  0.90207  5184.47831  0.00239  58926.52534  52.05218  2.19952   18.5446  58948.45751 
    15.06432  1.76342   7.11428       3.61135         3819.24463  0.10101  0.04274     0.32661   5.62227      17.7007   4515.99508    -3.02301  0.77335  5521.85937  0.00028  58928.55724    52.026  5.89623  18.55802  58947.53709 
    15.02009  1.37244   3.59313       3.96706         3900.57467  0.03991  0.01865     0.24738   13.6199     18.94464   7432.34059    -1.75963  0.72182  4910.88742  0.00489  58929.82062  52.01023  2.84025  18.57344  58947.53709 
    15.02914  1.89069   6.31995       3.80917         3629.96929   0.0719  0.03568     0.05304   7.46494     20.17639   5660.38044    -3.25843  0.90583  5556.33314  0.08339  58928.32182  52.06089  4.49182  18.53057  58948.45751 
    15.00679  1.72095   5.32198       4.83942         3682.89601  0.06935  0.03336     0.24815   8.09146     18.97747   7651.27178    -1.89727  1.10806  5563.50312  0.00527  58929.68298  52.07004  4.41305  18.58146  58948.45751 
     15.0337  2.00334   8.10141       3.96747         3725.18555  0.09585  0.04204     0.05493   5.34322     16.65769   6909.77156    -3.81085  1.01561  4985.97385    3e-05   58927.7694  51.93182  5.52418  18.54168  58947.53709 
    15.03884  1.49266   5.77339       4.33454         3735.72792   0.0416   0.0204     0.04013  12.62634     17.48009   5651.75472    -3.50476  0.62655  5133.69906  0.00017  58928.07548  52.04204  2.91533  18.56501  58947.53709 
    14.93196  1.68726   6.06905       3.60442         3687.23956  0.03778  0.01806     0.01649  13.23986     18.99699   5266.69939    -3.30137  1.04683  5197.18849  0.00552  58928.27888  52.05694   2.6735  18.51916  58947.53709 
    14.74522  1.32849   5.43581       4.17827         3545.36645  0.06797  0.03684     0.21262   6.88327     17.30583   5923.89419    -3.70901  1.07629  5199.39389  0.00011  58927.87124  51.99498  4.16642    18.516  58947.53709 
    14.92774  1.52613   5.53069       3.07276         3744.55397  0.05829  0.02439     0.04406   9.95971     20.16527   5459.92227    -3.36745  0.79227  5470.94134  0.08128   58928.2128   52.0755  3.88484  18.55742  58948.45751 
    14.72493  1.51313   7.98953       4.35576         3668.75566  0.03015   0.0212     0.14525  11.55069     19.52189   6720.54651    -5.30324  1.06218  5273.45606  0.01848    58926.277  52.05731  2.07388  18.55705  58948.45751 
    14.88257  1.52913    7.2167       3.73218         3744.63129   0.0499  0.02463     0.26563   9.20144     18.15067   6836.45398    -4.15916  0.82758  5068.97181  0.00079  58927.42109  52.00168  3.26842  18.53513  58948.45751 
    15.05781  1.83307   8.47974       4.14843         3869.87026  0.05227  0.02406     0.05465   8.74081     18.46511   8287.99352    -4.08731  0.71973  4573.74271  0.00162  58927.49294  51.90743  3.38483  18.52624  58947.53709 
    14.59705  1.69246  10.21188       3.97147         3666.07938  0.00859  0.02306     0.30377   8.44429     19.31214   7065.69093    -7.75116  1.10157  5359.60576   0.0114  58923.82909   52.0418  0.55203  18.55999  58947.53709 
    14.77771  1.53239   8.58833       3.40424         3826.52818  0.07013  0.04771      0.0639   4.34563     19.95215   6813.72907    -6.40355  0.73962  5091.12414  0.04976   58925.1767  51.92682  3.83221  18.54255  58948.45751 
    14.75333  1.26248    6.5796       2.06119         3894.88761   0.0347  0.01815     0.07506  11.37905     19.00043   5834.00537     -5.8601  0.62544  5244.96026  0.00556  58925.72015  52.05124  2.37906  18.54952  58947.53709 
    15.09462  1.73813    5.5262       3.13675            3636.71  0.04392  0.02069     0.01522  12.47017     16.54924   3854.94375    -3.70227  0.70096  5322.72451    2e-05  58927.87798  52.07233  3.06983  18.56344  58947.53709 
    15.03244  1.79429   6.30248       3.73454         3821.01929  0.05694  0.02444     0.09137   9.97306     19.88424   6002.38347    -3.21068  0.89728  5219.39003  0.04256  58928.36957  52.03474  3.79581  18.54587  58948.45751 
    14.95989   1.6255   5.65464       2.74525         3867.06386  0.04156  0.01699     0.12159  13.27318     17.32817   7169.41547    -2.58963  0.95278  5228.26875  0.00012  58928.99062  52.06235  2.94213  18.57029  58948.92304 
     14.5176  1.01182   6.12158       3.67316         3744.61398  0.04765   0.0252     0.03179   8.68786     17.13883   7166.03489    -5.86805  0.87444  4986.28501    8e-05   58925.7122  51.98186  3.08119  18.54092  58947.53709 
    14.99507  1.57106   5.27049       4.63546         3806.46214  0.05432  0.02412     0.01965   10.1793     18.53345   5404.56101    -1.78169  0.92726  5178.05265   0.0019  58929.79856  52.02976  3.63737  18.56908  58948.45751 
    14.93294  1.76691   5.67414       3.57156         3492.11906  0.07892  0.03616     0.13005   7.34735     20.30679    4731.8392    -3.67445  1.01095  5740.74085   0.1126  58927.90579  52.08765  4.91236  18.54699  58947.53709 
     14.8708  1.25225   4.38449       4.34333         3654.17017     0.04  0.01748     0.08634  14.81566     19.40653   6240.25633    -2.62267  0.80712  5417.06478  0.01417  58928.95757   52.1028  2.89561    18.547  58947.53709 
    14.91339  1.78474   7.17204       3.28442         3585.86867  0.07066  0.04195      0.0246   6.42693     16.22506   6924.02654    -5.78535  0.97973  5232.07213    1e-05   58925.7949  51.99334  4.26118  18.51147  58947.53709 
    14.88826  1.25804   4.35245       3.54193         3788.59933  0.02626  0.01301      0.0565  19.77215     17.23902   4524.51445    -2.83742  0.73791   5286.8358   0.0001  58928.74283  52.10601  2.01022  18.56858  58948.45751 
     14.9473  1.96299   7.62422       3.74397         3507.33981  0.02788  0.01424       0.029  16.92613     17.82494   8138.33411    -4.07711  1.22884  5217.67098  0.00037  58927.50314  52.08163   2.0716  18.51136  58947.53709 
    14.70965  1.55427   9.02551       4.38278         3574.97405  0.02982  0.02234     0.07639  10.04063     18.54111   7026.06962    -6.23401  0.96921  5247.54682  0.00193  58925.34624  52.04005  1.99048    18.532  58948.45751 
    14.78894  1.80991  10.60969       3.32147         3865.43923  0.01055  0.02055     0.05784   8.61714     18.27217   5656.38181    -7.30438  0.74903  4738.54991  0.00104  58924.27587   51.9368  0.68121  18.53217  58948.45751 
    14.91293   1.9256   9.29858       4.91764         3740.59203  0.02393   0.0135     0.21248  17.57094     16.43819   9072.88968    -4.31466  1.22163  5090.98218    2e-05  58927.26559  52.06343   1.7913  18.56586  58948.45751 
    14.59531  1.60613   8.34424       1.67517         3767.68392  0.00643  0.02724      0.4353    7.2431     20.00435   6327.95979    -9.35542  0.88416  5375.72395  0.05611  58922.22483  52.02914  0.39888  18.52923  58947.53709 
    14.74767  1.42972   8.16939       4.17269          3663.6238  0.08836  0.05315     0.04072    4.4469     18.25518   5509.42363    -6.09038  0.81675  5329.33954    0.001  58925.48987  51.96918  4.85826  18.55439  58947.53709 
    15.17581  1.95976   6.34287       1.23967         4159.88787  0.01546  0.04143     0.13444   5.85785     20.73614   7489.79783    -8.57775   0.3049  5477.35031   0.3026   58923.0025  52.02337  0.91184  18.54891  58947.53709 
    14.90575  1.42113   4.44589        4.6897         3821.28238  0.05872   0.0275     0.01133   9.43808     19.68897   5045.23571     -2.1486  1.01943  5163.36938  0.02715  58929.43165  52.02014  3.86778  18.53524  58947.53709 
    14.70527  1.86148   9.45151        2.2922         3827.01523  0.01175  0.03172     0.10016    6.3973     20.10157   6714.04434    -8.09843  0.97172  5312.79845  0.07019  58923.48182  52.00616  0.70787  18.54837  58947.53709 
    14.84409  1.94298   8.92968       1.01559         4136.94052  0.00831  0.05343     0.07032   4.27299     16.33874   5391.64407   -10.76438   0.6669  5304.14554    1e-05  58920.81587  51.96048  0.45199  18.55006  58948.92304 
    14.79351  1.72492  10.28995        4.1139         3615.94932  0.08321  0.05618     0.06258   3.80158     16.64709   5945.92966    -6.27856  0.84254  5566.68589    2e-05  58925.30169  51.98874    4.386  18.56102  58947.53709 
    14.95576  1.72392   6.04427        3.8478         3745.27934  0.03693  0.01705     0.12565  14.30054      19.4837    9945.0277    -2.77395  1.10801  5167.03651  0.01692   58928.8063  52.05868  2.65462  18.56487  58948.45751 
    15.14656  1.93904   7.20239        3.7591         3711.87057  0.04267    0.019     0.01737  12.45151     16.68877   5237.55303    -3.03066  0.72157  5235.59665    3e-05  58928.54959  52.05786  2.98166   18.5622  58947.53709 
    14.89896  1.67479   8.72291       4.07804          3670.1237    0.044  0.02569     0.04208   9.23183     16.98039   6756.86014    -4.69882  0.79003  5391.77029    5e-05  58926.88143  52.05562  2.88392  18.54429  58947.53709 
    15.10438  1.98612   4.73077       3.28742         3717.15891  0.09731   0.0418     0.04599   6.65311     20.17048   4910.27594    -2.49097  1.01449  5889.83256  0.08226  58929.08928  52.09978  5.91687  18.53501  58947.53709 
    14.79182  1.62309   8.78373       3.44525         3823.55211  0.03098  0.02398     0.04501   8.41096     16.13381   6491.66633    -6.22616  0.84632  4613.79899    1e-05  58925.35409  51.91126  1.98905   18.5358  58948.45751 
    15.01087  1.96848   5.16234       3.88016         3729.85576  0.05232   0.0249     0.15101   9.73189     20.27504   8878.01105    -2.09359  1.34564  4910.97814  0.10466  58929.48666  51.97952  3.46948  18.52825  58947.53709 
    14.75787  1.57418   9.29764       4.97463         3649.66859  0.08477  0.04794     0.09739   4.62323     18.19367   6155.59022    -5.56401  0.97451  5462.55316  0.00087  58926.01624  51.99505  4.70855  18.51284  58947.53709 
    14.93244  1.79443   5.74607       3.43944         3580.69249  0.10138  0.04191     0.12319   6.24117     20.36789   4887.08109    -3.71413  1.08736  5724.51749   0.1296  58927.86612   52.0684  6.07065   18.5533  58947.53709 
    14.84385  1.51042   6.64982       4.44474         3569.23206   0.0776  0.03731     0.15543   6.83044     17.55793   5489.54242    -3.89678  1.01479  5612.00103   0.0002  58927.68347  52.06052  4.74787  18.55042  58948.45751 
    14.91632  1.74534   8.64236       2.98697         3690.29058  0.05589  0.03731     0.49061    5.9831     18.37531   5211.08195    -6.45407  0.70068  5060.41466  0.00132  58925.12618  51.95685  3.31268  18.52505  58947.53709 
    14.98917  1.66012   5.94586       4.94408         3733.56137  0.03304  0.01678     0.04234  15.00502     16.25134   7044.26783    -2.52745  0.96357  5065.27733    1e-05   58929.0528  52.04558  2.39798  18.56086  58947.53709 
    14.82428  1.88769  10.56835       3.49406         3709.10373  0.05006  0.05264     0.11461   3.97132     18.60006   6390.31344    -6.71012  0.85815  5299.64665  0.00221  58924.87013  51.95121  2.67064  18.54843  58947.53709 
    14.96195  1.77331   8.33646       3.94004         3884.46177  0.04152  0.02425     0.03816   9.39346      18.4378   6093.44477    -4.62853  0.81854  4780.70474  0.00152  58926.95172   51.9528   2.7317  18.53492  58947.53709 
    14.79297  1.21056   5.17957       3.83074         3797.09418  0.02368  0.01221     0.01323  20.17654     17.09191   5048.61164    -3.64486  0.78407  5120.87653    7e-05  58927.93539  52.07997  1.81951  18.52583  58947.53709 
    14.60694  1.70527    8.6008       1.56963         3938.40926  0.01322  0.03926      0.0908   5.05546     18.77055   6650.34269    -8.54699  1.17935  5106.39353  0.00328  58923.03326  51.94647  0.75157  18.53974  58948.45751 
    14.68489  1.35924   6.10489       1.99774         3634.35928  0.02873  0.01504     0.01771  14.94858     19.03484   6107.82955    -6.10877  0.94862  5370.92359  0.00602  58925.47147  52.09615  2.08322  18.56238  58947.53709 
    14.70511  1.26699   5.64511       4.11087         3694.96392  0.03946  0.02023     0.01581  12.44353     18.47111    7984.5352    -3.76171    1.128  5321.16945  0.00164  58927.81854  52.07188  2.75666  18.54824  58947.53709 
    14.89972  1.72537   8.20847       3.72192         3698.16674  0.08749  0.04987      0.1126   4.86079     18.00074   7084.71133    -4.55038  0.91014  5342.85009  0.00056  58927.02987  51.98143    4.923  18.49778  58947.53709 
    14.77134  1.39894   6.04097       3.53565         3639.35883  0.04335    0.022     0.13353  11.84793      19.1331    5684.1068    -4.35806  1.02197  5540.26482  0.00755  58927.22219  52.10249  2.99742   18.5527  58947.53709 
    14.86725  1.41945   4.98628       4.99625         3538.76388  0.03176  0.01558     0.29647  18.44695     19.08534   6669.21043     -2.7596  1.02347   5852.2037  0.00676  58928.82065  52.18853  2.39928  18.56051  58947.53709 
    15.13037  1.67578   1.68999       3.64829         3804.29887  0.04496  0.02054     0.13669  13.93988     18.74007   7483.96644    -0.79747  1.06273  5536.03172  0.00305  58930.78278  52.11635  3.21468  18.52204  58948.45751 
    14.61089  1.57374    9.2389       2.93198         3803.29229  0.01638  0.01859     0.06069   9.84076     17.62306   6496.40153    -7.83435  1.02586  4934.00272  0.00023   58923.7459  51.98464    1.089  18.51979  58947.53709 
