 log(Bfield)      Mns     Pspin  cutoff_power  cutoff_wavelength  fnickel    kappa  kappagamma   mejecta  log(nhhost)  temperature  texplosion  thetaPB      vejecta      A_V        MJD_0   log(KE)      M_Ni  Peak_mag     Peak_MJD 
    14.69672  1.77688  12.43261       4.03019         4098.36369  0.02535  0.07713     0.09699   2.40385     19.73169   6185.50931   -25.72338  0.58931   4101.82427  0.02995  56120.53162  51.66513   1.16801  18.50908    56151.485 
     14.8434  2.11468   10.2901        4.7716         3980.33683  0.05825  0.03784     0.03429   9.14923     20.70868   6858.30262   -21.40461  1.20516   4393.01485  0.28406  56124.85039  51.87682   3.81049  18.32861  56155.23211 
    15.00751  1.88881   6.49588       4.55308         4305.01654  0.04927  0.03327     0.01873  10.63765     20.39435   6634.89003    -23.8297   0.8456   3286.50503  0.13775   56122.4253    51.639   3.33024  18.41795  56155.23211 
    14.92835  1.70185    6.2935       0.78822         4384.56329  0.06885  0.01539     0.05556   7.41213     19.17637   5997.24005    -8.56651  1.06457   5748.31343  0.00834  56137.68849  52.08968   4.29393  18.39394  56155.23211 
    14.72243  1.51665   9.93173       2.97092          4083.5485   0.0218  0.08378     0.15472   4.26338     19.80605    5514.6789   -31.52866   0.3919   5167.56846  0.03554  56114.72634  51.93757   1.18533  18.50805  56152.49568 
    14.86021  1.44323   4.73063       4.85185         4113.99539  0.13427  0.09221     0.06323   5.35037     20.23592   6293.66411   -20.28478  1.12261   5258.31071  0.09564  56125.97022  51.97816    7.7414  18.36008  56144.28637 
    15.04274  1.38153   4.35522       4.59284         4265.92806  0.09223  0.02811     0.34033   6.66129     18.21046    6745.9832    -3.76637  1.19398   5876.36619   0.0009  56142.48863  52.09792   5.60986  18.55053  56152.49568 
    14.74467  1.54652  11.50497        3.5297         4372.88504  0.03627   0.1592       0.131   1.13297     17.44722   5661.19758   -26.30063  0.44877   3628.59123  0.00016  56119.95437  51.44171   1.27707  18.56884  56152.49568 
    15.07267  1.74155   1.35639       4.65348          4160.7721  0.01628  0.01316     0.03028  31.84078      16.0141   9220.12282   -39.45294  0.69813   2559.89044    1e-05  56106.80206  51.51349   1.35896   18.4713  56149.75924 
    14.28213    1.333   6.77223       3.70149         3440.96173  0.00212  0.01831     0.15579  18.82612     20.04472   4820.65374    -43.5365  1.24569    3228.2284  0.06158   56102.7185  51.67351    0.1605  18.48966  56149.75924 
    14.90704  1.91787   2.53498       0.67805         5192.82442  0.04733    0.036     0.02496  11.43262     19.58681   6999.47125   -30.24253  1.35672   3592.95428  0.02146  56116.01247  51.72308   3.24828  18.55465    56151.485 
    15.10626   1.3403   2.40749       3.64614         4237.06143  0.05043  0.02155      0.0831  11.53069     20.11207   7627.71364   -10.05079  0.70555   4164.19841  0.07191  56136.20421  51.85202   3.46774  18.49075  56155.23211 
    14.67401  1.72811   9.82542       3.31052         4339.35127  0.02936  0.02924     0.04014  12.59103     19.52475   5495.46368   -28.07572  1.21718   3676.16409   0.0186  56118.17928  51.75171   2.05579  18.32247  56155.23211 
    14.74286  1.24629    3.3328       0.97918         4555.71266   0.1674  0.08096      0.1113   4.06395     16.70829   7205.73063   -19.49331  1.17039   5142.12684    3e-05  56126.76169  51.92771   8.98594  18.45476  56149.75924 
    14.53804   1.7856   8.10875       0.66308         3377.65481  0.01961  0.03544     0.03722  12.82412     20.21015   5520.13056     -40.939  1.03667   4263.21352  0.09013    56105.316  51.88204   1.37828  18.46446  56152.49568 
     14.8159  1.73318   6.74854       2.97077         4227.80653  0.04161  0.01651     0.08221  15.60372     20.71255   6589.19906   -17.45077  1.39729   4353.00965   0.2866  56128.80423  51.91733   3.04307  18.29687  56152.49568 
     15.1053  1.51977   2.89288       4.78666          4314.4393  0.11734  0.06086     0.04549    5.1239     19.09611   7037.93123    -9.08442  1.09106   5025.78584  0.00693  56137.17058  51.93414   6.69213  18.41776  56152.49568 
    14.98167  1.55146   1.84994       2.64708         2991.87886  0.03088  0.01197     0.05782  21.17109     19.06005   8106.24422   -12.55179  1.13147    5403.4455  0.00638  56133.70321  52.13054   2.39474  18.55212  56152.49568 
    15.00629  1.63722   7.57371       4.57365         2083.83507  0.07692  0.01907     0.05026   9.81346     18.03157   3609.41804    -6.19696  1.01381  11127.71732   0.0006  56140.05804  52.69079   5.10984  18.52493    56148.296 
    15.11638  1.70136   3.80647       2.36455         4148.12828  0.14091  0.06397     0.06397   4.97253     19.83583   8237.16223    -13.3835  1.03455   5487.48528  0.03807   56132.8715  52.00716    7.9752  18.48203  56155.23211 
    14.59323  1.94273   12.5595       3.23261         4330.17707    0.004  0.04702     0.08262   5.92674     18.86495   5543.56753   -28.29774  0.92208   4260.42185  0.00407  56117.95726  51.80638    0.2364  18.39432    56151.485 
    14.95306  1.79614   7.00151       4.89457         4292.28765   0.0286  0.02137     0.09868  19.36593     20.16597   6164.36198   -21.98458   0.9162   4176.79695  0.08141  56124.27042   51.8996    2.1811  18.40656  56152.49568 
    14.50172  1.76984  11.73188       4.56674         3378.47431  0.00652  0.02666     0.15087   7.69064     20.20642   5085.26971    -25.6979  0.89903   5701.25313  0.08936   56120.5571  52.08624   0.40995  18.34497  56155.23211 
    14.52132  1.54186  10.49756        4.5512         4108.81967  0.01818  0.02698     0.32809  14.53291     16.43462   5179.20411   -29.46254  1.09427   4248.78707    2e-05  56116.79246  51.89013   1.31103  18.63341  56141.54993 
     15.0306   2.0132   9.43762       2.93317         4374.54444  0.07335  0.03495     0.48125   7.65618     16.63735    6215.0958   -14.75058  1.38252    4809.2022    2e-05  56131.50442  51.93799   4.60926  18.41543  56152.49568 
    14.66696  2.12354  13.59981       0.54791         4584.32612  0.00985  0.01153     0.07005   5.62477     16.82491   6315.27478   -11.66253  1.42981   6449.83093    4e-05  56134.59247  52.16098   0.57484  18.51117  56155.23211 
    15.07212   1.9185   5.24469       1.98521         4022.76564  0.08867  0.03446     0.02736   6.76905      20.7406   6629.33104   -13.73179  0.68903   4502.13247  0.30572  56132.52321   51.8682   5.41384   18.5912    56151.485 
    15.15938  1.85272   2.55867       3.88751          4324.9289  0.04109   0.0226     0.12703  12.54219     16.45169   7435.02052   -15.09673  1.00446    3469.9945    2e-05  56131.15827  51.70123   2.87496  18.39888  56152.49568 
    14.43065  1.69219  10.10846       1.70277         3792.41121  0.00351   0.0606     0.03761   5.89032     19.21749    5013.7849    -42.2962  0.89049   4283.06452  0.00917   56103.9588  51.81032   0.20718  18.33417  56155.23211 
     14.7599  1.89216    6.3749       2.79122         2831.94896  0.01942  0.01151     0.03226  29.16491     19.70668   4106.23212   -32.18975  1.52455   4054.68411  0.02827  56114.06525  51.90631   1.59585  18.40386  56152.49568 
    14.53045  1.85496  13.07189       4.90939         3916.02263  0.00623  0.13475     0.18992   1.38916      19.6959   4421.72342   -23.64822  0.87473   5061.40849  0.02758  56122.60678  51.76571   0.23756  18.38352    56151.485 
    15.00018  1.84276   6.89209       4.80633         4320.97052  0.05561  0.02741     0.01993   9.30472     20.54118   7120.97714    -18.9738  0.84482   3368.62815  0.19316   56127.2812  51.64782   3.65133  18.48954    56151.485 
    14.98224  1.91803   4.38208       1.14208         5271.19924  0.07365  0.03196     0.01299   7.72481     20.16337   6450.58684   -16.55228  1.21746   4095.84432  0.08093  56129.70272  51.79942   4.63765  18.43176    56151.485 
    14.38853  1.44446  10.95124       1.88159         3357.36212  0.00365  0.01588     0.03485   6.87106     16.48255   6169.28675   -16.49846  0.96821   6706.80031    2e-05  56129.75654  52.21593   0.22385  18.46222    56148.232 
     14.9498  1.82905   3.29224        0.3401         3803.32636  0.02338  0.01749     0.25153  28.20151     17.26129   6186.98458      -41.32  0.61719    4161.4717   0.0001    56104.935  51.92631   1.90966  18.59881  56152.49568 
    15.02241  1.45998   1.45243        3.0383         2925.38722  0.03784  0.02136     0.21563  13.60667     17.86233   8217.51663   -25.95338  0.61202   3376.00545   0.0004  56120.30162  51.68463   2.69235  18.63873  56149.75924 
    14.90057  1.80919  11.11101       3.95861         3399.81763  0.09557  0.03541     0.10321   5.15834     19.88289   7309.27819   -15.68398  0.91148   5176.51013  0.04242  56130.57102  51.96054   5.45986  18.50066  56157.96855 
    14.63632   1.6291  14.98927       4.62815         4098.50673  0.05279  0.01299     0.03493   6.17154     16.36263   5748.50376    -7.69231  1.48518   6804.81056    1e-05  56138.56269  52.21738   3.15276  18.49261  56152.49568 
    14.41566  1.30411   8.32438       4.20671         4137.78497  0.00304  0.09814     0.38462    3.3718     20.30015    4484.3758   -35.02163  0.69787   3440.76063  0.11089  56111.23337  51.55632   0.15486  18.55754  56155.23211 
    14.96522  1.66688   6.63968        4.5791         4080.58297  0.02972  0.01817     0.01023  21.48587      17.4248   5372.56907   -19.17085  1.13378   4992.60118  0.00015  56127.08415  52.06304   2.31098  18.49519  56149.75924 
    15.05984  1.52705   1.22094        2.0238         4408.95119  0.04299  0.02205     0.04739  14.77896     17.74201   7104.98823   -14.97955  1.14101   4824.54964  0.00031  56131.27545  52.00197   3.11058  18.50884  56155.23211 
    15.02932  1.62692   6.25322       4.50875         3754.86553   0.0653  0.02707     0.03653  10.67769     16.58595   3394.68354    -8.20668  1.39444   6775.54494    2e-05  56138.04832  52.26777   4.41752  18.57992    56148.232 
    14.35532  1.53072  10.38376       4.37816         4022.65094  0.00278  0.02282     0.04029  11.58169      18.0623   5096.95039   -29.94938  1.02824   4613.69148  0.00064  56116.30562  51.94146   0.19133  18.52518  56149.75924 
    15.01589  1.52332    7.8169       2.24967         4423.62994  0.11042  0.04384     0.36736   5.45067     16.88452   6207.20835   -12.29726  0.78086   5345.39561    4e-05  56133.95774  51.99444   6.39593  18.45783  56141.54993 
    14.95575   1.8614   1.77699       2.01438         3593.35543   0.0807  0.04812     0.05111   7.84238     19.70241   6549.80696     -24.491  1.45029   4221.19573    0.028    56121.764  51.82711   5.09915  18.39755  56155.23211 
    14.37503  1.38157  10.95804       4.93953          4040.2927  0.01976   0.0303     0.12384   6.85627     16.02236   7302.72391   -23.36657  1.53195   3982.38587    1e-05  56122.88843  51.76296   1.21005  18.47245    56151.485 
    14.75836  1.68528   4.77353       0.04024         4476.22749  0.03265  0.01001     0.04031  17.83583     18.07325   5760.42913   -14.32127  1.44857   7778.11135  0.00066  56131.93373  52.43283   2.45104  18.61122  56155.23211 
    14.46012  1.27992   6.19481       4.09788         4529.68762  0.01571  0.01886     0.11262   21.5344     17.12866   7616.19905   -38.06045  1.27884   2798.09396    7e-05  56108.19455  51.56029   1.22219  18.61721    56151.485 
    14.51072  1.61053   6.30382       0.07523         5423.34275  0.07196  0.09439     0.11804   4.55608     16.18767   5071.82857   -38.82188  1.06871   4950.12694    1e-05  56107.43312  51.90783   3.98174  18.50031  56149.75924 
    15.09632  1.83977   7.89236        2.8734         2835.33809  0.35811  0.10301      0.1225   2.01956     17.61576   4901.63373    -9.73578  0.82696   7362.22825  0.00023  56136.51922  52.14878  15.60099  18.44896  56155.23211 
    14.46856  1.65714  11.34235        4.7148         3999.84908  0.01179  0.13217     0.20919   2.28911     17.92812   4891.67234    -30.7933  0.88563   4674.85307  0.00047   56115.4617    51.772   0.53482  18.40919  56144.28637 
    15.00052  1.83082   8.14948       4.36723         4094.57889   0.0955  0.04806     0.31795    6.0989     18.71979   7049.64796   -16.24931  1.19661   4180.95811  0.00291  56130.00569  51.79305    5.6871   18.5415  56152.49568 
    14.97695  1.68183   0.84449       0.30384         4862.30138  0.04978    0.031     0.16104  14.87631     16.09113   5441.59931   -29.03163   0.9926   4812.56148    1e-05  56117.22337  52.00038   3.60608  18.52786  56152.49568 
    15.08588  1.84057   6.63775        4.8978         4224.33268  0.10332  0.05124     0.10062    5.6037     19.84356    7445.2159   -13.37187  1.15614   4648.04618  0.03875  56132.88313  51.87602   6.02579  18.54588  56149.75924 
     15.0247  1.80664   9.10439       2.87227         4370.05649   0.0798  0.02668       0.038   6.43408     19.71119   5305.33586   -10.42628  1.09615   4239.82573  0.02857  56135.82872   51.8108   4.81355  18.43504    56148.232 
     15.1557  1.61405   2.35555       3.03101         4015.94503  0.06808  0.03294      0.0451   9.76759     20.39186   7066.84743   -10.11255  0.81971   5735.10788  0.13696  56136.14245  52.11462   4.51803  18.38504  56152.49568 
     15.0926  1.66636   5.55626       3.36574         2958.92543  0.08894   0.0367     0.09035   5.92951     20.53083   8002.03738   -17.69351  0.44567    4613.1686  0.18861  56128.56149  51.87552   5.26026  18.57751    56151.485 
    14.68447  2.07312  11.27413       1.77535         3589.55913  0.00713  0.03793     0.09595   5.45124     19.78863   5655.99914   -30.01629  0.73151   4997.84338  0.03415  56116.23871  51.93606   0.41323  18.22388  56152.49568 
    15.08356  1.79941   4.15326       2.63922         3882.17087  0.10348  0.03576     0.15622   6.01002     19.86532    7742.9087   -10.19313  1.34545   5248.79412  0.04074  56136.06187  51.98907   6.14022  18.51068  56149.75924 
    15.03668  1.70265   4.05738       2.97729          4545.3166  0.09656  0.04863      0.0696   5.82018     16.91364   7145.32091   -12.53584  1.39563   4222.35505    5e-05  56133.71916  51.79665   5.68465  18.54891  56155.23211 
    14.49418  1.39366  10.84956       4.60113         4344.13133   0.0182  0.02279     0.01146   9.50272     18.43146   6834.99766   -22.52611   0.9034   3712.62597   0.0015  56123.72889  51.73429   1.20039  18.49549  56152.49568 
    14.62659  1.41548   5.22566       2.46907         3751.20397  0.00968  0.06208      0.0188   8.58346     21.24883   6618.67808   -27.63395  0.37609   5030.22077  0.98527  56118.62105   51.9883   0.62431  18.35385    56148.296 
    14.26126  1.29015   8.93277       4.50139         3931.87947  0.00862  0.17421     0.10939   1.62731     17.96532   4303.00156   -32.40674   0.9953   4580.95657  0.00051  56113.84826  51.70437   0.34843  18.47607    56148.296 
    15.02347  1.93666   4.18347       1.92827         4758.00867  0.08361  0.04335     0.15131   6.90558     16.71777   8059.90474   -18.85358  1.54211    3865.1603    3e-05  56127.40142  51.73774   5.12904  18.54174  56155.23211 
    14.67445  1.71377  11.34277       2.94359         3927.20251  0.02301  0.13133     0.14991   1.66705     17.87459   4900.06182   -24.93385  0.61899   4623.51816  0.00042  56121.32115  51.71614   0.93842  18.40652  56155.23211 
    14.98016  1.78066   2.89877       1.37227         4225.96807  0.13692  0.08193     0.01728   4.96198     16.25774   6140.74749   -23.36684  1.56479   4520.90977    1e-05  56122.88816  51.83863   7.74516  18.46235  56155.23211 
    15.08649  1.52961   7.41005       4.13394         4153.87865  0.15267  0.04662     0.17243    3.7849     16.61249   6340.03318    -6.90891  0.87989   5283.94783    2e-05  56139.34609  51.94294   8.03812   18.5383  56149.75924 
    14.84073  1.49417   3.20347         3.336         4241.69977  0.03991  0.02255     0.02217  18.87073     20.94664   7127.72852   -17.03694  0.93325     4840.134  0.49133  56129.21806  52.02549   3.02886  18.51297  56155.23211 
    14.69607  1.72032   5.61508       0.11385         3193.64951  0.01097   0.0272     0.12826  13.48987     19.36845   5989.22385   -46.16597  0.58032     3996.619  0.01298  56100.08903  51.83045   0.77945  18.45145  56155.23211 
    14.30972  1.45493   8.99372       0.57269         3766.25659   0.0179  0.18619     0.21108   0.72176     16.14048   6182.14569   -29.13951  1.06378   6455.25761    1e-05  56117.11549   51.8531   0.51344  18.61354    56148.296 
    15.04693   1.8361   1.85262       0.35781         5863.93272  0.06821  0.03867     0.04787   9.89456     16.78561   6643.76435   -17.35085  1.13234    5697.6237    3e-05  56128.90415  52.11014   4.53889  18.42462  56141.54993 
    14.54578  1.68502  11.85184       2.14034         4680.60698  0.00674  0.01402     0.14804  14.69863     19.05828   6140.35364   -23.64691  1.00756   3767.62821  0.00635  56122.60809  51.78672   0.48709   18.4804  56157.96855 
    15.17461  1.86929   9.32109       3.70787          4156.6898  0.09307  0.04092      0.1502   6.59786     17.65524   4538.32323   -15.28292  0.75411   4957.60745  0.00025  56130.97208  51.94926   5.64809  18.60287  56155.23211 
    14.90931  1.67409    5.6291       2.03696         3677.38708  0.02784  0.09089      0.0959    5.0454     21.25172    5685.8438     -29.496  0.22945    6056.2747  0.99186    56116.759  52.09444   1.58131  18.51803  56152.49568 
    14.79534  1.95631   8.55025       2.23878         2907.51537  0.09049  0.04796     0.17288   5.69447     17.10984    6024.1096   -19.82784  1.45997   5560.72339    7e-05  56126.42716  52.03347   5.29868   18.4136  56152.49568 
    14.42296  1.70877   12.6567       1.32721         4441.61893  0.04437  0.15865     0.42302    0.7988     16.18557   5491.18239   -18.00344  1.32818    6861.4894    1e-05  56128.25156  51.92777   1.33769  18.52829    56151.485 
    14.57788  1.32087   3.32041       0.00839         3754.30078  0.09526  0.06378      0.1164   6.29618      16.7304   6888.07289   -32.02946  1.05441   5059.34429    3e-05  56114.22554  51.96203   5.71643  18.51153  56152.49568 
    14.52188  1.68027  12.42872       4.91631         4300.22482  0.00929  0.02752     0.06727   7.58492     19.82951   5679.04228   -20.86745  1.06439   4211.94761  0.03752  56125.38755  51.82188    0.5827  18.41519  56149.75924 
    14.98129  1.44113   3.16723       2.45219         4366.22511  0.14865  0.05668     0.05491    4.9477     18.44308   6804.87445   -13.11602  1.36218   5608.92465  0.00154  56133.13898  52.02562   8.40224  18.54639  56149.75924 
    14.96181  1.72491   1.48797       0.39913          5693.2114  0.05354  0.02074     0.08394  12.51846     16.15365   8275.30295   -18.99614    1.282   5064.91059    1e-05  56127.25886  52.02955     3.745   18.5492    56151.485 
    14.74917  1.63917  12.99969         1.888         3040.94691   0.1728  0.05256     0.22115   3.36917     17.70372   5043.58204   -12.93692  0.92725   9750.50757  0.00028  56133.31808  52.46097   8.80679  18.45081  56152.49568 
    14.55884  1.75355   5.42347       0.03483         3414.94026  0.02213  0.02973     0.31821  12.29285     17.83733   6195.57889   -50.26756  1.10471   3201.05836  0.00038  56095.98744  51.62936   1.54241  18.56999  56155.23211 
    14.92123  1.86256   3.57542       0.27318         5953.95559  0.03913  0.01937     0.03958  17.02222     19.11654   6067.02822   -20.51701  1.21814   5573.06104  0.00727  56125.73799  52.13935   2.91104  18.45122  56155.23211 
    14.36969  1.42602  11.15915       3.44399         4224.69126  0.01854  0.02608     0.15369   9.59435     17.27432   5898.63706   -22.30142   1.3273    5122.8282   0.0001  56123.95358  52.01486   1.22525  18.41063    56151.485 
    14.52609  1.23143   6.87341       0.87505         3819.98108  0.00171  0.08899     0.03865   5.14254     20.59588   5939.68993    -36.1847  0.37693   5612.70235  0.21908   56110.0703  52.03047   0.09777   18.6508    56146.255 
