 log(Bfield)      Mns     Pspin  cutoff_power  cutoff_wavelength  fnickel    kappa  kappagamma   mejecta  log(nhhost)  temperature  texplosion  thetaPB     vejecta      A_V        MJD_0   log(KE)      M_Ni  Peak_mag     Peak_MJD 
    14.92985  1.58382    7.0463       4.85367         2188.81788  0.49465  0.01563     0.03767  53.38451     19.67664    5013.1595   -10.68121   1.2527  5485.13851  0.02639  57752.41879  52.21268  44.97493  21.56586  57852.14436 
    13.08723  1.90311  11.80719       3.15759         2369.45971  0.46082  0.01474     0.20744  68.97885     17.45356   3759.33562   -12.98642  1.17891  5480.78562  0.00016  57750.11358  52.22934  43.60698  21.88078  57815.65489 
    12.00278  1.32923  26.56571       4.87666         2233.37367  0.42419   0.0119     0.13982  56.08148     16.54755   3776.13162   -11.71595  0.50645  5056.20712    2e-05  57751.38405  52.14534  38.87056   21.6163  57844.32519 
    12.98543  1.50882   2.24959       0.45275          2349.6391  0.36712  0.01362     0.01842   87.0321      19.1144   5251.39304   -15.74207  0.86788  6678.01639  0.00723  57747.35793  52.41611  35.97449  21.72656  57818.26128 
    13.11648  1.83534    1.4638       3.96943         2368.19932  0.01971  0.03796     0.09682  35.02163     17.80718   4839.36878   -20.37984  0.81996  6556.14873  0.00036  57742.72016  52.33746   1.67165  20.80329  57914.69774 
    13.23035  1.69793   8.32924       1.69245          2221.6413  0.45584  0.01413     0.01095  61.84841     18.29591   8835.19093   -11.91372  0.94318  6234.61372   0.0011  57751.18628  52.33397  42.41609  21.78786  57828.68684 
    13.63264  1.56596    1.7582       4.64152         2479.67479   0.0011  0.02252     0.20747  67.05473     17.95216   4134.43591   -13.64632   1.3774  2741.76421   0.0005  57749.45368  51.62583   0.10344  21.62898  57844.32519 
    12.45466   1.4497  27.32695       2.91039         2361.09254   0.4609   0.0172     0.01722  67.89026     19.28388   4133.63787   -13.34489  0.78998  6058.43051  0.01068  57749.75511  52.31532  43.50896  21.83499  57831.29323 
    14.02936  1.73686   2.51543       0.04109         3265.44017  0.02851  0.02734     0.01859  55.42399     17.77984   9389.59696   -20.32169  0.44253  6188.59831  0.00033  57742.77831  52.32007   2.60777  21.52939  57844.32519 
    13.52527   1.6988   1.38266       3.02151         2100.95007  0.00123  0.04873     0.23316  46.53622     20.21871   8260.41691   -16.22519  0.55258  5356.00501  0.09193  57746.87481  52.18239    0.1098  21.88336  57823.47406 
    14.51908  1.39873   3.36823        1.7316         2262.14294  0.09158   0.0304     0.01529  14.57985     18.62178   5905.16189   -13.14247  0.13506   7019.9506  0.00233  57749.95753  52.32655   6.60748  21.47654   57841.7188 
    15.10058  1.79432  11.25871       4.08527         2364.91631  0.42391  0.01344     0.06634  55.89763     17.07323   3796.05349   -12.32037  1.52731  4918.30855    7e-05  57750.77963   52.1211  38.82472  21.60962  57831.29323 
    13.22652  1.87147  22.16651       3.51331         2642.87314   0.4843  0.01361      0.1475  92.47167     18.18349    8340.4167   -13.00781  1.29104  4259.59045  0.00085  57750.09219  52.02942  47.88165  21.56675  57844.32519 
    12.66917  2.00183   0.72462       0.05174         2901.96309  0.33028  0.05863     0.22615  15.00884      16.5337   9841.02305   -18.67538  0.55581   5253.3022    2e-05  57744.42462  52.07726   23.9692  21.56862  57846.93158 
    12.98671   1.5514   1.95709       3.37691          2570.4194  0.03191  0.01952     0.03757   8.00364     17.06882   7110.04484   -14.21754  1.44512  4393.84469    7e-05  57748.88246  51.86395   2.02577  21.70016  57833.89962 
    12.54141  1.40004  29.59069       1.44485         2036.53708  0.45154  0.01057     0.01732  72.40569      18.1002   5993.33321   -16.11818  0.44656  4720.78992   0.0007  57746.98182  52.10289  43.04504  21.83873  57826.08045 
    14.16286  1.69866   1.75356       1.49934         2836.74169  0.04377    0.036      0.0637  52.78333     19.36451   7148.45858   -16.56535  0.14868  6087.30988  0.01286  57746.53465  52.30237   3.97221  21.25959  57846.93158 
    13.00869  1.89324   1.24557       0.07546         3755.56947  0.31876  0.04198     0.11979  43.99054     18.41031   6762.36759   -22.14655  1.37124  4331.10695  0.00143  57740.95345  51.99392  28.09013  21.49665  57859.96353 
    13.58537   1.7443   1.97039       0.23264         3006.13295  0.01728  0.03314     0.04069  53.46004     19.86249   9642.10496    -14.8706  1.47359    5951.548  0.04048   57748.2294  52.28366   1.57116  21.84599  57828.68684 
    13.72032  1.14989  27.62327       2.28215         2223.54715  0.39167  0.01027     0.02015  54.67216     18.29167   7865.28802   -11.29059  0.62687  5836.29026  0.00109  57751.80941  52.26822  35.74697    21.446  57846.93158 
    13.86244  1.73443   2.67847       2.77431         2399.61968  0.30133  0.02437     0.01299  43.43939     18.88083   5113.00734   -18.18118  0.49027  4550.59176  0.00422  57744.91882  52.03596  26.49954  20.88976  57891.24023 
    12.09609  1.84766  15.32762       4.72648         2363.29201  0.49187  0.01266     0.26263  70.87682     19.59257   7593.87087    -14.3587  0.51601  4165.36008  0.02174   57748.7413  51.99276  46.73799  21.78465  57831.29323 
    13.19436  1.87028  12.31147       4.54766         2241.88891  0.42062  0.01243     0.11903  66.95073     17.15537   9298.83199   -11.54035  0.58742  5221.73443    8e-05  57751.55965   52.1853  39.62111  21.39069  57862.56992 
    13.73143  1.81798   3.36196        0.4908          4176.8389  0.26829  0.01071     0.25017  90.97459     17.59794   6254.23047   -18.64811  0.86056  4614.70036  0.00022  57744.45189  52.09793  26.46153  20.09635  57951.18722 
    13.81663  1.95876      2.85       0.06816         3104.87583  0.07627  0.01578     0.46344  62.93583     19.94033   7498.21514   -14.53912  0.88467  7121.91978  0.04842  57748.56088  52.45072   7.11626  21.76472  57836.50602 
    13.11568  1.86854   2.06181       0.68658          2545.8359  0.38889  0.03522     0.01006  24.03963     16.22377   5868.82109   -20.79743  1.49771  6157.27904    1e-05  57742.30257  52.25414   30.8719  21.86449  57828.68684 
    14.66158  1.69632  21.82371       0.04676         3564.17515  0.42373   0.0128      0.3198  56.99781     16.22545   7063.08777   -13.96221  0.43935  6981.72454    1e-05  57749.13779  52.42673  38.92845  21.89212  57831.29323 
    12.79277  1.63274  19.02943       2.34497         2004.99797  0.33324  0.01283     0.01075  98.09207     19.00354   9335.17835   -13.70168  1.45495  7102.93937   0.0056  57749.39832  52.47729  33.23164  21.21191  57862.56992 
    13.96017  2.17207    2.5992       0.41714         3427.90917  0.35519  0.02088       0.043  78.20792     18.59894   3130.64029   -11.24745  0.80217  4843.27731  0.00221  57751.85255  52.13019  34.25606  21.26118  57857.35714 
    12.23276  1.71307  10.37708       0.22061         3159.31654   0.4985  0.01317      0.0626  64.32028     16.23349   9700.44202   -16.75247  0.17194  5298.75259    1e-05  57746.34753  52.19533  46.66829   21.6762  57839.11241 
    13.92457  1.80771   4.04817       3.81706          2014.1561  0.49684  0.02341      0.4605  48.34857     18.64619   6746.23726   -14.19694  0.78581  5713.07542  0.00246  57748.90306  52.24114  44.46255  21.54515  57831.29323 
    14.37472  1.62195  22.40099        0.4064         3315.12461  0.42235  0.01586      0.0558  80.06102     17.94777   4662.52538   -18.87857  1.54145   5633.1552  0.00049  57744.22143  52.26293  40.87657  21.68667  57833.89962 
    12.56432  1.62649  21.30242       1.16648         2019.04174   0.4114  0.01708     0.03008   72.9992     17.72759   7132.59095    -16.3533  1.54666  7399.34713   0.0003   57746.7467  52.49378  39.26752  21.76589  57844.32519 
    12.23226  2.02587  10.36127       3.12573         2680.41866  0.45942  0.01223     0.02551  61.75657     18.96906   6328.32349    -15.1676  0.49016  3674.18286  0.00517   57747.9324  51.87457  42.74002  22.03351  57807.83571 
    14.54062  1.81786   3.92979       0.04419         2829.38036  0.37794  0.01825     0.01176  56.65934     19.66147   9120.77978    -16.7867  0.18479  6149.41453  0.02548   57746.3133  52.31606   34.6888  20.87998  57914.69774 
    13.41169  1.69308   1.68767       0.79102         2996.71236  0.04939  0.03117     0.23425  67.89949     17.25525   3883.80765   -17.68977  1.40585  4716.96639   0.0001  57745.41023  52.09793   4.66235  21.65133  57849.53797 
    13.36032  1.83705   2.37752       4.91099         2320.19841  0.02893  0.01016     0.01134   57.1008     19.07148   5293.87497   -24.61724  1.44282  3215.21508  0.00655  57738.48276  51.75334   2.65882  21.35346  57875.60188 
    13.42806  1.76489   1.57198       4.98983         2354.21579  0.01991  0.02519     0.25747  86.93572     17.89287    3717.9908   -17.60249  1.29034  3135.04768  0.00043  57745.49751  51.75923   1.95074   20.7566  57896.45301 
    13.56689  1.59068   1.72144       4.54807         2252.89039  0.00972  0.02215     0.33549  99.89468     18.73548   6439.53533   -14.32586  0.91293  4857.64588  0.00302  57748.77414  52.14841   0.97174  21.74008  57828.68684 
    13.02939  1.79407   1.68651       0.39964         3182.60027  0.00389  0.01761     0.01202  18.26458     18.21948   4218.53955   -15.80977  1.10829  5937.42642  0.00092  57747.29023  52.20026   0.29366  21.52053  57865.17632 
    12.43032  1.67685  21.30942       4.34217           2250.394  0.45483  0.01656     0.41238  99.68827     16.94405   9350.60793   -14.73053  1.00644   5516.2854    5e-05  57748.36947  52.25872  45.46238  21.98012  57818.26128 
    13.69094  1.38337  15.11298       4.52972         2395.96556  0.42463  0.01507     0.01828  49.26518     16.33196   4831.78883   -12.11033  0.13555  6327.89092    1e-05  57750.98967  52.33124  38.11523   21.5676  57839.11241 
    13.66418  1.82382   2.98114       0.23029         2706.49503  0.00895  0.01836      0.0572  30.90983     17.51751   5730.96609   -16.73422  0.99317  6440.71461  0.00018  57746.36578  52.31268   0.74307  21.73214  57833.89962 
     13.0513  1.88265   1.52912       0.10476         3181.20548  0.07837  0.02968     0.01861  31.39929     18.67005   9503.94357   -23.92078   1.2705  4762.62629   0.0026  57739.17922  52.05169   6.52407  21.52849  57844.32519 
    14.49907  1.65389  19.06029       3.78973         2088.79192  0.49207   0.0174     0.01083  82.27852     18.58834   9898.18184   -12.50433  0.66052   5928.6502  0.00215  57750.59567  52.30911  47.81928  21.09462  57865.17632 
    13.61613  1.61719   8.79143       3.62766         2316.36531  0.25689  0.01052     0.03086  91.75556     16.06568   3794.49057   -15.79402  0.88872  5894.68381    1e-05  57747.30598  52.31111  25.36933  21.32564  57862.56992 
    13.12491  1.77456   1.99006       0.37531         3140.24303   0.1356   0.0609     0.08016   5.77681     18.48288   4340.03545   -19.26377  1.55203  5098.37965  0.00169  57743.83623   51.9596   7.96849  21.76348  57844.32519 
    12.73371  1.85766  15.23486        0.2445         3742.89924  0.48508  0.01478     0.01813  65.93472     18.42214   3209.12535   -11.35347  1.46964  7393.84038  0.00147  57751.74653  52.48639  45.58601   21.4472   57870.3891 
    13.94728   1.8282  28.31371       3.48587         2369.32345  0.31548   0.0101     0.03309  63.40857     17.15568   5567.76298   -12.31868  0.52011  5785.61626    8e-05  57750.78132  52.27073  29.46915  21.55592  57836.50602 
    14.07581  1.53134  22.54026       1.24714         2546.68212  0.33081  0.01248     0.14591  86.50212     16.86852   3290.43187   -13.10118  0.22586  7285.26019    4e-05  57749.99882  52.49131  32.38762  21.56159  57846.93158 
    13.44022  1.76077    1.5196       0.28839         3469.16486  0.00562  0.05155     0.24746  46.05186     20.54645   3174.37683   -23.48872  1.56836  4636.66232  0.19552  57739.61128  52.05638   0.49866  21.26163  57883.42105 
    13.14961  1.63644   1.41216       0.31723         3591.94525  0.03194  0.03242      0.1314  35.28125     19.10323   7156.52375   -24.05096   1.2036  3625.98516  0.00705  57739.04904  51.82356   2.71245  21.42874  57857.35714 
    14.98839  1.43109  29.45564       2.70031         2505.62153   0.3227  0.01294     0.12207   98.4192     16.63098   7509.55058    -12.6715  1.02194  6500.64838    2e-05   57750.4285  52.40054  32.19592  20.77921  57922.51692 
    14.06432  1.55196   4.33587       4.44849         2343.63692   0.1406   0.0101     0.35568  29.72196     18.87733   7736.93222   -10.98361     0.39  7194.93507  0.00419  57752.11639  52.40589  11.59323   21.0714  57862.56992 
    13.38488  2.02095   2.08599       0.80851         2536.74296  0.01755  0.01561     0.04884  54.44628     19.02964    4749.0587   -20.09903  1.06055  4772.26204  0.00595  57743.00097  52.09311   1.60074  20.73958  57914.69774 
    14.09977   1.3387  24.01521       1.68473          2675.0227  0.32946  0.01044      0.0237  68.93833      16.1034   6269.41767   -12.28685  0.24095  6205.78526    1e-05  57750.81315  52.33721  31.17361  21.50675  57854.75075 
    13.29029  1.80452  12.82692       1.39731         2203.47205  0.32394   0.0138     0.02952  72.11486     16.62791   5985.07075   -15.01855  1.27944  7754.78286    2e-05  57748.08145  52.53373  30.86267  20.63615  57904.27218 
       14.01  1.70198  25.54311       2.62748         2427.35272  0.49766  0.01404     0.17054  58.91836     19.80715   4889.44193   -12.58844  1.00115   5339.7935  0.03563  57750.51156  52.19611  45.95859  20.11988  57990.28308 
     14.3645  1.40783  12.75826       0.00813         5562.89876  0.49531  0.01081     0.02119  60.13523       20.035   4716.49317   -13.78331  0.79732  6135.40955  0.06022  57749.31669  52.31814   45.8882  21.32501  57872.99549 
    12.39438  1.78062  25.02619       3.95469         2128.51734  0.43892  0.01495     0.07875  53.86055     16.90354   8341.22815   -12.66886  0.36947  5672.21123    4e-05  57750.43114  52.24242   39.9639  21.91434  57823.47406 
    14.46246  1.57267    3.6861       4.44126         2140.87044  0.17971  0.01697     0.14221  76.83339     17.26242     7535.336      -8.089  0.85817  8216.67335   0.0001    57755.011  52.58814  17.28618  21.42907  57865.17632 
    13.98679  1.60053   1.40548        1.3828         2972.35216  0.05487  0.01978     0.38484  98.51246     19.75443   3295.33225   -12.16303   0.3379  3258.33576  0.03156  57750.93697  51.80068   5.47504  21.39252  57852.14436 
    14.03866  1.87316  19.58771       1.47773          2363.8879  0.36318  0.01022     0.32323  51.21165     18.96523   8526.92961   -13.03143  1.56999  6025.12758  0.00513  57750.06857  52.29135   32.8033   21.7788  57831.29323 
    13.55896  1.90879   1.28493       0.31882         3463.54275  0.23886  0.04493     0.22378  93.12846     16.22649    9241.6286   -17.89016  0.77482  4211.85324    1e-05  57745.20984  52.02008  23.64029  21.66321  57826.08045 
    14.66201  1.63691   6.54248       4.12474         2399.44334  0.44382  0.01602     0.07435  29.59388     16.54564    3029.8555   -12.07578  0.31027  4490.65775    2e-05  57751.02422  51.99613  36.56714  21.11417  57862.56992 
    13.89709  2.07933   1.45341       3.35302         2187.81343  0.01524  0.04209     0.14974  67.40763     20.33718   8098.50255    -22.1204  0.29511  3780.35878  0.12076   57740.9796  51.90519   1.43742  21.47051  57846.93158 
    12.69275  2.06047  18.53323       0.20191         3199.96127   0.3697  0.01488     0.06633   92.4491     16.04788   3245.45773   -14.95392  1.35042   6630.3325    1e-05  57748.14608  52.41374  36.55042  21.40498  57862.56992 
    13.09979  1.79226   1.13477       2.25007         2318.54898  0.43746  0.02562     0.01588  88.43214     18.41761   4615.69886   -15.95598  0.44015  5545.78087  0.00145  57747.14402  52.25576  42.96825   21.0077  57906.87857 
    13.79568   1.7184   4.60607       4.42804         2235.22173  0.46193  0.01376     0.22345  22.90352     19.92516   7509.61844   -12.87929  0.73925  4588.37821  0.04676  57750.22071  51.99484   36.3471  20.68172  57922.51692 
     13.4039  1.87361   6.12306       3.51601         2440.56635  0.44189  0.01835     0.39879  85.09399     16.22334   7995.97646     -14.942  1.13428  5831.49001    1e-05    57748.158  52.29693  43.15787   20.5164  57979.85752 
    14.72827  1.59398   26.9252       0.04616         3138.09091  0.37129  0.01062     0.01151  78.22267     18.75893   4083.91206   -13.49847  1.50088  6622.74056  0.00319  57749.60153    52.402  35.81056  21.21233  57867.78271 
    13.01669  1.75952   2.64299       0.02825         4794.19283  0.40094   0.0154     0.01013  48.65418     19.44126   7104.46856   -13.23174  1.48792  8641.04561  0.01535  57749.86826  52.60098   35.9163   21.2144  57875.60188 
    12.72295   1.5634   0.90837       3.58922         2153.04963   0.0196  0.06259     0.09869  26.94012     17.21257   4146.57742    -20.7951  1.03076  5570.78247    9e-05   57742.3049  52.17612   1.58809  21.62713  57836.50602 
    14.72504  1.82033  13.87958       0.09565         3919.22167  0.35878  0.01027     0.20979   80.2203     18.21427   7042.24154   -16.26481  0.47082  6062.07819  0.00091  57746.83519   52.3268  34.73449  21.66576  57844.32519 
    14.75201   1.7842   6.70027       3.79549         2079.95924  0.33159  0.01265     0.24072  80.53081     16.16657   9291.26283   -11.88928  0.79125  5928.78725    1e-05  57751.21072  52.30774  32.12031  21.53713  57854.75075 
    13.76224  1.87141   3.58247       4.46306         2323.00353  0.40226  0.02014     0.04247  26.84713      20.4653   6214.22155    -19.9579  1.16646   3575.8123  0.16219   57743.1421  51.79077  32.57603  21.53906  57854.75075 
    12.67608  1.69523   1.04135       0.07658         4099.40947  0.28567  0.02679     0.23384  49.58093     16.50452   8550.02878     -17.429  1.12369  7026.44966    2e-05    57745.671  52.42264  25.66859  21.21102   57870.3891 
    12.86904  1.60094   1.56044       4.68553          2404.7461  0.07885  0.02706     0.07587  14.51916     17.39676   6857.11429   -16.34395  1.09988  6359.17472  0.00014  57746.75605  52.24032   5.68436  21.35071  57872.99549 
     13.4091  1.81667    1.9293        2.2195         2234.82382  0.20363  0.03589     0.08093   50.2024     19.38111   3416.02334   -18.34317  1.35636  5349.84395  0.01336  57744.75683  52.18672  18.33404  21.48266  57857.35714 
     14.1259  1.67393   6.07435       3.15211         2255.58675  0.47855  0.01498      0.0261  30.72812     18.68934   9046.72837   -13.25088  0.39683  5172.19961  0.00272  57749.84912  52.12172  39.68855  21.28465  57878.20827 
    12.96379  1.64399  10.68375       0.58952         2306.12882  0.37575  0.01254     0.19428  92.89568      17.1525   8683.40208   -14.15468  0.23257  6897.70938    8e-05  57748.94532  52.44838  37.17422  21.34758  57849.53797 
    13.11335  1.83166   1.18076       4.76304         2501.08259  0.20271  0.02939     0.11883  63.43124     18.59374   6118.71383   -16.10717  1.00082  3194.50977  0.00218  57746.99283  51.75486   18.9363  21.31177  57872.99549 
    12.36663  1.94321  28.64065       0.52153         2473.23063  0.34248  0.01038     0.03238  60.89835     18.67639   5620.39353   -13.06225  0.74428   6631.5301  0.00264  57750.03775  52.38653  31.79165  21.65729   57841.7188 
    14.28392  1.57541   18.5555       3.18635         2408.98626  0.44777  0.01446     0.10285   35.3088     17.31275   6201.22024   -13.01085   1.5528  5523.91918  0.00011  57750.08915  52.18926  38.03581  21.45882  57859.96353 
    14.42877  1.70093  26.85726       1.75243         2160.81364  0.38653  0.01088     0.21247  45.65276     17.28509   5786.90119    -14.4395  1.38273  5466.49803  0.00011   57748.6605  52.19877  34.27013  20.94198  57891.24023 
