 texplosion  fnickel    Pspin  log(Bfield)      Mns  thetaPB  mejecta    kappa  kappagamma      vejecta  temperature    alpha  cutoff_wavelength  log(nhhost)      A_V         MJD0  kenergy  mnickel            TSD   log(L0)  Peak_mag     Peak_MJD  log(E_rad)  log(Peak_lum)  Rise_Time    E_fold  tau_1  delta_m15     r_peak     frac 
   -8.05606  0.01383  5.48157     14.16717  1.68726  1.28505  1.94092  0.16412     0.02656   9816.89552   5219.76482  1.92043         2764.38422     17.12957    7e-05  56661.09394  1.11579  0.02685  2180047.45404  44.67975  19.27193   56693.0521     50.6888       44.18502   20.66083  24.37512   29.5     0.4863  -20.91691  0.99552 
   -6.03259  0.25838  5.73545     14.37823  1.75949  1.41925  5.24078  0.08018      0.0122  10225.11494   5214.09464  2.31556         2763.62177     18.68629   0.0027  56663.11741  3.26858  1.35411   941602.34315  45.02323  19.27604   56693.0521    50.70542       44.18558   17.52389  24.64968   29.5    0.47477  -20.91903   0.8126 
   -5.63463  0.00423  5.37038     14.42659  1.70845  0.82452  6.11535  0.06509      0.0164  10101.99522   5118.24563   3.0464         2591.03416     18.89228  0.00434  56663.51537  3.72274  0.02587   641583.44735  45.23418  19.26998   56695.1881       50.71       44.19119   15.28155  25.03444   30.5    0.44729  -20.90152  0.99597 
   -6.66456  0.00334  5.55768     14.30712  1.76341  1.51866   2.2372  0.19699     0.06939  11198.53983   4806.65513  2.83857         2579.39752     16.31363    1e-05  56662.48544  1.67361  0.00748  1229491.88007  44.93569  19.28535   56695.1881    50.69968       44.17264   17.52389  25.14068   31.0     0.4428  -20.94814  0.99881 
   -6.07718  0.11888  5.56161     14.41321  1.86083  1.56439  5.33941  0.08546     0.02256  10918.50906   4820.02885  2.41591         2618.07167     17.89614  0.00044  56663.07282  3.79706  0.63475   797080.20893  45.14665  19.31107   56695.1881    50.77716       44.22915   11.13057  29.17608   30.0    0.43281  -20.92868  0.91465 
     -7.387  0.01962  5.95852     14.38417  1.81348  0.66289  2.64342  0.12453     0.02503  10952.25328   5065.76655  2.30141         2457.80861     17.82521  0.00037    56661.763  1.89147  0.05187  1019226.43774  44.96881  19.27665   56693.0521    50.71047       44.18985   15.89172  26.01662   29.5    0.47335  -20.93278  0.99084 
   -6.15043  0.01561  5.77696     14.39632  1.81909  0.89239  4.53985  0.08443     0.02185  10921.12683    4859.2609  2.58707         2626.47631     19.66904  0.02593  56662.99957  3.23001  0.07089   908711.74892  45.04687  19.25763   56693.0521    50.70043       44.16588   17.52389  25.14068   30.0    0.45384   -20.9709  0.98843 
   -4.12433  0.01379  3.90262     14.42458  1.61764  1.29612  4.28694  0.14132     0.16032  11387.58785   4768.78675  2.59807         2626.87784     18.54698  0.00196  56665.02567  3.31618  0.05913    323785.9503  45.78476  19.26677   56695.1881    50.70623       44.18213    16.8739  25.79066   28.5    0.46374  -20.92441  0.99481 
   -6.09195  0.03481  5.46056      14.4186  1.91781  1.49942  2.73241  0.17105     0.07343  10782.51826   4646.22795  2.12919         2679.35552     16.91751    5e-05  56663.05805  1.89502  0.09511   772493.48098  45.18928  19.27398   56695.1881    50.71093       44.16752    16.8739  25.79066   30.5    0.45264  -20.91932  0.98728 
   -5.97224   0.0368   4.7406     14.49842  1.94477  1.50448  5.96705  0.09406     0.18527  10461.44561   4467.05037  2.08167         2847.84901     16.66726    3e-05  56663.17776  3.89556  0.21959   408804.10829  45.59453  19.27286   56695.1881    50.70549       44.17136    16.8739  25.79066   30.0    0.41947  -20.91454  0.97866 
    -5.6665  0.00712  4.63593     14.55052   2.0238  1.02607    3.925  0.13246     0.17825  10923.68496   4707.75503  2.20095         2577.80043     20.06388  0.06436   56663.4835  2.79386  0.02793   320050.10166  45.73752  19.28296   56693.0521    50.69738       44.17312    16.8739  25.79066   29.5    0.43862   -21.0087   0.9975 
   -6.00132  0.44811  4.96821     14.37579  1.65741  1.32186  2.44824  0.17929     0.03345  10496.49994   5071.93894  2.71539         2624.05427     19.32863  0.01184  56663.14868  1.60905  1.09708   673066.74698  45.26782  19.26134   56693.0521    50.69641       44.17425    16.8739  25.79066   29.5    0.46215  -20.94819   0.8674 
   -5.76873  0.05697  5.67396     14.33004  1.62501   0.8398  3.17919  0.10548     0.03936  11970.41952   4693.29665  1.97801         2642.69998     17.19215    9e-05  56663.38127  2.71745  0.18112  1062570.22839  44.94557  19.29948   56695.1881    50.67178       44.14946   17.52389  26.16242   31.0    0.47051  -20.96684  0.96686 
   -5.00483   0.0441  4.00398     14.50682  1.77998  1.19343  5.65348  0.11187      0.0978  11074.00352   4625.35229  2.55215         2651.32049     16.82564    4e-05  56664.14517  4.13573  0.24932   256783.42804  45.90471  19.28442   56695.1881    50.67977       44.15796   19.40683  26.16242   29.5    0.40149  -20.92965  0.98036 
   -5.44625  0.02139  3.64164     14.28604   1.4263   1.3474  3.15436  0.17769     0.35814  11068.96402   4583.96368  3.68918         2270.47471     19.80145  0.03517  56663.70375  2.30543  0.06747   470466.44626  45.62793  19.29219   56693.0521    50.74937       44.23214   15.28155  25.79066   30.0    0.43344  -20.94287  0.99374 
    -4.9866  0.04804  4.59104     14.51248  1.85242  1.09502  1.87661  0.30616      0.3228  11806.64374    4670.2298  3.06449         2378.41273     16.16828    1e-05   56664.1634  1.56047  0.09016   342310.55041  45.67834  19.26812   56693.0521    50.76062       44.23618   15.43006  26.00729   29.0     0.4401  -20.95395  0.99105 
   -5.85447  0.00744  3.81015     14.34511  1.44929  1.08705   3.5668    0.155     0.18469  10358.10284    4838.1091  2.78664         2697.46632     17.29511  0.00011  56663.29553  2.28279  0.02653   398687.06072  45.66749  19.29501   56695.1881    50.67036       44.14178   19.40683  26.16242   30.0    0.43131  -20.92471  0.99736 
   -5.36049  0.03476  4.67006     14.48551  1.89454  1.33615  3.19879  0.17472     0.15062  11053.02036   4583.84419  2.93216         2580.39029      16.0933    1e-05  56663.78951  2.33118  0.11118   410147.00585  45.59477  19.27106   56693.0521    50.73188       44.19526   12.72293  29.45064   29.5    0.44369  -20.95069  0.98898 
   -5.71188  0.09076  5.45901      14.4125  1.84771  1.26966  3.92559  0.11524     0.03909   11357.4868   4813.74179  2.69451         2448.02419     18.49813  0.00175  56663.43812  3.02062  0.35629   765038.10465  45.17757   19.2941   56693.0521    50.71079        44.1949    16.8739  25.03444   30.0    0.46546    -20.946  0.95145 
   -6.92638  0.03665  5.18365     14.43433  1.93431   1.4268  4.97244  0.10574     0.04572  10849.99182   4609.22544  1.93149         2715.77609     19.00731  0.00565  56662.22362  3.49185  0.18225   653075.02052  45.31114  19.27093   56695.1881    50.66926       44.15658   19.40683  25.14068   31.0     0.4332  -20.93779  0.97854 
   -8.54069  0.47291  6.00022     14.21796  1.74966  1.47807  3.06435  0.12005     0.01466   9854.38644   4807.49513  2.05852         2674.17671     17.75683  0.00032  56660.60931  1.77511  1.44916  2143770.23848  44.62429  19.28531   56693.0521    50.69892       44.18501   18.75685  25.29966   30.5    0.48589  -20.91175  0.78416 
   -4.61361  0.00541  3.99513     14.40202  1.63259  1.27141  3.29248  0.17424     0.09803  11397.10146   4967.55138  2.21702         2649.64162     19.55572  0.01997  56664.53639  2.55117   0.0178   379931.05999  45.69896  19.27386   56695.1881    50.68736        44.1656   17.52389  26.16242   28.5    0.44488  -20.96612  0.99837 
   -6.54116  0.24979  5.00584     14.48856   1.8422  1.25839  5.96469  0.08481     0.01184  10209.87707   5010.88718  2.38075         2643.22243     18.26864  0.00103  56662.60884  3.70899  1.48994    451832.5267  45.48025  19.28004   56695.1881    50.70548       44.16779   15.89172  26.77285   29.0     0.4318  -20.90984  0.84798 
   -4.76638  0.02525  4.11225     14.40447  1.69419  1.27886  4.43632  0.11952     0.06278  11098.09307   4880.63796  2.17815          2679.6615     20.07398  0.06587  56664.38362  3.25947  0.11203   413051.70098  45.65364  19.27341   56695.1881    50.65653       44.15536   20.93549  23.61202   29.5     0.4478  -21.00618  0.98981 
    -4.9615  0.01933  5.32996     14.41242  1.69776  0.92377  5.05243  0.07789     0.02252  10620.34451    5016.1693  2.32766         2745.59813     17.08094    7e-05   56664.1885  3.39942  0.09767   670340.61623  45.21898  19.26328   56693.0521    50.71856       44.20552   17.77466  26.00729   29.5    0.45952  -20.92782  0.98506 
   -5.69171  0.02073  5.00124     14.39883  1.71301  1.13286  4.55197  0.10636     0.04008  11233.50616    5038.2571  2.19337         2708.22191     16.21447    1e-05  56663.45829  3.42655  0.09436   633984.81869  45.30237  19.26985   56693.0521    50.72124       44.20042   17.77466  26.00729   29.0     0.4493  -20.94693  0.98747 
   -4.23483  0.00946  4.17548     14.51454  1.70075  0.92554  5.94976   0.0967     0.05294  11175.21377   4824.88244  2.59293         2581.44457     17.32074  0.00012  56664.91517  4.43239  0.05626   257505.36229  45.84729  19.25607   56693.0521     50.7036       44.18403   17.48408  26.28185   28.5    0.44305  -20.93243  0.99473 
   -6.56921  0.12545  5.19692     14.45941  1.91442   1.1956  3.73146  0.14102     0.04648  11476.40771   4757.42464  2.78865         2374.84145     19.64884  0.02475  56662.58079  2.93169   0.4681   578790.74966  45.35687  19.29392   56693.0521    50.70333       44.17538    16.8739  25.79066   30.0    0.41543  -20.96951  0.94563 
   -4.83711  0.02209  4.98808     14.49855  2.00359   1.2381  3.63766  0.13961     0.09299  11154.37685   4747.54574  2.31707         2656.95047     20.07779  0.06645  56664.31289  2.69985  0.08037   465997.76993   45.5064  19.26626   56693.0521    50.71122       44.17633   18.75685  25.79066   30.0    0.44751   -21.0038   0.9916 
   -6.39874  0.01586  6.00253     14.34281  1.93476   1.5328  4.71483  0.08949     0.02106  11055.58697   5117.41456   2.3778         2544.46685     17.51907  0.00018  56662.75126  3.43761  0.07478  1335032.95414  44.87331  19.27352   56693.0521    50.69095       44.17849   19.11624  24.64968   29.0    0.45722  -20.93775    0.988 
   -6.09013  0.00954  5.60903     14.43385  1.80738  0.88106  2.59972   0.1519     0.03632  10149.76401   4960.27248  2.16811         2799.84314     16.78395    3e-05  56663.05987  1.59759  0.02479   716059.38685  45.17317   19.2759   56695.1881    50.69695       44.18002   19.40683  24.64968   30.0    0.43583  -20.91461  0.99613 
   -4.22277  0.10243  4.33603     14.64523  1.91037  0.88352  2.83237  0.23546     0.11898  12032.48846   4853.29093  2.32247          2774.6011     18.77721  0.00333  56664.92723  2.44618  0.29011   170863.82184  46.04313  19.27566   56693.0521    50.69866       44.17295   15.89172  26.77285   28.0    0.44464  -20.97173  0.97601 
   -5.54568    0.132  4.40638     14.57005  1.57835  0.60329  1.98394   0.2651     0.16046  11476.52225    4547.1705  2.37613         2462.24972     16.69091    3e-05  56663.60432  1.55875  0.26187   206098.59112  45.86481  19.29738   56695.1881    50.69477       44.16945    16.8739   26.8124   30.5    0.43828  -20.94655  0.97008 
    -4.3233   0.1273  3.38256     14.41121  1.53949  1.47263  3.37031  0.18402     0.08611  11223.50507   4947.06322  2.46425         2615.19754     18.99821  0.00553   56664.8267  2.53253  0.42905   246181.49758  46.00648  19.26701   56695.1881    50.69205       44.17174   17.52389  26.16242   29.0    0.42985  -20.92925  0.97054 
   -5.71144  0.04026  5.09643     14.38828  1.79625  1.41513  3.50533  0.13023       0.051  10730.37424   4854.67888   2.3495         2759.11811     19.70839  0.02839  56663.43856  2.40761  0.14112   724680.85069  45.24853  19.28661   56693.0521    50.68757       44.16198   18.46626  25.79066   30.0    0.45739  -20.96418  0.98198 
   -7.63982  0.04226   4.4234     14.28209  1.38786  0.84445  3.15701   0.1513      0.0331  10663.48827   4833.12755  3.26272         2485.51534     17.56461   0.0002  56661.51018  2.14142  0.13342   687838.94271  45.28219  19.25152   56695.1881    50.75119        44.2295   16.41224  25.29966   29.5     0.4232   -20.9332  0.98105 
   -5.67353  0.00407  4.42593     14.46774  1.77322  1.02906  4.77111  0.11505     0.04932  10594.66693   4833.11843  2.69267         2568.70001     19.72694  0.02963  56663.47647  3.19463  0.01942   374212.10749  45.65248  19.29296   56695.1881    50.73349       44.20131   15.89172  26.01662   30.0    0.41855  -20.94866  0.99807 
   -6.97613  0.07865  5.66005     14.36361  1.87847   1.4529  3.37347  0.13241     0.03785  11291.82013   4744.24722  1.81473         2717.52505     19.36911    0.013  56662.17387  2.56586  0.26534  1047229.55969  45.01697  19.24867   56693.0521    50.70611       44.18427    16.8739  25.03133   29.5      0.446  -20.96568  0.96159 
   -4.04392  0.05101  4.08028     14.52598  1.76504  1.11445   4.1655  0.15629     0.43434  11842.24024   4721.60949  1.99113         2850.26872     18.31871  0.00116  56665.10608  3.48468  0.21248   242098.14923  45.91023  19.27858   56695.1881    50.68422       44.17669   17.52389  24.64968   28.0     0.4581  -20.95663  0.98236 
    -6.4444  0.00586  6.59795     14.28599  2.05541   1.3691  2.75609  0.11624     0.02584  11026.06614   5011.03399  3.25704         2427.05007      16.8602    4e-05   56662.7056  1.99877  0.01616  2226169.08264  44.59537  19.27077   56695.1881    50.68444       44.16309   17.52389  25.14068   30.0    0.48806   -20.9539  0.99709 
   -8.18867  0.35646  6.48073     14.28125  1.94768   1.5695  3.45121   0.1071     0.01526  10621.12196   4853.01115  2.00862         2488.83931     18.53589  0.00191  56660.96133  2.32241   1.2302  2080133.14942  44.61702  19.27781   56693.0521    50.71245       44.18265   15.89172  26.28185   29.5    0.50029  -20.92455  0.81159 
   -5.43136  0.02626  4.08179     14.36053  1.56463  1.37101  6.14925  0.08803     0.05028  10305.00719   4543.66241  2.38853         2843.38449     19.47894  0.01674  56663.71864  3.89534   0.1615   460126.43264  45.57868  19.28001   56693.0521    50.70908       44.17366    16.8739  25.79066   30.5    0.41735  -20.92497  0.98379 
   -6.91762  0.05718  5.06248     14.42213  1.86268  1.32948  6.04492  0.09117     0.01973  10643.64975   4970.94375  2.59124         2509.96255     17.57129  0.00021  56662.23238  4.08507  0.34564   634468.91689  45.32785  19.28239   56693.0521    50.70508       44.18328   18.75685  25.79066   29.5    0.41818  -20.90791  0.95972 
   -4.97506  0.03128  4.76374     14.52693  1.80471  0.90729  3.10068  0.17339     0.08853  11264.34798   4719.89839  2.41595          2642.7088     17.12331    7e-05  56664.17494  2.34691    0.097    335946.6314  45.64309   19.2732   56695.1881    50.71509       44.17737   15.89172  26.77285   29.0    0.44346  -20.95187  0.98921 
   -4.71359  0.03929  4.19912     14.30351  1.51866  1.47167  3.04542  0.17245     0.11213  11551.08319   4729.43379   3.4691          2387.6359     19.49424  0.01734  56664.43641  2.42393  0.11965   614579.98419  45.41541  19.28266   56695.1881    50.72089       44.19383   17.48408  26.77285   29.5     0.4474  -20.97304  0.98663 
   -4.91955  0.01792  4.35947     14.45253  1.78642  1.30115  2.92978  0.20087     0.14515  11201.19354   4709.73798  2.17264         2616.36499     18.43602  0.00152  56664.23045  2.19276  0.05251   392292.11035  45.64835   19.2743   56695.1881    50.71148       44.19245    16.8739  25.29966   29.0    0.43528  -20.93313  0.99502 
   -4.56445  0.02064  3.91762      14.7022  1.83404  0.66846  4.18837  0.15461     0.13656  11390.12277   4680.67304  2.74482         2455.09302     19.11311  0.00721  56664.58555  3.24137  0.08645   103007.38268  46.33334  19.27313   56693.0521    50.69937       44.16967   19.40683  26.16242   28.5    0.41265  -20.92784   0.9937 
   -4.42104  0.00566  4.54681     14.52498  2.10592  1.37097  2.67824  0.19435     0.17652  10572.02968   4743.93825  2.50771         2649.12352     20.40683  0.14176  56664.72896  1.78564  0.01517   360337.25424  45.72016  19.26027   56693.0521    50.67793       44.16038   19.40683  25.14068   29.5    0.42021  -21.03779  0.99877 
   -4.82791  0.11304  4.29889     14.26516  1.40211   1.4202  4.16479  0.10811     0.05612  10587.79808   4415.47755  2.85789         2665.11682     17.13094    8e-05  56664.32209  2.78504   0.4708   709547.20559  45.29793  19.26663   56695.1881    50.68097       44.16433   17.52389  25.14068   32.0     0.4346  -20.92351  0.94066 
   -7.05261  0.04929  5.06469     14.29541  1.59794  1.12076  4.53312  0.09636     0.02739  10931.68985   4951.42846  1.83106         2734.47786     18.54247  0.00194  56662.09739  3.23146  0.22342   976495.46179  45.07363  19.27222   56695.1881    50.66997       44.15639   17.52389  25.14068   30.0    0.45264  -20.93771  0.96679 
   -6.44205  0.15498  5.65391     14.35486  1.81877  1.48456  3.34008  0.12126      0.0311  10707.40779    4984.7044  2.48833          2624.6846     18.35882  0.00127  56662.70795   2.2843  0.51765    1053335.434  45.00136   19.2948   56693.0521    50.69702       44.15977   18.46626   26.8124   30.5    0.45354  -20.94428  0.92455 
   -4.11733  0.15169  3.17298     14.57906  1.81083   1.4258  4.60553  0.14663     0.17242  11138.98409   4437.74412  3.37218         2601.78654     19.09978  0.00699  56665.03267  3.40877  0.69861   117627.96721  46.45328  19.28432   56693.0521    50.67866       44.15375   19.40683  26.16242   30.0    0.39775  -20.92306  0.96839 
   -5.55214  0.15546  4.42746     14.41775  1.67716  1.34543  2.93555   0.1844     0.11509  11371.66169   4560.65537  1.87301         2805.62356      17.7713  0.00033  56663.59786  2.26446  0.45637   445869.31719   45.5519  19.27705   56693.0521      50.706       44.18195   17.77466  26.28185   29.5    0.45578  -20.95274  0.95294 
   -6.99911  0.17657  4.95441     14.26154  1.53259  1.25777  3.91448  0.12915     0.02226  11333.77234   4814.61394  2.42359         2493.48636     16.93551    5e-05  56662.15089  2.99951  0.69117  1047482.76264  45.04414  19.27557   56695.1881    50.74733       44.24644   19.11624  24.64968   27.5    0.46251  -20.94285  0.90239 
   -7.79349   0.0121  6.35539      14.3358  2.03539  1.06551  3.93515  0.08489     0.01465   9892.30837   4956.01269  2.07531         2630.65183     16.57921    2e-05  56661.35651  2.29712  0.04762  1626084.70126  44.76007  19.29153   56695.1881    50.72971       44.19631    16.8739  25.29966   30.5    0.45657  -20.89666  0.99197 
     -7.733  0.11121  5.83473     14.30654  1.79612  0.91044  3.39458  0.10976     0.01539    10215.006   4991.71762  3.07347         2452.95467     16.27545    1e-05    56661.417  2.11296  0.37753  1383902.38027  44.85003  19.29599  56695.47266    50.71153       44.19891   20.67275   24.8965   29.5    0.47938  -20.92416  0.93876 
   -5.20747  0.00964  4.59526      14.4337  1.79973  1.54346  3.33086   0.1682     0.11468  10944.20601   4738.09304  2.66512         2630.96751     18.84075  0.00385  56663.94253  2.37986   0.0321   478899.62215  45.51919  19.25755   56693.0521     50.6837       44.18236   19.11624  24.38445   29.5    0.44279  -20.92906  0.99664 
   -6.41631  0.00441  4.22723     14.39846   1.7121  1.48794  3.00329  0.19131     0.06264  10037.94148   4876.12338  1.95943         2923.40846     17.94789  0.00049  56662.73369  1.80515  0.01326   453457.23401  45.59373  19.27363   56693.0521    50.74274       44.22519   17.48408  26.00729   29.5    0.41396  -20.89918  0.99874 
   -3.93984  0.09733  4.99021     14.60006  2.05385  1.11597  2.06388  0.27167     0.20289  10919.52189   4604.18297  2.27172         2804.10113     16.83667    4e-05  56665.21016  1.46798  0.20087   299572.55834  45.70867  19.26377   56693.0521    50.70881       44.19379   15.89172  26.00729   29.0    0.43497  -20.91339  0.98007 
