 texplosion  fnickel    Pspin  log(Bfield)      Mns  thetaPB   mejecta    kappa  kappagamma     vejecta  temperature    alpha  cutoff_wavelength  log(nhhost)      A_V         MJD0   kenergy   mnickel              TSD   log(L0)  Peak_mag     Peak_MJD  log(E_rad)  log(Peak_lum)  Rise_Time     E_fold  tau_1  delta_m15     r_peak     frac 
  -19.99763  0.47461  1.61923     13.11395  1.97339  0.38404  26.01223  0.26471     0.01049  8939.87787   9951.50974  1.74624          3104.8774     18.16177  0.00081  58833.56237  12.40132  12.34556   28428119.20585   44.6917  18.91256     58962.39    51.32343       44.10565  102.10814  122.08722  114.0    0.03039  -21.30366   0.7226 
  -26.55772   0.2577   2.1667     13.29377    1.727  0.59721   19.1469  0.25595     0.01061  6475.87652    9862.1834  2.34897         2860.32331     17.73449   0.0003  58827.00228   4.78986   4.93415   19461123.31097  44.54537   18.9657  58967.42674    51.29358       44.07813  113.41918  121.26107  114.0    0.03118   -21.2802  0.84526 
  -26.74245  0.29064  2.03051     13.34176  1.70879   0.4203  20.15981  0.31012     0.01649  8300.63252   9966.75325  3.08135         2882.26491     18.25123  0.00099  58826.81755   8.28583   5.85922   13558000.73672  44.75413  18.95816   58969.4397    51.35154       44.10279  107.78058  126.59329  118.0    0.02724  -21.26788  0.82353 
  -29.86227  0.15687  2.11517     13.50438  1.69819  0.38896  20.80664  0.31932     0.01423  7791.63781   9906.31938  0.67622         3211.50692     18.20185  0.00088  58823.69773   7.53506   3.26402    6913916.65449  45.00842   18.9607  58967.42674    51.29962       44.07759  115.88482  125.74736  114.0    0.02656  -21.27013  0.90128 
  -26.67148  0.29489  1.89755     13.19945  1.75867  0.48714  20.11615  0.28429     0.01422  7906.34547   9966.45839  3.18657          2933.5371     19.00489  0.00562  58826.88852   7.50108   5.93204    23468384.7773  44.58716  18.97633  58965.39722    51.31602       44.09157  114.25179  124.91475  120.0    0.03023  -21.25406  0.82962 
  -29.36415  0.09837  2.20227     13.33804  1.83135  0.57754  18.29814  0.29266     0.01512  7417.04194   9906.72289   1.7688         3125.48475     18.68674   0.0027  58824.19585   6.00476   1.79999   17388008.06197  44.60562  18.97558     58965.26    51.28615       44.06797  114.14138  123.00451  118.0    0.02747   -21.2491  0.94101 
  -31.42715  0.19923  1.88944     13.32879  1.68754  0.43225   19.1794  0.31353     0.01214  7084.56672   9995.49651    3.146         2450.77228     18.42071  0.00146  58822.13285   5.74234   3.82121   12307322.57256  44.85327  18.94973  58967.42674     51.3285        44.1089  111.77723  122.87034  120.0    0.02397  -21.25613  0.89583 
  -34.13391  0.16792  1.82592       13.443  1.71858  0.31646  20.76519  0.31708      0.0101  6914.36991   9994.28923  2.42841         2496.65556     17.90281  0.00044  58819.42609     5.922   3.48695    6917603.32691  45.14109  18.98756  58967.42674    51.32834       44.09395  113.41918  128.21299  124.0    0.02367  -21.22973  0.91126 
  -29.70001  0.20711  2.31924     13.41773  1.80777  0.51087  19.09261  0.28693      0.0131  6882.14854   9942.93525  2.58759         3035.69749      18.4071  0.00142  58823.85999   5.39437   3.95425   13188123.06828  44.67511   18.9472  58964.36245    51.27416       44.06571  110.95355  120.81609  116.0    0.02919  -21.24959  0.86756 
  -26.90746  0.20542  1.78693      13.6808  1.50792  0.15973  26.34296  0.27014     0.01322  8808.70393   9982.98759  1.02383         3115.98893     17.65738  0.00025  58826.65254  12.19314   5.41129     1944490.1766   45.6542  18.96604  58967.42674    51.27153       44.05778  110.95355  120.81609  116.0    0.02772  -21.26929  0.84988 
  -27.80251  0.21076  2.66269      13.5969  1.75296  0.47242  22.79344  0.23154     0.01033  6243.23783   9881.41309  2.77349         3198.52071     17.95237   0.0005  58825.75749   5.29977   4.80389    7386301.59956  44.79355  18.95597  58964.36245    51.28998       44.08386  110.95355  120.50012  112.0    0.02442  -21.26775    0.815 
  -27.73247  0.18778  2.23743     13.59435  1.79129  0.29758  23.23055  0.26826     0.01405  7947.11328   9995.75317  2.94078         3002.18656     18.52578  0.00186  58825.82753   8.75196   4.36231    5392485.26246  45.09072  18.92754     58962.39    51.30272       44.08065  105.31864  123.69649  116.0    0.02985  -21.25047  0.85805 
  -26.75322  0.24899  2.23568     13.38465   1.7286  0.48087  19.42278  0.27846     0.01422  7381.29272   9928.59865  3.24266         2989.87141      17.7116  0.00029  58826.80678   6.31253     4.836   13646991.71636  44.67269  18.93056  58967.42674    51.32318       44.10061  113.41918  123.28172  114.0    0.03054  -21.26743  0.83815 
  -27.66988  0.15765  1.59797     13.38321  1.59692  0.25702  23.18831  0.26365      0.0105  8047.29901   9811.86187  0.77099         3420.92803     19.36972  0.01302  58825.89012    8.9577   3.65574     6483505.6462  45.25319  18.96434  58965.39722    51.30328       44.08761  111.78616  122.89409  120.0    0.02592  -21.28459  0.91028 
  -23.29757  0.38159  1.92305     13.10412  1.75363  0.60933  23.60127  0.24324     0.01072  7700.06212   9897.49569  1.57877          3197.6898     17.75323  0.00031  58830.26243    8.3474   9.00612   37281285.53695  44.37331   18.9549  58967.42674    51.32148       44.09488  111.77723  123.28172  114.0    0.03068  -21.27788  0.75145 
  -24.16116  0.34281  1.91619     13.18326  1.60561  0.53398   21.2749   0.2529     0.01047  7218.84524   9903.60925  2.34414         2958.02157      17.2027    9e-05  58829.39884   6.61348   7.29335   23539854.69099   44.5378   18.9695  58967.42674    51.33503        44.1032  113.41918  128.21299  114.0    0.02584  -21.26948   0.7879 
  -26.95065  0.15909  1.72225     13.75048  1.46554  0.13141   23.3483  0.28105     0.01248  8359.31211   9998.73023  1.45347         3050.93161     16.31537    1e-05  58826.60935   9.73248   3.71458    1273619.22017  45.85761  18.92912  58965.39722    51.31885       44.10479  111.78616  122.44911  116.0    0.02791  -21.27079  0.89649 
  -26.95609  0.28013   2.1107     13.23501  1.87102  0.57881  18.72626    0.309     0.01751  8373.92744   9987.65103  2.55046         2969.41327     18.72217  0.00293  58826.60391   7.83315   5.24577   26225146.78038  44.47335  18.96068   58969.4397    51.31637       44.09139  117.50451  124.12766  118.0    0.02889  -21.24357  0.84039 
  -27.27294  0.30143  2.24952     13.46305  1.91845  0.38343  19.97832  0.28679     0.01277  7310.76199   9953.54179  4.12669         2900.02465     16.75059    3e-05  58826.28706   6.36959   6.02216   10686588.39181  44.81877  18.94245   58969.4397    51.30142       44.10252  115.03888  116.41479  118.0    0.02689  -21.25978  0.81523 
   -28.5895  0.22338  2.37516     13.62829  1.79105  0.31587  20.17404  0.28084     0.01517  7475.32812   9974.28726  4.15334         2741.46335     17.07767    7e-05   58824.9705   6.72482   4.50653    5196822.15176  45.05483  18.95995  58965.39722    51.29973       44.07135  111.78616  127.38038  114.0    0.03027  -21.25148  0.84503 
  -31.58082  0.12709  1.99054     13.41253  1.70572  0.42299  21.40596  0.30356     0.01058   7182.2868   9957.63708  3.87192         2493.36412     17.89639  0.00044  58821.97918   6.58699   2.72043    9388617.50966  44.93021  18.96903     58965.26    51.29205        44.0728  111.67575  124.60573  116.0    0.02884  -21.24109  0.92258 
  -27.18472  0.28568  1.81858     13.24541  1.51584   0.4275  19.03843  0.29238     0.01466   7824.5574   9956.76602  1.76032         2886.93638     18.50029  0.00176  58826.37528   6.95309   5.43887   15035439.51209  44.75292  18.97848  58964.36245    51.29921       44.07499  113.41918  125.74736  114.0    0.03177  -21.24787  0.83903 
  -25.36139  0.43544  1.89653     13.10173  1.61807  0.59403  21.20064  0.28184     0.01463  7852.59896   9956.41774  2.47978         2657.93879     17.15971    8e-05  58828.19861   7.79836   9.23164   33828574.06223  44.39264  18.94389  58967.42674    51.31279       44.08484  110.95355  123.28172  118.0    0.02934  -21.26499  0.73734 
  -27.29499  0.21163  1.96388      13.5754  1.58328  0.23834  24.95728  0.22575      0.0113  7557.00626   9913.54094  2.60664         2805.96873     17.20082    9e-05  58826.26501   8.50206    5.2816    4006900.27257  45.27936  18.99772   58969.4397     51.2926       44.06406  119.97015  126.59329  116.0    0.03073  -21.29228  0.83992 
  -28.89739  0.07996  1.98947     13.20348  1.76048  0.59122  18.79075   0.2807     0.01536  8038.85071   9957.79671  3.67511         3179.46268     16.88056    4e-05  58824.66261   7.24368   1.50256   25348898.99994  44.51304  18.95079  58967.42674    51.28704       44.07231  113.41918  121.26107  120.0    0.02828  -21.24993  0.95167 
  -27.74092  0.30277  2.26816     13.38687  1.88194  0.46912  21.05532  0.27026     0.01321  7527.61894   9952.98328  2.02611          3046.1502     17.44594  0.00016  58825.81908   7.11712   6.37484   15136809.89988  44.65207  18.97057  58964.36245    51.31846       44.09344  110.95355  125.74736  116.0    0.02479  -21.24928  0.80182 
  -26.77796   0.3165  1.96473     13.20508  1.74366  0.54186  19.89244  0.30748     0.01498  8234.31303   9972.77433  3.23473         2746.95675     18.01662  0.00058  58826.78204   8.04581   6.29598   24306488.32414  44.53798   18.9603  58965.39722    51.28626       44.07245  111.78616  122.44911  116.0     0.0288  -21.25123  0.81957 
  -24.76137  0.24661  1.33813     12.96237  1.64922  0.43865  20.75634  0.29615     0.01448  9059.16577   9980.35369  0.93952         3179.44036     18.98048  0.00531  58828.79863  10.16142   5.11866   32610154.11198  44.71978  18.94312  58967.42674    51.30376       44.08968  111.77723  121.26107  122.0    0.03017  -21.27646  0.88837 
  -26.57275  0.21312  1.96594     13.12005  1.74083  0.68495  21.25803  0.27141     0.01538  8309.82503   9943.41153  2.95666         3045.43705     18.22003  0.00092  58826.98725   8.75657   4.53052   35942989.01561  44.36685  18.96235  58965.39722    51.29735       44.07345  111.78616  124.91475  118.0     0.0305   -21.2796  0.86372 
  -25.73208  0.20295  1.84747     13.02704  1.74983  0.80131  21.92633  0.25545     0.01162  7678.52106   9893.35477  1.94769         3037.82111     17.01728    6e-05  58827.82792   7.71167   4.44994    48964285.5249  44.28881     18.95  58967.42674    51.31432       44.09506  113.41918  122.86229  120.0    0.02807  -21.27239   0.8778 
  -24.01596  0.40117  2.30755     13.25499  1.85725  0.58421  20.42164  0.26161     0.01444  7682.32247   9867.83535  2.67219         3157.18402     17.93307  0.00048  58829.54404   7.18957   8.19254   28379973.92119   44.3584  18.95832  58965.39722    51.33923       44.08949  114.25179  134.77728  114.0    0.02972  -21.26182  0.73118 
  -27.43966  0.17023  2.13255     13.21333  1.56986  0.71816   19.5486  0.26001     0.01225  6974.16831   9926.38459  3.68942         3048.85321     16.51701    2e-05  58826.12034   5.67189   3.32781   24820787.54533  44.41209  18.97019  58965.39722    51.28851       44.07345  111.78616  122.89409  112.0    0.03048  -21.26287  0.88269 
  -26.71475  0.30816  2.20228     13.30903   1.7527  0.55782  19.65271  0.25572     0.01175  6787.00362   9888.82101  2.15037         2822.78632     18.43839  0.00152  58826.84525   5.40015   6.05615   19019928.59447   44.5476  18.95681     58968.37     51.3187        44.0932  114.17816  124.98838  114.0    0.03108  -21.26337  0.80945 
  -25.98862  0.28226  2.09314     13.47207  1.89572  0.32711  23.21873   0.2684     0.01268  7965.13037   9956.27681  2.53025         2992.53801     17.93787  0.00048  58827.57138   8.78722   6.55372    8770769.24594  44.96198  18.96638  58965.39722    51.29178       44.08054  111.78616  121.27678  118.0    0.03032   -21.2915  0.81535 
   -27.7446  0.25346  1.86527      13.2656  1.60502  0.42978   19.5735  0.31197     0.01705  8508.40927   9976.89195  3.44555         2695.59055     18.15675   0.0008   58825.8154   8.45264   4.96103   15260543.43734  44.74927  18.96862  58967.42674    51.31961       44.09267  113.41918  125.74736  118.0    0.02914  -21.25177  0.85379 
  -28.34206  0.23293  2.24121     13.53992  1.90171  0.31982  17.38349  0.33035     0.01999  8448.28538   9984.88264  3.97911         2992.55202      17.3865  0.00014  58825.21794   7.40119   4.04917    7380516.38327  44.97894   18.9534      58965.3    51.31026       44.06873  110.06598  129.92424  118.0    0.02476  -21.26482  0.86829 
  -30.95258  0.16365   1.8497     13.16335  1.66125  0.62024   20.8161  0.30893     0.01392  7791.50027   9958.86916  3.29575         2420.22336     19.08817  0.00681  58822.60742   7.53822   3.40646   24874773.44693  44.55932  18.94588      58965.3    51.29581       44.07586  110.06598  124.57354  120.0    0.02725  -21.25658  0.90642 
  -31.07743  0.19907  2.18686     13.55566  1.74572   0.3528  19.23358  0.32745     0.01403   7236.1134   9978.56838  3.24955         2614.35018     18.13872  0.00076  58822.48257   6.00756   3.82883    5999538.24749  45.05306   18.9737  58965.39722    51.30007       44.07388  111.78616  124.91475  116.0    0.02938  -21.26398  0.88187 
  -28.34745  0.26602  2.47879     13.67417  1.68238  0.33054  18.56724  0.32561     0.01747  7455.89453   9981.41269  3.83443         2799.97129     18.07774  0.00066  58825.21255   6.15707   4.93927     4304128.1833   45.0724  18.96198     58968.11    51.30682        44.0815  113.96896  125.19759  110.0     0.0294  -21.25481  0.81899 
  -27.51168  0.35206  2.22491     13.41716  1.63017  0.46931   21.5858  0.27365     0.01043  6808.89527   9872.94674  1.63201         2866.56998     18.55378  0.00199  58826.04832   5.96965   7.59943   10973874.69483  44.74609  18.95487  58967.42674    51.30517       44.09171  113.41918  121.26107  110.0     0.0311  -21.26961  0.76466 
  -28.30182  0.22413  2.07653     13.38017  1.72888  0.43358  19.70274  0.27805      0.0136  7234.34387   9987.60744   3.0894         2742.54068     17.45878  0.00016  58825.25818   6.15109   4.41593    12020227.4915  44.79202  18.96664     58968.37      51.328       44.09174  112.53621  127.45401  118.0    0.02671  -21.27596  0.86537 
  -24.51929  0.34104  1.68315     13.09533  1.52952  0.50024  18.62027  0.29319     0.01532  8181.36934   9977.79733   2.3076         2802.32608     17.34097  0.00012  58829.04071   7.43473   6.35026   25938769.55762   44.5872   18.9562  58967.42674    51.28517       44.06747  111.77723  121.26107  116.0    0.03222  -21.27995  0.82545 
  -25.40716  0.32849  2.41329     13.45536  1.86814  0.43801  17.57076  0.27362     0.01486  7036.77017   9939.42861  2.92008         3161.14271     17.62133  0.00023  58828.15284   5.18996   5.77177    12408417.9823  44.68132  18.99914  58967.42674    51.30147       44.07171  113.41918  125.74736  114.0    0.03005  -21.27353  0.80059 
  -28.19459  0.18629  2.09244      13.3413  1.90126  0.46442  18.46991   0.3162     0.01834  8454.17908   9986.69747  3.59015         2810.95461     17.71964  0.00029  58825.36541   7.87472   3.44084   16052980.39136  44.70103   18.9801  58967.47685    51.32121       44.08143  111.81755  128.17267  120.0    0.02743  -21.25859  0.89646 
  -27.44632  0.25709  2.12485     13.43383   1.8245  0.37563  20.43682  0.29057     0.01472  7774.47626   9962.15258  3.31079         2823.05674     17.74213  0.00031  58826.11368   7.36856    5.2541   10374102.04901  44.85938  18.95767  58967.42674    51.32101       44.08572  111.77723  128.21299  120.0     0.0237    -21.259  0.84099 
  -22.49762  0.33859  1.57612     12.94123  1.86745  0.63565    23.264  0.29646     0.01062   8728.2407   9891.80202  3.15251         3073.80603     18.21864  0.00092  58831.06238  10.57219   7.87706   56466578.89356  44.39312  18.97738  58967.42674    51.30038       44.08709  115.88482  121.26107  118.0    0.02921  -21.29033  0.82291 
  -28.30155  0.21107   2.0643     13.41386  1.67044  0.38554  20.96164  0.25745     0.01202   7168.7163   9945.11381  3.29417         2931.21017     17.25044   0.0001  58825.25845   6.42592   4.42432    9828246.25568  44.86965  18.98172     58962.39    51.32366       44.09002  109.36644   129.8001  118.0    0.02471  -21.27161  0.86031 
  -26.75589  0.28261  1.88456     13.18466  1.67068  0.50599  19.17935  0.29552     0.01677  8236.78757   9991.75066  2.52899         2987.21937     17.85568   0.0004  58826.80411   7.76206   5.42034   23539887.54853  44.56952   18.9602  58965.39722     51.2986       44.08653  111.78616  121.27678  120.0    0.02565  -21.25641  0.83912 
  -30.45403  0.13673  2.43621     13.49816  1.73199  0.53613  23.00999   0.2703     0.01265  6976.08507   9962.94147  3.57755          2887.6904     17.60388  0.00022  58823.10597   6.67986   3.14623    9626375.61431   44.7505  18.94878  58967.47685    51.30584       44.09359  111.81755  121.22075  114.0    0.02359  -21.25911  0.88691 
  -30.71465  0.22059  2.42103     13.61661  1.82973  0.32943  19.59146   0.2917     0.01581  7379.58644   9996.04052  3.99308         2848.38355     16.52681    2e-05  58822.84535   6.36441   4.32173    5820815.51018  44.99825  18.93239  58965.39722     51.3163       44.09136  110.14421  124.91475  116.0    0.02976   -21.2257  0.84793 
  -28.64435  0.29828  1.94193     13.18747  1.64602  0.59215  18.33741  0.29365     0.01341  7136.24808   9960.73615  3.10227          2392.8901     18.15308  0.00079  58824.91565   5.57064   5.46977   24309315.33891  44.52304  18.93506  58967.42674    51.37027       44.12517  110.18406  130.67863  118.0    0.02618  -21.24598  0.84105 
  -24.62207  0.42366   1.6096     12.88002  1.92096  0.77167  23.91966  0.30302     0.01092  8758.83736   9947.61157  2.46432         2658.37124     16.60179    2e-05  58828.93793  10.94649  10.13385   80304384.72344  44.23419  18.94305  58965.39722    51.30361       44.07979  109.32053  124.91475  120.0    0.02565  -21.25264  0.77883 
  -29.03805  0.16104  2.18142     13.33938  1.55226  0.55332  19.83817  0.24933     0.01277  6713.83769   9941.72754   2.8587         3018.11969     17.76614  0.00032  58824.52195   5.33421   3.19467   14371431.29487  44.62483  18.94622  58964.36245    51.32607       44.08781   109.3116  128.21299  114.0    0.02617  -21.24956  0.88359 
  -26.51333  0.25883  1.52576     13.10614  1.62093  0.44929  19.85617  0.33529     0.01191  8149.68855   9932.67437  1.87671          2779.6051     19.23585  0.00956  58827.04667   7.86692   5.13944   21491509.41748  44.77937  18.96051  58964.36245    51.27839       44.05994   109.3116  123.28172  120.0    0.02738  -21.27626  0.88395 
  -26.08214  0.32749  1.53396      13.0147  1.36904  0.52281  18.55437    0.292     0.01436  7847.66691   9978.87093  1.77937         2610.68618     19.67498  0.02629  58827.47786   6.81639   6.07637   27954591.28145  44.58718   18.9723  58967.42674    51.32746       44.08139  113.41918  130.67863  116.0    0.03218  -21.27441  0.83818 
  -30.06956  0.20944  2.00105     13.26292  1.77653  0.54084  17.76878  0.31108     0.01254  7058.64801   9965.17605  3.16168         2780.48858     17.48827  0.00017  58823.49044   5.28114   3.72147   19682084.94051  44.62183  18.95088  58967.47685    51.31069        44.0865   113.4595  125.70704  118.0    0.02976  -21.24436  0.89187 
  -28.62142  0.21407   2.2326     13.44616  1.90375  0.44602  20.23213   0.2824     0.01049  6918.17714   9891.13484  1.86931         3095.45603     17.55433   0.0002  58824.93858   5.77633   4.33116   11290761.25709  44.79811  18.95355  58965.39722    51.33348       44.10782  110.14421  127.38038  116.0    0.02704  -21.25395  0.87022 
  -31.61542  0.09284  2.17943     13.33253  1.76077  0.61472  20.34161  0.29072     0.01266  7227.71725   9953.23327  4.10889         2701.38248     18.48641   0.0017  58821.94458   6.33891   1.88842   16793225.78414  44.61273  18.96697  58964.36245    51.31126       44.07601  113.41918  128.21299  114.0    0.03049  -21.24878  0.93901 
