 texplosion  fnickel    Pspin  log(Bfield)      Mns  thetaPB   mejecta    kappa  kappagamma      vejecta  temperature    alpha  cutoff_wavelength  log(nhhost)      A_V         MJD0   kenergy  mnickel            TSD   log(L0)  Peak_mag     Peak_MJD  log(E_rad)  log(Peak_lum)  Rise_Time    E_fold  tau_1  delta_m15     r_peak     frac 
  -13.60906  0.44872  1.90588     14.90911  1.76281  0.38757  11.79095  0.04124     0.04458   8848.20458   6645.37697  0.73316         2769.72088     21.24319  0.97257  58022.51094   5.50664  5.29078     9036.26033  47.99887  22.53526  58066.64439    51.15671       44.51647   13.82906  29.06065   77.5    0.26543  -21.12142  0.92436 
  -17.43004  0.20162  0.84957     14.58587  1.86199  0.85978  26.56007   0.0176     0.19226    8921.9155   3899.57343  0.11384         3059.06775     21.28215  1.06384  58018.68996  12.61167  5.35503     8403.14872  48.75599  22.54029  58064.30728    51.13878       44.50382   16.59488  27.67775   79.5    0.25801  -21.07799  0.99354 
  -14.43267  0.31974  1.86509     14.83062  1.76745  0.48733  15.66067  0.02436     0.03333   8673.99632   6283.33927  0.10517          4102.6559     21.18562  0.85181  58021.68733   7.02872  5.00736    12454.30745  47.87947  22.52507  58064.30728    51.12457       44.49075   12.44616  29.04103   84.0    0.31429  -20.98986  0.93333 
  -14.10887  0.31074  2.65099     14.10882  1.39682  1.47445   6.83025  0.05734     0.45931    9483.9962   4901.98718   1.2285         2105.37591     21.27349  1.04285  58022.01113   3.66477  2.12242   552241.22796  45.82504  22.47627  58061.97017    50.73329        43.9985    20.7436  35.95557   52.5    0.32689  -21.21574  0.90216 
  -17.03038  0.28023  1.87398     14.61804  1.84715  1.10877  13.53932  0.04211     0.02703   9776.95354   5246.86802  0.00294         3136.95072      21.1561  0.79585  58019.08962   7.72025   3.7941    34975.31335  47.44606  22.54295  58066.64439    51.05084       44.42766    20.7436  27.65813   60.0    0.30008   -20.8791  0.95549 
   -9.76568  0.49262  1.37127     14.67152  1.49566  0.98028   9.96575  0.05225     0.06017  10374.05183   3324.59052  1.11434         2848.88242     21.17637  0.83388  58026.35432   6.39785  4.90932    11853.68193  48.09558  22.50476  58064.30728    51.45196       44.95598   10.59215  21.29586   70.0    0.31613  -20.99188  0.97799 
  -16.88031  0.32529  2.96366     14.36624  1.80695  0.99135   9.16502  0.03783     0.10774   8639.96998   5454.85391  0.21548         3636.41329     21.25066  0.98943  58019.23969   4.08117  2.98133   272852.69235  46.14621  22.54922  58066.64439    51.52326       45.03345   11.06325  23.50941   62.5    0.30959  -21.13044  0.88575 
  -14.63224  0.33442  1.71794     14.55356  1.75535   0.8192  13.17123   0.0367     0.05023    8675.3557   3013.62608  0.60895         2888.82425     21.27127  1.03752  58021.48776   5.91328  4.40477    37591.06321  47.46811  22.52939  58061.97017    50.81733       44.07508   19.36069  34.57266   65.5    0.28076  -21.18479  0.94576 
  -13.06645  0.31784  1.14038      14.8757  1.68263  0.33042  17.62114  0.02646     0.03031   9269.97898    7643.1563  0.44551         3122.40215     21.31808  1.15559  58023.05355   9.03272  5.60074     3601.71676  48.82422  22.54399     58064.05    51.26354       44.72483   16.59488  26.09024   63.0    0.29203  -21.35108  0.97531 
  -15.21686  0.20924  0.93441       14.699  2.03958  1.23966  26.18374  0.02151     0.01111   9982.35008   3016.64216  0.08846         3684.23441     21.22437  0.93132  58020.90314  15.56411  5.47861     6613.49946  48.81688   22.5194  58066.64439    51.21267       44.59193   12.44616  27.47315   62.0    0.29126  -21.09651  0.99606 
  -14.68296  0.38737  0.84828     14.44166  1.91314  1.01965  11.57638  0.03526     0.08184   8874.48059    7412.5251  0.07774         4764.90295     21.33921  1.21322  58021.43704   5.43859  4.48436    16723.25692  48.47019  22.52181     58064.05    51.34911       44.78515   13.82906  24.89232   57.0    0.34394  -21.38428  0.99256 
   -15.4915  0.19477   0.8905     14.55228  1.67984   1.0215  23.99131  0.02232     0.04115   9100.31438   5769.25259  0.08625         3173.95658     21.23033  0.94419   58020.6285  11.85206   4.6728     9722.89085  48.60705  22.51263     58064.06    51.30106       44.74405   11.06325  24.89232   69.5    0.32009  -21.11014   0.9936 
  -15.52254  0.17588  1.28308      14.8476  1.80997  0.34374    28.695  0.01371     0.13585   8504.09248   8317.26078  0.15522         2196.17158     21.28628    1.074  58020.59746  12.37911    5.047     5582.00711  48.56322  22.49932  58064.30728    51.12622       44.53981   12.44616  26.27522   64.0     0.2975  -21.19792  0.96963 
  -15.75341  0.28073  4.67502     14.33773  1.70815  1.10611   7.64712  0.05071     0.19403   8851.39592   6828.26447  1.18775         2154.35795     21.12099  0.73404  58020.36659   3.57395  2.14679   731907.67014  45.29735  22.49196  58064.30728    51.20158       44.64753   11.06325  26.27522   57.0    0.29831    -20.884  0.79758 
  -17.08189  0.31449  1.89941     14.30891  1.60776  1.26339  10.14483  0.04353     0.05401   8680.67577   4833.54155  0.22272         2968.12888     21.24904  0.98576  58019.03811   4.56015  3.19045   129855.08338  46.80437  22.56727  58064.30728    51.24864       44.64201   13.82906  26.27522   59.0    0.31294  -21.08614  0.93932 
  -15.49697  0.29741  2.13212     14.67542  1.78791  0.79183  12.86016  0.03281     0.07351   8353.95842   4223.27077  0.18253         4380.24018     21.14523  0.77618  58020.62303   5.35375  3.82477    33646.99728  47.33662   22.4692     58064.05    51.04857       44.44119   16.59488  24.70733   69.0    0.31446  -20.89895   0.9314 
  -14.69514  0.27011  0.80055     14.43476  1.63464  1.24718  18.33178  0.02361     0.18359    9305.7425   5785.34271  0.03132         4230.13912     21.26508  1.02283  58021.42486   9.46965  4.95168    13136.68128  48.55701   22.5414  58064.30728    51.59087       45.11501   11.06325   22.1265   72.5    0.33629  -21.16586   0.9939 
  -19.36688  0.00827  2.34128     14.31402  1.94908  0.74464  10.53979  0.02659     0.25222   8540.98698   6345.12526  0.03036          4532.0489     21.31857   1.1569  58016.75312   4.58644   0.0872   233619.21243  46.45126  22.45281  58064.30728    51.05513       44.40857    11.6767   28.2426   55.0    0.30655  -21.31155   0.9979 
  -18.36185  0.33523  1.96368     14.34612  1.74951   1.1881  11.29879  0.03092     0.01394   7992.48225   5599.12886  0.09009         5767.40758     21.24437  0.97521  58017.75815   4.30549  3.78768    127244.3454  46.82098   22.4739  58064.30728    50.91115       44.19408   15.21197  31.80685   59.0    0.29028  -21.04771  0.93224 
  -14.01374  0.29203  1.89116     14.51666  1.59684  0.82245  11.35739  0.04786     0.04629   8706.97966   5944.65633  0.74714         2398.81898     21.20395  0.88854  58022.10626   5.13619  3.31674       49115.51  47.22743  22.49558     58064.05    50.87143       44.17223   19.36069  31.80685   57.5    0.29522  -21.03383  0.94051 
  -15.96912   0.4771   5.5087      14.7548  1.79322  0.98026   7.30255  0.04317      0.0253   8298.12632   6441.46849  0.18047         4639.47309     20.89049  0.43174  58020.15088   2.99959  3.48406   156296.86139  45.84643  22.50626  58066.64439     51.1431       44.52206   11.68262  28.23669   70.0    0.29858   -20.5131  0.65799 
  -14.67816  0.45335  2.38932     14.21684  1.59126  1.11128   5.45561  0.07341     0.10146   7782.33357   8641.04957  1.92464         2106.21794     21.30551  1.12264  58021.44184   1.97102  2.47333   310763.96449  46.22161  22.48982  58064.30728    50.90045       44.14838   21.99281  34.70635   49.0    0.26834  -21.22253  0.92245 
  -15.94513  0.33527  1.18757     14.53284  1.75363  0.98804  14.77313   0.0291     0.02914   8978.95844   4412.34302  0.15067         4839.84412     21.25663  1.00313  58020.17487    7.1048  4.95305    19741.81227  48.06808  22.50069  58061.97017    51.05752       44.42892   12.44616  27.65813   69.5    0.31433  -21.14148   0.9798 
   -18.1507  0.09878  4.48253      14.3409  1.80366  1.08628  12.45197  0.02794     0.06611   8799.55949   6239.56619  0.07328         5128.48916     21.09986  0.69918   58017.9693   5.75158  1.23003    700205.3791  45.37673  22.45238     58064.05    51.22817        44.6865   15.21197   22.1265   50.5    0.32703  -20.86859  0.89031 
  -16.12374  0.42782  1.06019     14.53479  1.91577   0.9283  16.19432  0.02858      0.0211   7987.13476   4161.24938   0.5985         2993.94123     21.33863  1.21158  58019.99626   6.16271  6.92833    17034.75437  48.26909  22.58208  58064.30728    51.25059       44.63342   17.65724  29.36158   84.0    0.24251   -21.2759  0.98051 
  -14.22566  0.20317  1.07104     14.56606  1.76262  1.01232   24.8528  0.01957     0.04234  10116.46464   6409.64811  0.01678         3257.72218     21.24928   0.9863  58021.89434   15.1726  5.04928    13850.66145  48.31392  22.56364  58066.64439    51.28505       44.68238   13.82906  27.65813   72.0    0.33913  -21.17297  0.98724 
  -15.13163  0.29701  4.76258     14.36001  1.79921  1.52333   8.59035  0.04312     0.44027   8085.94024   5285.50919  1.55816           2757.102       21.152  0.78836  58020.98837   3.35042  2.55139   722055.12635  45.30967  22.48167  58064.30728    51.25921       44.72149   13.06552  24.27295   61.0    0.31023    -20.934   0.7758 
  -15.06024  0.23041  1.35736     15.09563  1.97166   0.3304  19.11605  0.02527      0.0288   9099.23189   3790.85331  0.16224         4138.22309     21.19645  0.87332  58021.05976   9.44136  4.40462     2171.58677  48.96151   22.4763  58064.30728    51.39068       44.87046   11.96914  23.98643   66.0    0.33939  -21.06108  0.98346 
   -13.9917  0.38642  1.30343     14.57646   1.7228  0.86881   8.91184  0.06085     0.07225   8299.99123   6173.99243  0.74254         2751.54119     21.24097   0.9676   58022.1283   3.66227  3.44372    19112.21914  47.99359  22.47517  58064.30728    51.27104       44.75683   11.06325  24.33955   56.0     0.2921  -21.09519  0.98109 
  -14.94649  0.22191  3.79465     14.25335  1.81579  1.05695  11.63615  0.03258     0.12808   7731.89416   8628.65208  2.99529         2471.39523     21.31163  1.13858  58021.17351   4.14962  2.58212   756015.56938  45.49104  22.45006     58064.05    50.93849       44.32537   17.97778  27.65813   53.5    0.26881   -21.3036   0.8448 
  -15.29465  0.28334  1.48148     14.70786  1.72032  0.70593  18.77368  0.01647     0.12488   8828.05798   3688.73423  0.14375         4530.34742     21.19367  0.86775  58020.82535   8.72784  5.31934    13461.70342  48.03396  22.53528  58066.64439    51.22097         44.607   11.06325  29.04103   86.0    0.32823  -20.98083   0.9634 
  -15.75165  0.28652  2.10005     14.28072  1.47553  0.81982  11.37395  0.03773     0.03583   8678.31271   4733.88878  1.22569          2370.3655      21.3252  1.17471  58020.36835   5.10986  3.25884   165871.97178  46.57356  22.49067  58064.30728    51.22765       44.63615   11.06325  26.27522   58.5    0.29503  -21.32875  0.91298 
  -11.15047  0.35037  0.81782     14.47185   1.7004  1.33617  14.92173  0.03359     0.29325   9948.01807   3554.23393   0.9226         2078.85714     21.30769  1.12828  58024.96953   8.80886  5.22818    12021.87679  48.59411   22.5177  58064.30728    51.21111       44.65537   12.44616  23.50941   67.0    0.34264  -21.28023   0.9943 
  -18.08432  0.08951  4.97547     14.38425  1.39952  0.53984  11.80088  0.03204     0.16075   8310.46603   6094.37475  0.70425         3504.82989     21.02188  0.58427  58018.03568   4.86174  1.05631   548241.59536  45.28218  22.49522     58064.05    51.16358       44.54497   11.06325  26.27522   53.0    0.30552  -20.76257  0.83868 
  -17.06293   0.0322  2.56874     14.29035  1.55114  0.65178   4.85164   0.0603     0.21129   8616.08027   6684.07038  0.09507          2973.0016     21.25247  0.99356  58019.05707    2.1485  0.15623   249577.26013  46.24285  22.50617  58061.97017    51.03968       44.42632   19.04606  26.60947   48.0    0.33706  -21.14131  0.99362 
  -17.06667  0.18379   5.5249     14.33216    1.768  1.01216  12.54975  0.03253     0.28714   8347.16393   6247.73937  1.75721         2741.16508     21.15508  0.79398  58019.05333   5.21603  2.30657  1085483.75059  44.99605  22.51328  58064.30728    50.69274       43.91281   24.89232  44.25301   64.0    0.26505  -20.92862  0.73329 
  -13.40959  0.28397  1.54058     14.65154  1.66906  0.77532  16.69732  0.03232     0.04798   8940.70126    4974.7366  0.91718         2883.35148     21.23567  0.95586  58022.71041   7.96191  4.74157    18304.97717  47.85338  22.54777  58066.64439    51.20641       44.60481   11.68262  28.42167   67.5    0.30486  -21.13441   0.9602 
  -16.90619  0.30775   2.6398     14.34359  1.68759  1.02417  10.76652  0.04533     0.05438   8529.27422   4989.24081   0.8557         2457.11977     21.26335  1.01878  58019.21381   4.67226  3.31342    224415.5887  46.30192  22.53106  58064.30728    51.14586       44.54963   13.06552  27.03876   61.5    0.27471   -21.1487   0.8886 
  -17.80281  0.19984  1.40553     14.18795  1.93639  1.41553  16.85514  0.01803      0.0293   8451.09429   4449.00892  0.23184         2479.57564     21.39117  1.36741  58018.31719   7.18101  3.36834   149479.30896  47.08558  22.52206  58064.30728     51.5432       45.05897    9.68034  22.20766   69.5    0.29377   -21.4576  0.97217 
  -13.86626  0.35704   2.3818     14.67269  1.72554  0.79673   12.6603  0.02513     0.02396   8710.70228   6057.86241  0.28158         3428.32458     21.14903  0.78299  58022.25374    5.7303  4.52025    41037.17554  47.13878  22.49517  58064.30728    51.28017       44.70052   13.82906  24.89232   76.5    0.32676  -20.89877  0.89328 
  -16.79479  0.33277  2.20262     14.48308  1.70273  1.27397  11.22014  0.03661     0.03292   8117.66009   7361.41747   0.1334         5407.51124     21.15125    0.787  58019.32521   4.41049  3.73371     82924.4843  46.89543  22.44771  58064.30728    51.28823       44.74598    9.68034  24.89232   66.5    0.28807  -20.84741  0.91902 
  -14.70538  0.17565  1.51089     14.42603  1.72273  1.22256  19.01796  0.02283     0.05913    8952.9494   3221.29629  0.12486         3204.18234     21.22178  0.92578  58021.41462   9.09334  3.34056    51339.18923  47.43615  22.49729     58064.05    51.26575       44.71306    9.68034  23.50941   56.0    0.34848  -21.10343  0.96842 
   -16.1714  0.27912  4.11456     14.20514  1.67153  0.89699   5.48376  0.05855     0.24725   7921.20259   7990.40906  2.70862         2223.46093     21.24563  0.97804   58019.9486   2.05252  1.53065  1021649.01709  45.25401  22.52095  58064.30728    51.57777        45.1404   12.44616  20.82476   58.0    0.26154  -21.10052  0.87278 
  -16.96201  0.13077  0.86172     14.44796  1.94663  0.77354  32.84735   0.0101     0.47429   7584.41274   3528.91941  0.19309         2717.23444     21.35109  1.24687  58019.15799  11.27123  4.29552    17057.30717  48.45549  22.57071  58066.64439    51.47395       44.97819   12.44616  23.50941   77.0    0.27575  -21.25154  0.99071 
  -17.92028  0.20948  6.30516     14.57991  1.60347   0.5527   8.44509  0.05199     0.12186   8642.33754   4786.58171  0.91214         2173.64274     20.89457  0.43581  58018.19972   3.76265  1.76906    409694.1415  45.26206  22.53462  58064.30728    51.09296       44.37857   15.21197  31.80685   55.0    0.28195  -20.56602  0.70407 
  -13.99581  0.30765  0.85005     14.30714  1.46384  1.48312  18.00041  0.02203     0.08988   9445.61146   4830.50342  0.10035         3535.59225     21.28962   1.0823  58022.12419   9.58009  5.53776     23873.3266  48.19754  22.52545  58066.64439    51.39717       44.88302   11.96914  24.81065   74.0    0.35041  -21.28502  0.98716 
  -14.61462  0.36536   1.2768     14.57782  1.87005  0.93895  15.70961  0.03098     0.16775   9837.25308   4219.30114  0.35457         2906.00032     21.29959  1.10744  58021.50538    9.0686  5.73968    19781.84904  48.03219  22.49746  58061.97017    50.72558        44.0258    20.7436  35.95557   71.0     0.3059  -21.31561  0.97399 
  -18.15036  0.22757  1.32773     14.37119  1.51261  0.61852  17.62375  0.02021     0.01124   8519.64524   3191.47859  0.08952         5191.37097     21.33456   1.2003  58017.96964   7.63077  4.01062    44810.77969  47.55097  22.50195  58064.30728    51.16456       44.53747   11.06325  29.04103   59.5    0.30258  -21.29208  0.95873 
  -15.67362  0.23935   3.6321     14.55844  1.90158  1.41669  12.67122  0.03333     0.01855    7444.7255   5738.12621  0.38966         5124.48257     21.06304  0.64234  58020.44638   4.18931  3.03283   177980.43544  46.17727  22.48329  58064.30728    51.13648       44.52434   13.82906  27.65813   61.0     0.2858  -20.79831  0.84844 
  -17.24537  0.24456  7.04844     14.42423  1.79266  0.87031   6.71536  0.05665     0.24003   8660.49332   6195.57665  1.55205         2583.96403     20.95286  0.49841  58018.87463   3.00457  1.64229   1172296.6087  44.75712   22.4922     58064.05    51.11423       44.42761   12.44616  30.42394   60.5    0.29219   -20.6526  0.70692 
  -15.55118  0.29782  4.79963     14.28139   1.7464  0.97549   7.99977  0.03616     0.08878   8415.62424   3066.32522  2.01765         2495.76924     21.23903   0.9633  58020.56882   3.37969  2.38252  1022356.18376  45.13897  22.54135  58064.30728    51.40937       44.90382   12.44616  23.50941   66.5    0.28957  -21.06905  0.77595 
  -15.19708  0.43193  2.64044     14.77915  1.79122  0.73604  10.09426  0.03673     0.01118   8433.92912   4906.34155   0.4654         3328.64503      21.1274  0.74496  58020.92292   4.28313  4.35998    32063.33259  47.17263  22.51987  58066.64439    51.44954       44.94074   12.44616   22.1265   56.0    0.29376  -20.82241  0.88436 
  -15.78578  0.17506  1.06357     14.36904  1.68268  1.33514  28.52708  0.01357     0.02567   8493.31094   5674.40131  0.14983         3935.73239     21.28738  1.07672  58020.33422  12.27548  4.99402    32304.95883  47.93204   22.5332  58064.30728    51.31299       44.73554   13.82906  26.27522   75.5    0.32437  -21.19333  0.98076 
  -18.58178  0.29547  4.42018       14.589  1.77915  1.44626  10.04655  0.05247      0.0527   8774.50655   7127.99306  0.03173         5424.08493     20.92435  0.46674  58017.53822   4.61413  2.96844   214243.78515  45.89727  22.48896  58066.64439    51.24647       44.71394   13.06552  24.27295   67.0    0.27635   -20.5513  0.77638 
  -18.56107   0.1844  4.81969     14.27337  1.92101  1.22606  10.04432  0.03052     0.47926   8835.89626   7154.27421  0.22973         3767.62768     21.17773  0.83649  58017.55893   4.67788  1.85214  1176638.26914  45.11569  22.52506  58066.64439    51.12778       44.48342   19.36069  29.04103   59.0    0.29094  -21.00746   0.8361 
  -17.96076  0.10752  1.28308     14.21909  1.77049  1.43283  25.91021  0.01654      0.0884    8867.8777   3075.49912   0.1663          3064.9011     21.35196  1.24935  58018.15924  12.15451  2.78592    98680.71144   47.3062  22.51807  58064.30728    51.50117       45.03941   11.96914  22.60352   56.0    0.31686  -21.37177  0.97897 
  -14.05338  0.40788    1.574     14.56114  1.63483  0.55454  13.49193  0.02617     0.01189   8491.92671   4121.01729  0.42708         2935.36899     21.30933  1.13255  58022.06662   5.80382  5.50302    28379.74909   47.6353  22.54801  58064.30728    51.15975       44.52637   13.05961  28.42759   63.0    0.30527  -21.28839  0.93309 
  -17.04515  0.27896  7.14538     14.69892  1.55767   0.6143   7.60672  0.05997      0.0219   7977.23304   6540.02255  0.64465         4430.46451     20.75084  0.31302  58019.07485   2.88755  2.12197   295456.28007  45.28278  22.49416     58064.06    51.56336       45.08871    9.68034  23.50941   52.5    0.28301  -20.46258  0.59792 
