 texplosion  fnickel    Pspin  log(Bfield)      Mns  thetaPB   mejecta    kappa  kappagamma     vejecta  temperature    alpha  cutoff_wavelength  log(nhhost)      A_V         MJD0  kenergy   mnickel             TSD   log(L0)  Peak_mag     Peak_MJD  log(E_rad)  log(Peak_lum)  Rise_Time     E_fold  tau_1  delta_m15     r_peak     frac 
  -12.53547  0.43521  4.84477     13.85214  1.36877  1.30179  26.29311  0.02037     0.06016  3467.62991   4928.49624   2.8273         3703.05668     16.82013    4e-05  59044.88453  1.88597  11.44315   5893978.70648  44.26422  18.87563  59117.42943    51.30156        44.2295   47.49004   97.73654  137.5    0.06643  -21.31643  0.32213 
  -13.54677  0.37644   5.4132     14.23499  1.77585  0.58913  30.95061  0.02028     0.03367  4031.01456   5114.19421  2.47229         3619.36318     18.95252  0.00498  59043.87323  3.00003  11.65101   1637350.25996   44.8372   18.8282  59117.42943    51.30846       44.23011   50.06202   97.73654  132.5    0.06493  -21.36935  0.35634 
  -12.50986  0.44414    5.639     14.17313  1.90322  0.76864  24.27506  0.02265     0.05921  3452.62265   7353.25798    2.622         3741.88623     19.11252   0.0072  59044.91014  1.72618  10.78151    2531889.2948  44.64248  18.86189  59117.42943    51.29961       44.23626   50.50277   95.06236  133.0    0.06494  -21.32432  0.37931 
  -13.65015  0.32686  5.97989     14.17803  2.14144  0.83347  34.99604   0.0183     0.01439  4121.54551   8198.22658  2.34911         3596.20158     19.49979  0.01756  59043.76985  3.54623  11.43892    3132195.6768  44.55032  18.81571  59117.42943    51.30382       44.24075   48.15389   91.38813  125.0    0.06555  -21.37868  0.37783 
  -13.89428  0.40834   5.9705     14.68194  2.05331  0.29849  30.24227  0.02332      0.0982  4189.40798   5971.01038  2.66484          3404.4724     17.30271  0.00011  59043.52572  3.16626  12.34919    294048.54819  45.56086  18.86525     59121.25    51.31161        44.2423   48.58906   93.79524  132.5    0.06564  -21.35388  0.35099 
  -13.42153   0.4355  5.57763     14.00195  1.86155  0.92227  24.89921  0.02194     0.01244  3873.85992   3603.00672   2.7455         3597.01448     17.79568  0.00035  59043.99847  2.22895  10.84366   5329456.16579  44.31914   18.8686     59117.35    51.36768         44.279   47.39881   95.32403  135.0    0.06556  -21.35637  0.36959 
  -12.00121  0.32201  5.81653     14.22116  1.69351  0.63843  37.54345  0.01482     0.01517  3846.34237   8519.57705  2.64792         3658.34872     16.54443    2e-05  59045.41879  3.31327  12.08945   1921374.70225  44.68469  18.87636  59120.41614     51.3011       44.24118   48.22496   94.15934  127.5    0.06541  -21.34563  0.30091 
  -12.09235  0.48138  6.34022      14.0956  1.47248  1.43766  29.74454  0.01887     0.04272  3772.64127   7471.89344  2.65668         3703.78615     18.02764  0.00059  59045.32765  2.52537  14.31829    3538980.0486  44.28381  18.86281     59116.33    51.34199       44.26922   48.27971   94.44313  137.0    0.06115  -21.34806  0.20124 
  -13.84752  0.37371   4.9231     13.83278  1.70984  1.16926  27.51713  0.02192     0.16649  4010.68272   7570.08834  2.74559         3484.65493     17.41078  0.00014  59043.57248  2.64038  10.28338   8311733.54744  44.19763  18.86997  59120.41614    51.30791       44.24671   50.06202   97.73654  136.0    0.06128   -21.3455  0.40935 
    -13.801  0.32641  5.02346     13.89362  1.65509  1.02115  34.45481  0.01562     0.16666  3734.95376   6230.50785  2.51417         3620.56251     19.51248  0.01808    59043.619  2.86713  11.24634    6329955.1785  44.28426  18.87781  59119.67095    51.31095       44.26842   46.68279   92.85923  144.0    0.06225  -21.34281   0.3691 
  -13.32148  0.33241  5.51423     14.08089  1.79196  0.93297  34.75837  0.01638     0.09058  3682.28677   5682.83295  2.61498         3630.81966     17.69496  0.00028  59044.09852  2.81139  11.55388   3486046.42607  44.49687   18.8644  59119.67095    51.30559        44.2387   47.49004   97.73654  137.5    0.06417  -21.33843  0.35268 
  -11.28947  0.40441  5.22382     14.27814  1.57462  0.46525  29.31551  0.01656     0.03608  3524.84528   7325.71237  2.52483         3745.56731     17.46366  0.00016  59046.13053  2.17273  11.85542   1108361.03073  44.98536  18.84622  59119.67095    51.29668       44.24051   47.49004   97.73654  136.5     0.0689  -21.33827  0.32807 
  -11.29003  0.46115  6.15679     14.79493  1.49265  0.20393  30.55548  0.01801     0.05635  3712.73842   5717.40403  2.91769         3581.41497     19.15939  0.00802  59046.12997  2.51249  14.09058    135089.73696  45.73347  18.85515  59117.42943    51.29725       44.25259   46.54546   95.83884  141.5    0.06409  -21.33374  0.21732 
  -12.09272  0.23466  4.95981     14.33736  1.70858  0.49455   43.9326  0.01448     0.07086  3453.70062   7318.56799  2.79247         3798.97742     17.30698  0.00011  59045.32728  3.12596  10.30939    825388.24552  45.19389  18.86836  59119.67095    51.31433       44.24655   47.35364   95.03066  125.0     0.0699  -21.34089   0.4162 
  -13.57075  0.34261  5.27849     14.05286  1.73479  0.81809  32.70164  0.01768      0.0133  3802.53179   6307.45507   2.5209         3688.68687     17.28784  0.00011  59043.84925  2.82061  11.20386    3518593.6488   44.5167  18.84106  59117.42943    51.32115       44.28046   48.27971   91.60085  134.5    0.06531  -21.36141  0.36671 
  -14.06639   0.2234  4.82698     13.89529  1.49952   1.1129   51.6172   0.0103     0.08967   3408.4755   9993.13747  2.61863         3712.46076     19.28799  0.01078  59043.35361  3.57719  11.53135    5254576.8585  44.35691  18.85803  59119.67095    51.30626       44.26267   49.11744   92.99656  119.5    0.06529  -21.32946  0.35187 
  -13.44234  0.25525  4.94833     14.15753  1.58618  0.78129   48.7017  0.01165     0.04891  3510.73157   8469.66492  2.24859         3775.31883      17.6057  0.00022  59043.97766  3.58069  12.43133   1745956.28379  44.83825  18.87231  59119.67095    51.31859       44.25842   45.74678   93.79524  129.5    0.06472  -21.31687  0.34744 
  -12.32536  0.31604  5.53301     14.12254  1.98794  1.05516   37.2242  0.01568     0.09144  3509.15346   8913.01935  2.58135         3731.84693     19.91198  0.04536  59045.09464  2.73437  11.76425   3214106.08211  44.57426  18.86616     59120.36    51.30975       44.24715   50.06202   94.89426  122.5    0.06575  -21.38844  0.38482 
  -12.12162  0.37452  6.52358     14.13164  1.62373  1.31211  35.24937  0.01292     0.05362  2844.48576   6726.96007  3.00616         3905.99346     17.35563  0.00013  59045.29838  1.70132  13.20175   3499687.74805  44.30636  18.86216  59117.42943    51.30941       44.25678   45.74678   93.79524  142.5    0.06108  -21.31528  0.22968 
  -15.67641  0.32684  4.96415     14.06185  1.71473  0.79387  32.76505  0.01897     0.01868  3714.45388   6081.94427  2.46004         3707.78957     17.89919  0.00044  59041.74359  2.69667  10.70889   2951186.66448  44.64135  18.87605     59121.32    51.31338        44.2339   49.80583   98.26303  133.0    0.06361    -21.348  0.40386 
  -12.93934  0.28764  5.62213     14.15334  1.79546  0.91353  41.45299  0.01524     0.07012  3721.49162   6706.35469  2.67669         3664.22875     17.63145  0.00024  59044.48066  3.42466  11.92359   2600789.29276  44.60811  18.87507  59117.42943    51.30482       44.24047   49.11744   101.5234  134.0    0.06415  -21.34757  0.33967 
   -8.86531   0.2688  3.32632     14.44046   1.6899  0.84482  47.79157    0.015     0.06856  3507.85069   7198.39341  2.73368          3744.6316     16.23228    1e-05  59048.55469  3.50801  12.84634    228388.02536   46.0941  18.87796  59119.67095    51.32687       44.23634   51.33471   97.07269  133.0    0.05936  -21.32031  0.56359 
  -13.44954  0.37801  5.26958      13.9448  1.75423  1.03582  29.03661   0.0203     0.01255  3623.20156   7870.77446  2.52588         3731.50092     19.38804  0.01358  59043.97046  2.27383  10.97611   5832529.47479  44.30352  18.86372     59116.33    51.32408       44.24076    48.9276    99.4798  131.5    0.06182  -21.34334  0.37384 
  -12.17572  0.38199  6.66573      14.2295  1.80918  0.93043  34.95394   0.0167     0.10935  3696.09605    5757.7464  2.64181         3686.06661     17.44099  0.00015  59045.24428  2.84846  13.35213   2594098.98289  44.46464  18.89639  59117.42943    51.32787       44.26945   35.76101   98.36542  137.5    0.06367  -21.33183  0.24857 
  -11.96492   0.3294  4.88194     13.97223  1.56889  1.24056  34.07577  0.01754     0.06217  3570.87863   9776.99497  2.59728         3727.53838     17.89378  0.00044  59045.45508  2.59193  11.22464   3945734.22444  44.49112   18.8925  59117.42943    51.33499       44.27937   35.76101   98.36542  114.5     0.0671  -21.33278  0.37189 
  -13.44243   0.3699  4.69041     14.02662  1.78705  0.72105  24.94519  0.02316     0.01029  3667.86483   8199.69915  2.69912         3522.35279     19.42088  0.01464  59043.97757  2.00189   9.22726   3229535.61259  44.66942  18.88168  59120.41614    51.32228       44.23974   50.06202   103.4211  125.5    0.06625  -21.33122  0.48039 
  -15.55996  0.23361  4.32013     13.89217  1.64715  1.11209  39.11107  0.01761     0.19651  3875.88108     6780.606  2.50245         3598.67474     17.92791  0.00047  59041.86004  3.50484   9.13666   4690294.73548  44.54338  18.86159     59116.29    51.32249       44.27984   44.21799   95.32403  128.5    0.06855  -21.35336  0.49691 
  -12.37592   0.4541   7.4796     14.57609  1.87379  0.39728  30.67378  0.01837     0.07092  3924.06798    7582.3627  2.76521         3547.21832     18.18958  0.00086  59045.04408  2.81752  13.92906     685664.6137   44.9577  18.85291     59116.33    51.32139       44.26029   45.74678   93.79524  136.5    0.06106   -21.3339  0.20894 
  -14.25184  0.41918   3.5154     13.50897  1.19699   1.4367  23.60027  0.01985     0.01492  4175.96757   6652.04586  2.57886         3445.53086     19.67713  0.02642  59043.16816  2.45504   9.89268  13179930.62292  44.13507  18.87174     59116.33    51.32084       44.25553   45.00834   97.37596  142.0     0.0669  -21.37517  0.45024 
  -11.03782  0.38796  7.20365     14.63448  1.59329  0.31997   37.1408  0.01296     0.06136  3651.98807   7228.63501  2.93191             3544.9     17.49731  0.00017  59046.38218  2.95486   14.4093    413292.72752  45.13978  18.82781  59114.44144    51.31248       44.25785     38.138   95.52314  145.0    0.06489  -21.31411  0.17838 
  -13.52739  0.31912  5.21093     14.22518  1.60547  0.57955  37.29904  0.01576     0.03488  3466.86726   4246.27607  2.87357         3621.64177     19.05141  0.00625  59043.89261  2.67423  11.90269   1435132.70806  44.88372   18.8812  59119.67095    51.31142       44.24022   49.86362   98.54379  137.0    0.06148  -21.32574  0.33585 
  -12.90183  0.37715  5.15713     13.87732  1.74638  0.98609  28.45128  0.01888     0.02153  4043.39183   8978.48728  2.73274         3543.60117     19.70208  0.02798  59044.51817  2.77473  10.73038   7588092.87161  44.20604  18.85746     59116.33    51.31634        44.2754   45.00834    91.6914  128.0    0.06326  -21.36675  0.38241 
  -13.26393  0.40288  4.72667     13.86198  1.56861  1.17651  26.14749   0.0224     0.01234  3881.44229   9018.98436  2.53555         3566.26888     19.00519  0.00562  59044.15607  2.34987  10.53417   6144495.40175  44.32676   18.8322     59117.35    51.31931       44.26349   46.68279   90.01695  120.0    0.06574  -21.32973  0.39727 
  -10.45897  0.31791  6.20966     14.23978  1.84444  0.68042  36.87974   0.0132     0.01951  3488.23051   7313.88563  2.93917         3675.02295     19.16128  0.00805  59046.96103  2.67686  11.72447   2189055.63808  44.60832  18.85338  59117.42943    51.35079       44.25419   49.25478  101.38607  136.5    0.06959  -21.33567  0.30622 
  -14.70882  0.37317  5.02348     13.93212   1.6925  0.88334  28.61571  0.01893     0.02288  3840.43368   3882.80735  2.59117          3575.8546     18.11437  0.00072  59042.71118  2.51763  10.67846   5421503.33585  44.36125  18.84937  59119.67095    51.30377       44.26639   46.54546   92.99656  141.0    0.06228  -21.33861  0.38836 
  -11.95939  0.38499  5.47214      14.4275  1.73364  0.33949  30.01823  0.01657     0.48812  3710.56109    5618.8718  2.57267         3629.30112     17.26658   0.0001  59045.46061  2.46542  11.55677    673119.69361   45.2034  18.83937  59117.42943    51.30055       44.24472   46.54546   92.99656  141.0    0.06944  -21.33896  0.34383 
   -5.50523  0.30795  1.74334     14.44713  1.51104  1.24516  46.07816  0.01673     0.02937  4021.70536    7281.8842  2.58584         3628.81004     18.46939  0.00164  59051.91477  4.44573  14.18965     54399.75175  47.22976  18.83935  59117.42943    51.32463       44.27155   45.88681   90.81294  136.5    0.05195  -21.31155  0.81786 
  -11.55585  0.42659  7.23739     14.51272  1.84222  0.54819  33.62448  0.01759     0.04635  4031.01802   7027.17912  2.67279         3562.45355     19.08921  0.00682  59045.86415  3.25921  14.34375    845035.01245  44.88815  18.83319     59117.35     51.3106       44.25965   45.88681   90.81294  138.5    0.06451  -21.34842   0.2128 
   -9.65931   0.4391   7.0436     14.43583  1.49911  0.51126  32.20952  0.01502     0.21433  3575.39375   8512.60432  2.79085         3733.20379     17.60241  0.00022  59047.76069  2.45617  14.14304    928052.63234  44.78152  18.84594  59117.42943    51.30891        44.2552   46.68279   92.85923  133.5     0.0655  -21.32673  0.17479 
  -11.25933  0.43447  6.05704     14.31965  1.89535   0.5313  28.07482  0.01873     0.20991  4008.68672   9352.20777   2.2911         3662.15916     18.81802  0.00365  59046.16067  2.69121  12.19778   1481569.77527  44.81129  18.86774  59120.41614    51.32448       44.23904   50.50277  100.74692  123.0    0.06732  -21.35261  0.31662 
  -15.23603  0.42435  5.07518     14.26145  1.68467    0.469  26.46789  0.02158     0.07271  3734.95624   7774.57034  2.72605         3585.59183     16.92652    5e-05  59042.18397  2.20251  11.23165   1208749.37769  45.00212  18.86843  59117.42943    51.35517       44.27421   48.18916   97.37596  131.5    0.06575  -21.35662  0.37559 
  -13.16235  0.37569  5.40931     14.23869  1.83873  0.46275  28.58912  0.01911     0.07765  4106.20432   5791.23181  2.93691         3370.28397     17.49652  0.00017  59044.25765  2.87547  10.74054   1664328.03034  44.84584  18.87725     59120.36    51.33609       44.27668   49.25478   92.85923  140.0    0.06702  -21.34467  0.38203 
  -16.03624  0.28344   4.1382     13.91883  1.59312  0.89074  37.38624  0.01857     0.08317  3836.49933   8154.45842  2.55101         3593.23425     20.09273  0.06878  59041.38376  3.28253  10.59671   3681512.06555  44.67144  18.89473  59117.42943    51.36657       44.27524   50.50277   97.90464  124.0    0.06447  -21.42689   0.4686 
  -13.12466  0.27959  6.41829      14.2656  1.85488  0.85851  46.07235  0.01243     0.09535   3438.6256   8174.62705  2.66307         3750.31491     18.06469  0.00064  59044.29534  3.24966  12.88134   2088202.82875  44.60255  18.85637  59117.42943    51.32169       44.25875   46.54546   92.99656  132.5    0.06324  -21.31771  0.27797 
  -11.73167  0.30599   5.5293     14.37976  1.78442  0.36335  36.12021  0.01345     0.01073  3668.85862   4494.39607  2.63612         3638.27077        17.34  0.00012  59045.68833  2.90028  11.05228    881304.17387  45.08988  18.85999  59120.41614    51.29577       44.24986   47.49004   92.05198  138.5    0.06915  -21.33222  0.35735 
  -11.69829  0.33121   5.7569     14.18646  2.00886  0.67107   31.2014  0.01771     0.36263  3855.64969   8709.97309  2.59965         3650.66947     18.50746  0.00179  59045.72171  2.76692  10.33407   2619491.65284   44.6332  18.86111  59117.42943    51.31369        44.2631   49.86362   92.85923  124.5    0.06688  -21.34964  0.39549 
  -13.72722   0.2765  4.96814     14.15821  1.75479  0.63907   37.1443   0.0155     0.01829  3328.36887   7653.53671  2.67811         3807.23654     17.76477  0.00032  59043.69278  2.45461  10.27054   1940967.10303  44.83267  18.87208  59119.67095    51.31935       44.23321   50.06202   97.73654  129.0    0.06731  -21.35455  0.42253 
  -13.63356  0.31803  4.44758     14.10067  1.48612  0.41775  32.28532  0.01618     0.24261  4040.29852   6575.10201  2.45413         3580.08664     17.13403    8e-05  59043.78644  3.14383  10.26754   1717044.01671  44.90987  18.89025  59117.42943    51.31489        44.2507   41.11408     98.899  143.5    0.06711  -21.34831  0.40814 
  -12.59718  0.38647  5.27687     14.16166  1.78948  0.69691  28.91038  0.02176     0.01083  3854.71984   7290.02297  2.60796         3589.23486     18.47309  0.00165  59044.82282  2.56252  11.17298   2197721.75085  44.73485  18.88016     59117.35    51.30621       44.25944    43.4853     98.899  127.5    0.06662  -21.35221  0.38053 
  -13.32527  0.46259  4.67577     14.21187   1.9043  0.35911  16.19658   0.0239      0.0252  3132.15866    8311.4353  2.78656         3837.12889     19.21946  0.00921  59044.09473  0.94785   7.49245   1457178.40127  45.04536  18.88401  59120.41614     51.3134       44.25955   49.06763   99.33978  144.0    0.06701  -21.34027  0.54866 
  -13.56413  0.38594  5.84392     14.16727  1.77086  0.76974  32.34866  0.01772     0.01402  3671.75668   7970.12044  2.46765         3695.01747     18.71025  0.00285  59043.85587  2.60154  12.48478   2599354.84113  44.56875  18.89112  59119.67095    51.33091       44.24902   49.11744   101.5234  132.0    0.06282  -21.33554  0.30616 
    -11.099  0.31787  5.41165     14.05335  1.74934  0.95973  35.94306  0.01458     0.05253  3455.39536   7347.07156  2.66861         3728.99731     18.59315  0.00218    59046.321  2.55999  11.42531   3720895.54639  44.47441  18.86117     59120.36    51.34164       44.24712   50.79694   97.00162  134.5    0.06572  -21.34771  0.35543 
  -13.70287  0.31762    4.744     14.18942   1.7708  1.14867  39.37553  0.01824     0.01442  3773.59227   6223.55088  2.39111         3715.25803     16.57399    2e-05  59043.71713  3.34475  12.50636   1546824.45496  44.97528  18.88064     59120.36    51.29992       44.22476   48.58906  102.32208  131.5    0.06358  -21.35599  0.40735 
  -13.71614  0.36573   4.4808     14.03687  1.39389  0.57105  29.94049  0.01686     0.10331  3456.93648   7678.92322  2.74228          3649.9313     17.72838   0.0003  59043.70386  2.13437  10.95023   2192886.12064  44.76935  18.87577     59120.36    51.35227       44.29706   50.50277   95.06236  137.0    0.06476  -21.32805  0.37171 
  -11.35306  0.36781  5.95028     14.17583  1.62817  0.80477  35.10159  0.01442     0.20814   3542.1922   6768.08082  2.51648          3774.7995     17.76435  0.00032  59046.06694  2.62723  12.91058   2381906.38464  44.55454  18.86363  59119.67095    51.33874       44.25861   47.32195   97.90464  139.5    0.06546  -21.33008  0.26773 
   -12.5031  0.34093  4.27484     14.03893  1.63802  0.46927    25.037  0.01849     0.37084  3955.37895   6689.93724  2.59384          3511.3108      19.1251  0.00741   59044.9169  2.33661   8.53585   2323321.41033  44.85521  18.85138  59117.42943    51.31002       44.24337   47.35364   97.87294  146.5    0.06874  -21.34552  0.50699 
  -13.60946  0.20816   4.7241      14.1631  1.56522  0.45123  51.11681  0.01005     0.07106  3604.50878   6964.71403  2.34506         3799.58606     18.21551  0.00091  59043.81054  3.96171  10.64069   1530471.76154  44.92996  18.85166  59119.67095    51.32216       44.23104   50.67086   97.73654  139.0    0.06684  -21.34498  0.39292 
   -7.09767  0.36677  4.10726     15.00568  1.98458  0.33151  38.85379  0.01658     0.06129  3907.14746   6535.15721  2.68809          3586.7904     17.96878  0.00052  59050.32233  3.53818  14.25032     30284.53672  46.85819  18.86299  59116.08371    51.32827       44.25801   47.67087   97.28541  140.5    0.06235  -21.31685  0.49414 
