 texplosion  fnickel    Pspin  log(Bfield)      Mns  thetaPB  mejecta    kappa  kappagamma     vejecta  temperature    alpha  cutoff_wavelength  log(nhhost)      A_V         MJD0  kenergy  mnickel             TSD   log(L0)  Peak_mag     Peak_MJD  log(E_rad)  log(Peak_lum)  Rise_Time    E_fold  tau_1  delta_m15     r_peak     frac 
   -7.88283  0.01084  5.41857     14.10249  1.93678  0.95477   4.1299  0.17488     0.01228  7029.71007   5970.39629  0.22683         2893.54077     19.05767  0.00634  58774.63279  1.21742  0.04476   3293702.47336  44.57047  19.27163  58832.93642    50.74262       44.01732   36.80121  38.84572   42.0    0.22979  -20.69936  0.99394 
   -8.62402  0.00301   5.0009     14.01252  1.90162  1.04108  3.34758    0.224     0.01046  6654.12995   5855.46563  0.05617         3442.66201     19.25742  0.01005  58773.89161  0.88418  0.01008   4168693.69637  44.52987   19.2867  58832.93642    50.74296        44.0035   38.84572  39.53838   42.0    0.22354  -20.66865  0.99879 
   -8.10336  0.02845  5.12473     14.07426  1.71824  0.94975  4.48219  0.25763     0.01679  7974.83881    5673.7512  0.11223         2606.87025     18.28634  0.00107  58774.41227  1.70044  0.12754   2976545.40488  44.61088  19.28974  58835.43195    50.73107       43.99001   38.84572  39.72693   41.0    0.22048  -20.71092  0.98185 
   -8.25232  0.00346  4.54283     14.17765  1.73936  0.81229  4.17482  0.26963     0.01159  6887.83764   6375.15825  0.06098          3437.5244     19.56975  0.02063   58774.2633  1.18149  0.01445   1470829.19461  45.02702   19.2527  58835.43195    50.70973       43.95463   40.89023  40.95751   39.5    0.22244  -20.68754  0.99841 
    -7.8933  0.17825  4.81942     13.96695  1.87608  1.46835  3.23715  0.29855     0.01071  7035.06518   5906.88374  0.01434         4418.91946     19.74443  0.03084  58774.62233  0.95571  0.57703   4711568.63695  44.50294  19.25905  58835.43195    50.71388       43.97443   38.84572  40.42806   41.0    0.21955  -20.72212  0.93889 
   -7.56088  0.08707  5.26366     14.18601  1.95182  0.88088   4.7167  0.22741     0.01051  7515.44727    6226.2444  0.14814         2033.79036     17.52887  0.00019  58774.95474  1.58919  0.41069   2132063.74448  44.78791  19.29307  58832.93642    50.70595       43.96008   38.84572  41.23772   39.5    0.22937  -20.72365  0.95092 
   -8.82373  0.01529  4.95727     14.01714  1.85685  1.02526  2.44741  0.33487     0.01605  6861.61938     6418.604  0.00487         3720.24198     17.83976  0.00038  58773.69189  0.68736  0.03742   3915673.21669  44.55433  19.28861  58835.43195    50.71745       43.98701   38.84572  39.53838   41.5    0.23112  -20.68152  0.99546 
   -7.94691  0.02346  4.58469     14.07403  1.52809  0.81175  4.82824  0.24093     0.01377  7553.89052   5575.70807  0.04828         2650.35133     16.40442    1e-05  58774.56872  1.64345  0.11325   2120890.53462  44.80386  19.23598  58832.93642    50.70514       43.97601   38.84572  39.72693   40.5    0.21854  -20.67871  0.98465 
   -9.70372  0.00127  5.52029     14.48024  2.18642  0.25143  3.31109  0.27724     0.01452  7675.74841   5151.00235  1.62337         2279.38545     16.18693    1e-05  58772.81191   1.1637  0.00421    677622.81926  45.29367  19.28877  58835.43195    50.68424       43.92409   40.93449   42.8905   44.5    0.20325  -20.70123  0.99948 
   -7.69012  0.00447  4.76332     13.90618  1.60785   1.3144  3.59409  0.25142     0.01505  7522.27033   5572.23078  0.16583         3427.56814     16.83034    4e-05  58774.82551  1.21315  0.01606   5218255.76588  44.40175  19.30915  58835.43195    50.69816       43.93266   40.89023  41.65102   40.5    0.23728  -20.70709  0.99777 
   -7.09951  0.01096   4.6845     13.89351  1.84383  1.02177  3.45944  0.28525     0.01108  7586.70711   5692.90195  1.35328         2390.56505     19.98898  0.05416  58775.41612  1.18779   0.0379   6135300.05759   44.4054  19.28016  58835.43195    50.70003       43.93715   40.89023  42.47029   43.0    0.21214  -20.75553  0.99575 
   -8.21465  0.03783    4.459     13.94627  1.44788  1.00031  4.70628  0.29863      0.0175  8574.41616    5344.4168  0.08941         4415.78604     18.95345  0.00499  58774.30097  2.06402  0.17802   3423674.70651  44.59661  19.27901  58832.93642    50.71551        43.9705   38.84572  40.42806   39.5     0.2178  -20.75762  0.97537 
    -9.1637  0.00366  4.66024      13.9109  1.68492  1.04557  3.64462  0.28794     0.01055  7077.12603   5571.88837  0.43743         3970.83449     19.40079  0.01398  58773.35193  1.08891  0.01335   5121761.16554  44.44919  19.27128  58832.93642     50.6491       43.86482   43.31874  45.71266   42.0     0.2246  -20.70155  0.99833 
    -8.0011  0.00135  3.71801     13.69218  1.47677  0.95674  2.45409  0.28204     0.01391  7501.36156   6027.32399  0.00884          3406.9438     20.14867  0.07823  58774.51453  0.82375  0.00332   7823443.80289  44.40414  19.30752  58835.43195    50.67976       43.88966     44.946  45.77987   44.0    0.23139  -20.78476  0.99967 
   -8.71647  0.00209  4.74116     14.13847  1.67741  0.68286  3.53109  0.29721     0.01474   7319.1846   5804.85355  0.12711         5189.30394     17.86919  0.00041  58773.79916   1.1284  0.00738   1850481.45913  44.87443  19.27056  58832.93642    50.67311       43.91953   40.93449   42.8905   40.5    0.22535  -20.73412  0.99905 
    -7.0988  0.00772  5.13225     13.98123  1.83614  1.29077  4.09082  0.21238     0.01425  7564.10225   5923.22482  0.27724         3104.68336     20.03684  0.06047  58775.41683  1.39622  0.03156   4896331.61908  44.42227  19.28026  58832.93642    50.74692       44.02925   36.80121  38.84572   41.0    0.22535  -20.76954  0.99583 
   -8.05369  0.06178  5.40417     14.13535  1.95874  0.85102  3.71634  0.30665     0.01491  8000.12753   5711.41579  0.00187         4039.49545     18.17973  0.00084  58774.46193  1.41885   0.2296   2848006.30839  44.64082  19.25093  58832.93642    50.72193       43.97217   38.84572  41.37728   40.5    0.22489  -20.72855  0.97029 
   -9.21917  0.06237  4.58722     13.89472  1.50665   0.9413  2.41723  0.32519      0.0211  7230.13251    5597.2549  0.17428         3104.05096     17.07327    7e-05  58773.29645  0.75377  0.15076    4780681.5486  44.44427   19.2803  58832.93642    50.86471       44.14428   36.80121  38.84572   42.5    0.21864   -20.6733  0.97874 
   -7.63267  0.03831  4.69638     14.22348  1.62625  0.41708  3.92746  0.22088     0.01275  7704.91411   5930.72667  0.19298         3513.23313     17.57591  0.00021  58774.88295  1.39083  0.15045   1190058.36059  45.06094  19.25917  58835.43195    50.69419       43.94617   38.84572  40.82535   41.5    0.22846    -20.742  0.98011 
   -7.83043  0.00252  4.88743     14.17953  1.70335  0.62325  4.29659  0.26998     0.01263  7621.53417   5816.94087   1.6803         2305.09727     16.48944    2e-05   58774.6852   1.4888  0.01084   1652780.39251  44.90377  19.23127  58832.93642    50.70291       43.96183   38.84572  41.37728   41.0    0.22047  -20.70556  0.99855 
  -10.05707  0.29679   4.1007     13.76101  1.25997  1.14661   4.9248  0.27894     0.01008  7809.86925   5667.75057  0.27617         2464.93394      16.4455    2e-05  58772.45856  1.79186  1.46165   5913852.30675  44.37162  19.20589  58832.93642    50.72511       43.95431   38.84572   44.5148   43.0    0.21141   -20.6645   0.8205 
   -9.44392  0.00162  3.67726     13.53534  1.51186   1.0825  3.97089  0.28056     0.01104  8475.56043   5140.57543  0.70518         3688.71553     16.15448    1e-05   58773.0717  1.70158  0.00642  16132111.87582  44.10962  19.27505  58835.43195    50.71574        43.9796   38.84572  40.42806   45.0    0.21124  -20.74858  0.99935 
   -8.15283  0.18414    4.273     14.01508  1.37584  0.59582  4.34718  0.30483     0.01116  7851.92359   5775.50363  1.23638         3149.38784     16.95395    5e-05  58774.36279  1.59877  0.80051   2176165.34241  44.80826  19.27825  58835.43195    50.75661       44.02942   38.84572  38.84572   42.5     0.2108  -20.72699   0.8976 
   -6.98117  0.03687  4.94128     14.06734   1.7256  1.17566  4.76932  0.17914     0.01131   6732.5058   6171.11276  0.12206         5809.55156     17.33117  0.00012  58775.53445  1.28955  0.17587   2869178.34413  44.66035   19.2252  58832.93642    50.71425       43.98169   38.84572  40.42806   40.5    0.21932  -20.69375  0.97719 
   -7.85036  0.01224  4.51844       14.042  1.80947  1.29136  4.09617  0.32489     0.01029   7333.9734   6256.85557  0.00736         3818.81991     17.02408    6e-05  58774.66527  1.31427  0.05015   2827081.56887  44.76508  19.27681  58835.43195    50.70145       43.95537   40.89023  40.01568   39.5    0.22437  -20.71635  0.99485 
    -7.6845  0.00973  5.19392     13.92594  2.00391  1.46249  4.46143  0.32694     0.01377  9205.49966   5299.33942  0.30695         2336.04583     19.08439  0.00675  58774.83112  2.25526   0.0434   7059813.01311  44.29094  19.26616  58832.93642    50.71641       43.98994   36.80121  39.72693   40.0    0.22765  -20.79531  0.99477 
   -6.86704  0.11273  5.52595      14.1206  1.90345  0.94512  3.50341  0.19965     0.01568  7292.60767   6145.35337  0.03685         4922.59237     17.96432  0.00051  58775.64859  1.11143  0.39493   3097256.52023   44.5726  19.24651  58835.43195    50.70167       43.96988   38.84572  39.19321   41.0    0.23106  -20.71163   0.9458 
    -7.7749   0.0017  4.16034     13.80417  1.55303  1.37547  3.09614  0.25604     0.01073  6976.29668   6292.79504  0.09134         2550.81097     18.67798  0.00265  58774.74072  0.89887  0.00526   6150693.84379  44.43284  19.27014  58835.43195    50.68965       43.90933   44.50878  43.40522   41.0    0.23657  -20.70917  0.99941 
   -7.76965  0.00605  5.64321     14.03734   2.0042  1.28134  3.61609  0.32039      0.0138  7435.69752   5987.83878  1.57004         3247.64314     19.65099  0.02487  58774.74597  1.19264  0.02189   4990337.67081   44.3696  19.29378  58835.43195    50.72271       43.97412   38.84572  41.23772   42.0    0.22274  -20.72899  0.99692 
   -7.34021  0.03651  5.26068     14.08875  1.63283  0.64042  3.57627   0.2351      0.0236   8213.5219      5464.88  0.99649         2940.03116     16.98072    5e-05  58775.17541  1.43919  0.13056   2788261.20346  44.59437  19.27239  58835.43195    50.72489       43.96488   40.89023  41.61902   43.0    0.21887  -20.72511  0.97842 
   -7.71232  0.00246  4.33507     13.93954  1.36455  0.78226   6.6727  0.16419     0.01094  8199.83523   5807.43782  0.35203         2691.49014     17.98998  0.00054   58774.8033  2.67633   0.0164   3145645.37673  44.63213  19.26978  58832.93642    50.73927        43.9604     42.979  44.93501   41.0    0.22279  -20.72436  0.99758 
   -7.86249  0.05318  5.05747     13.96977  1.78159  1.27214  4.51436  0.21341     0.01021  7255.54865   5713.86815  0.68994         2260.65703     17.71971  0.00029  58774.65314  1.41763  0.24006   4863565.95873  44.42483  19.23171  58832.93642    50.71955       43.98095   38.84572  40.89023   41.5    0.21602  -20.68136  0.96867 
   -9.27761   0.0731  4.28525     13.99541  1.33071  0.63083  6.54986  0.20428      0.0103  8229.74721   5419.54302  1.20619         2671.80505      18.5229  0.00185  58773.23802  2.64626   0.4788   2317582.56299  44.76394   19.3071  58835.43195    50.66206       43.90435   40.93449   42.8905   42.0    0.21271  -20.71697  0.93286 
   -6.88279  0.05948  5.33798     14.13642  1.94392  1.01741  3.83159  0.32924      0.0163  8173.98937   5968.45922  0.15322         2563.54037     16.23593    1e-05  58775.63284  1.52712  0.22789   2744178.35381  44.66436  19.29227  58835.43195    50.68708       43.92672   40.89023  42.47029   39.0    0.23683  -20.75312  0.97117 
   -8.88672  0.00135  4.96043     13.81686    1.732  1.31525  6.30954  0.16322     0.01472  9164.57684   5236.39373  0.51256         2400.40043     20.12872  0.07472  58773.62891  3.16118  0.00854   9197579.56013  44.15268   19.2891  58835.43195    50.67342       43.89268   42.50907  44.15733   42.5    0.22045  -20.82884  0.99881 
   -8.35849   0.1819  4.38105     13.75291   1.4418  1.25707   3.8465    0.205     0.01305  7694.75472   5626.36603  0.06378         2827.27707     19.19522  0.00871  58774.15713  1.35857  0.69966   8018021.46785  44.24053  19.29188  58835.43195    50.74198       43.98719   38.84572  41.37728   42.5    0.23296  -20.73087  0.90979 
   -9.08899  0.00187  4.77541     14.00431  1.78555  1.25879  6.24279  0.32359     0.01113  8801.03984     5593.918  0.06436         4950.17805     17.73249   0.0003  58773.42664  2.88452  0.01168   3706713.39887  44.59361  19.27487  58832.93642    50.70496       43.96027   38.84572  41.37728   41.0    0.21705  -20.74317  0.99862 
   -8.00067  0.00911  4.37739     14.19691   1.5445  0.38347  3.55064  0.24418     0.01097  7135.78206   6082.82149  0.28457         3414.45802     16.49491    2e-05  58774.51495  1.07849  0.03234   1109735.64536  45.12998  19.27133  58835.43195    50.72084       43.97728   38.84572  40.89023   42.5     0.2244  -20.68836  0.99591 
   -7.85364  0.00255  5.13306     14.16383  1.91289  0.91121  4.01569  0.26139      0.0128  7289.93592   5951.50351  0.09563         2005.02657     17.81031  0.00036  58774.66198  1.27302  0.01022   2200849.93208  44.78719  19.24444  58832.93642     50.6912       43.94934   40.89023  40.01568   39.5      0.227  -20.70063  0.99874 
   -9.15977  0.01498  4.47854     13.79747  1.71544  1.05365  4.37039  0.30504      0.0125  8894.28846    5488.6773   0.7011         2338.96457     16.41534    1e-05  58773.35586  2.06239  0.06546   8119289.23028  44.29143  19.28217  58832.93642      50.702       43.95336   40.89023  42.06019   42.5    0.22529  -20.76505  0.99244 
   -7.97931  0.07381  5.52213     14.02252  1.79121  1.21461   4.1356  0.25801     0.01665  7599.66618   5858.89652  1.11327         3104.25466       17.454  0.00016  58774.53632   1.4248  0.30524   4572295.42796  44.37764  19.30089  58832.93642    50.68824       43.93095   40.93449  42.42604   42.5    0.20708  -20.70868  0.95367 
  -10.02531  0.03114  4.73641     13.90324  1.67648  1.37313  4.30847  0.24901     0.01105  7257.18183   5658.74264  0.03562         3994.48277     18.12266  0.00074  58772.49031  1.35359  0.13416   5453058.14619  44.40571  19.26581  58832.93642    50.68581       43.91268   40.93449  44.01337   41.5    0.21837  -20.67751  0.98291 
    -7.7214  0.02634  5.48476     14.15323  1.77573  0.91335  4.42303  0.26447     0.02321   8195.5648   5131.88499  0.23984         3540.97712     17.66599  0.00026  58774.79423  1.77217  0.11649   2449350.17275  44.65086  19.27648  58832.93642    50.66815       43.90681   42.46427  42.48359   40.5    0.20576  -20.71179  0.98199 
  -10.63734   0.1284  3.77472     13.85165    1.349  0.66954  3.38344  0.32291     0.01135  7400.07026    5261.9378  0.00036         5919.48145     18.88439  0.00426  58771.87828  1.10524  0.43443   3534233.16342  44.69679  19.25504  58832.93642    50.69355       43.93756   40.89023  41.65102   42.5    0.21483  -20.69858  0.95192 
    -7.8857  0.13858  4.95785     13.92614  1.67846  1.49613   5.6873  0.27209     0.01172  8824.97025   5224.03676  1.80013         2062.28089     17.92348  0.00047  58774.62992  2.64216  0.78814   5383133.70721  44.37213  19.26103  58832.93642    50.73527       44.01387   38.84572  38.07179   40.0    0.21686   -20.7523  0.89968 
   -8.46096  0.04171  4.86152     13.96275  1.75199  0.79999  3.59742   0.2462     0.01324  7662.93094   5426.30265  0.05792         4441.17936      16.8403    4e-05  58774.05466  1.26011  0.15005   4564369.12186  44.47945  19.27289  58832.93642    50.72563       43.98951   38.84572  39.72693   42.5    0.21954  -20.71325  0.98071 
   -7.96936  0.02033  4.50637     14.08887   1.6231  0.65929  4.13704  0.26697     0.01168  7688.14344   5779.09356  0.15123           2769.333     18.20392  0.00089  58774.54627  1.45868  0.08412   2032707.61777  44.86346  19.30253  58835.43195    50.71573       43.97173   38.84572  40.89023   40.5    0.22211  -20.74022  0.98977 
  -10.29469   0.0031  4.77364      13.9162  1.78488  1.37851  5.20233  0.30976     0.01153  8421.73033   5637.33458  0.22937         2547.96741     18.67229  0.00261  58772.22094  2.20104  0.01615   5555546.87601  44.41803  19.29559  58832.93642    50.71111       43.96879   38.84572  40.89023   42.0    0.21986  -20.74682  0.99807 
   -6.84588  0.01493  4.31817     14.12084  1.44046  0.54577  4.69011  0.33795     0.01368  8473.41986   5512.25935   1.0914         3192.94606     16.65947    3e-05  58775.66974  2.00876  0.07003   1429662.25972  45.00151    19.273  58835.43195    50.73197        43.9991   38.84572  38.84572   40.5    0.22002  -20.75127  0.99067 
   -7.69658  0.01011  4.17742     13.90186  1.41369  1.13323  4.99208  0.21288     0.01129  7514.62027    6205.3656  0.21649         2375.24835     17.57105  0.00021  58774.81905   1.6816  0.05048   3599762.39457  44.62111  19.29256  58835.43195    50.67784       43.90888   40.93449  44.01337   39.5    0.22888  -20.71705  0.99355 
   -8.78826  0.05043  4.16534     13.82248  1.33661  1.04396  5.16756  0.27611     0.01226  8244.79515   5570.19461  0.72771         3204.50741     17.83734  0.00038  58773.72737  2.09543  0.26059   4877005.74745   44.4674  19.25523  58832.93642    50.74146       44.01446   36.80121   40.1163   41.5    0.21935  -20.72904  0.96456 
   -9.35761  0.08785  5.19695     13.94442  1.76468  1.29208    3.691  0.31813     0.01793  8202.74506   5019.08685  0.09603         2573.75548     17.76689  0.00032  58773.15801  1.48146  0.32424   5716607.80663  44.32688  19.25653  58835.43195    50.69449       43.94542   40.89023  40.95751   40.5    0.22405  -20.71967  0.95503 
   -7.56752  0.01122  5.05172     14.20663  1.93347  0.74303  3.18744  0.25495     0.01266  6703.52232   5871.81628  0.29138         2384.49678     16.44502    2e-05   58774.9481  0.85443  0.03575   1769159.71541  44.90054  19.28736  58835.43195    50.70084       43.94843   40.89023  40.95751   41.0    0.22413  -20.69642  0.99581 
   -9.00756  0.00103  5.01478     14.06503  1.86054   1.3042  3.81923  0.31112     0.01236  6969.86513   6121.31076  0.02121         4146.93954     18.26831  0.00103  58773.50807  1.10675  0.00394   3220356.13041  44.63008  19.27907  58832.93642    50.69634       43.93051   40.89023  42.47029   40.5    0.21836  -20.63678  0.99952 
   -8.65843  0.09222  4.61147     13.91109   1.7212  0.79225   2.7752  0.30693     0.01399  7453.42402   4996.27417  0.29392         2317.81844     17.31612  0.00012  58773.85719  0.91967  0.25594    5118642.7977  44.46784  19.28512  58835.43195    50.69647       43.95899   38.84572  41.23772   43.0    0.21729  -20.69008  0.96968 
   -9.07457  0.00204  4.82516     13.85471  1.88205  1.15123  3.57799  0.26453     0.01081  7619.00578   5723.21398  1.39717         2088.27572     18.27583  0.00105  58773.44105  1.23897  0.00732   7944035.13229  44.27641   19.3134  58832.93642    50.79167       44.07676   36.80121  38.40822   43.0    0.22645  -20.70279  0.99915 
   -8.77617  0.03817  4.42603     13.96901  1.46915   0.8146  2.73024  0.32127     0.01914  7179.53796   5800.10027  0.20474         2550.55857     17.39993  0.00014  58773.73945   0.8395  0.10422    3082328.5533    44.655  19.28628  58835.43195    50.69264       43.94192   38.84572  42.06019   41.5    0.22225  -20.68225  0.98585 
    -8.2314  0.13904  4.84501     13.91195  1.77585  1.24683  2.69733  0.32786     0.01279  6974.92435   5842.33525  0.09822           5262.911     17.17998    8e-05  58774.28423  0.78278  0.37505   5806354.32461  44.38376  19.24202  58835.43195      50.731       43.98555   38.84572  40.89023   41.5    0.22106  -20.68498  0.95511 
   -8.64234  0.10028  5.35929      14.0159  1.83962  1.10933  3.42452    0.308     0.01988  8205.63974   5481.26091   0.2405         2397.53313     18.63911  0.00242  58773.87329  1.37547   0.3434   4560020.81057  44.41639  19.27259  58835.43195     50.7079       43.98056   38.84572  39.72693   41.0    0.22268  -20.75455  0.95267 
