 texplosion  fnickel     Pspin  log(Bfield)      Mns  thetaPB   mejecta    kappa  kappagamma     vejecta  temperature    alpha  cutoff_wavelength  log(nhhost)      A_V         MJD0   kenergy   mnickel                TSD   log(L0)  Peak_mag     Peak_MJD  log(E_rad)  log(Peak_lum)  Rise_Time     E_fold  tau_1  delta_m15     r_peak     frac 
  -51.95478  0.44086  27.49547     14.46902  1.56866  0.96059  34.04868  0.02257     0.02303  4536.14899   6095.94748  1.01395         3824.48109     17.06257    6e-05  55596.48516   4.17929  15.01075     12700668.69045  42.48203   19.3597  55691.72777    51.24605       44.13249   53.72704  118.19949  131.0    0.05316  -21.08622  0.01244 
   -8.47986  0.44882   4.04549     14.47892  1.67231  0.92119  14.32422  0.02259     0.02443  8137.21954   9391.63882   3.2458         4228.34269     16.87012    4e-05  55639.96008   5.65784   6.42906       280050.26167  45.83098  18.91972  55689.43542    51.38774       44.40194   26.86352  100.29047   44.5    0.40202  -22.00006  0.63176 
  -36.50371   0.4917  26.42626     14.37329  1.66895  0.34656  28.96427  0.01607     0.07816  5607.17007   4862.17287  1.31619          3032.1156     17.27286   0.0001  55611.93623   5.43222  14.24167     19397386.16356  42.35947  19.28432  55671.09659    51.14045       44.41684   19.69991   32.23622  127.0    0.05482  -21.09176   0.0077 
  -70.05958  0.49934  28.85805     14.34291  2.08252  0.55901  46.49959  0.02716     0.03579  4249.52073   8774.84465  4.02059         4635.47332     18.32601  0.00118  55578.38036   5.00906  23.21918     33198925.84725  42.14578  18.90677  55668.80423    51.29833       44.21876   41.19073  111.03588  116.0    0.06291  -21.82736   0.0063 
  -16.08655  0.42483   2.64035     13.04209  1.42224  1.01818  20.44159  0.01005     0.01006  7671.30897   6789.67401  1.64066         5040.07427     16.94106    5e-05  55632.35339   7.17597   8.68424     75845058.84888  43.69857   18.6605  55668.80423    51.12826       44.25423   28.65442   71.63605  117.0    0.11887  -21.64218  0.56966 
  -57.26749  0.38015  27.29609     14.94898  1.68288  0.66068  45.43896  0.02814     0.24291  4147.48605   6790.12301  1.80645         4449.17184     17.37907  0.00013  55591.17245   4.66257  17.27355      1472663.82486   43.4546  18.75981  55684.85071     51.2674       44.12618   62.68155  118.19949  123.5    0.04884  -21.31174  0.01352 
  -20.84546  0.48825   4.64448     13.87259  1.44449  1.16507  18.22151  0.02513     0.02765  7183.38266   9965.16705  2.50994         4732.93282     17.23142    9e-05  55627.59448   5.60879   8.89665      5202710.90681  44.37846  19.00062  55666.51188    51.16761        44.2305   23.28172   78.79966   81.0    0.16984  -21.96483  0.41897 
  -15.72881  0.47137  22.48558     14.94782  1.74441  0.99203  20.17352  0.01392     0.02954  6685.04645   9077.08937  4.68169          3237.1289     17.34261  0.00012  55632.71113   5.37796   9.50927        1041422.411  43.78906  19.00837  55668.80423    51.12185       44.14545   26.86352   82.38146  112.0    0.19745  -21.19933  0.03797 
  -65.70811  0.47846  23.28322     13.55231  1.52543  1.39433  32.53212  0.03121     0.01621  4951.59085   8750.34549  2.03021         3677.72755     18.38737  0.00136  55582.73183   4.75805   15.5654    603501911.20107  40.93747  18.62594  55666.51188    51.23167       44.46304   23.28172   39.39983  105.0    0.06638  -21.19195  0.00325 
  -21.84587  0.46838  21.53085     13.28855  1.50374   0.7943  28.16932  0.01036     0.02519  5194.78928    9034.9396  2.82929          5878.1057      17.5618   0.0002  55626.59407    4.5346  13.19383    1713980677.7269  40.54589  18.69846  55659.63482    51.21656       44.22183   28.65442   94.91777  105.5    0.16726  -22.05964  0.00096 
  -78.77047  0.46849      2.26     13.71251  1.47133  0.84353  39.72508  0.03933     0.03288  4856.29044   3313.07944  0.80423         2973.43125     16.51181    2e-05  55569.66947   5.58858    18.611      2622581.21222  45.30961  19.26008  55668.80423    51.08339       44.11912   28.65442   87.75417  128.0    0.05023  -21.68381  0.60186 
  -39.96148   0.3864  28.41716     14.03403  1.58595   0.5494  46.15616  0.01049     0.03121  4362.05081   5775.65613  0.70554         4107.87623     16.10685    1e-05  55608.47846   5.23888  17.83466    101671642.69527  41.55477   19.2433  55666.51188    51.16995        44.4456   17.90901   32.23622  142.0    0.04213  -21.15813  0.00298 
  -17.25229  0.48715   8.72431     14.38582  1.65999  1.07966  12.89916  0.01647     0.02249  7618.29048   8909.35305  3.25778         3392.70997     17.77395  0.00033  55631.18765   4.46584   6.28382       1984923.3829  44.30975  18.73241  55661.92717    51.14435       44.30818   19.69991   50.14524   80.5    0.30726  -21.22855  0.26755 
  -11.50826  0.44195   2.72245     13.07162  1.40891  1.06066   16.8681  0.01053      0.0105  7579.74062   6737.96028  2.09679         4721.65557     17.49385  0.00017  55636.93169   5.78099   7.45482      69724474.3193  43.70442  19.06262  55661.92717    51.13293       44.15986   32.23622   94.91777  115.5    0.14737  -21.62804   0.6024 
      -8.12  0.48897   3.81459     14.58637  1.71192  0.63539  10.88541  0.02214      0.2226  7962.00428   6513.06907  2.12469         2505.92541     17.83188  0.00038  55640.31995   4.11639   5.32265       155398.83344  46.14799  18.97386  55668.80423    51.14296       44.26771   21.49082   64.47245   92.5    0.33308  -21.14542  0.70705 
  -13.10733  0.46892   5.11005     14.54839  1.72193  0.85794  15.22076   0.0203     0.04548   7409.9984   8855.87499  2.60481         3624.24052     17.23796   0.0001  55635.33261    4.9854   7.13736       334123.51102   45.5641  18.87802  55671.09659     51.1987       44.34077   24.23517   52.77359   76.0    0.29224  -21.45748  0.50209 
  -11.07089  0.43338   2.95743     14.53264  1.52611  1.19195  15.62354   0.0216     0.03768   7129.9559   9963.93806  2.78435         4267.45578     16.34357    1e-05  55637.36905   4.73784     6.771       106647.86302  46.48265  18.38223  55665.43994     51.2064         44.588   16.11811   26.86352   58.0    0.32044   -21.6655  0.73919 
  -48.00248  0.38838  28.49018     14.18719  1.62319  0.81161  43.78344  0.02207     0.17056  3968.87862   6014.20087   3.7949         4695.21744     17.83843  0.00038  55600.43746   4.11408  17.00473     51665311.18064  41.85662  19.01459  55682.55836    51.23436       44.41394   28.65442   57.30884  113.0    0.06042  -21.63709  0.00702 
  -16.63266  0.44883   5.17936      14.1591  1.59403  0.85663  14.09374  0.02164     0.06138  7497.32783   9632.91196  1.47971         4058.14447     16.74752    3e-05  55631.80728    4.7257   6.32563      1908390.67948  44.76212  19.00661  55712.35895    51.33653        44.0927  111.03588   137.8994   79.0    0.21201  -21.43246  0.49068 
  -24.17833  0.43866  15.50706     14.41955   1.6497  0.16022  27.78018  0.01084     0.16756  5737.14765   7799.02413  1.70178         3582.49191     17.48005  0.00017  55624.26161   5.45449  12.18617      5335634.96659    43.378  19.30762  55677.97365    51.23564       44.22816   30.44532   96.70867  141.5    0.08853  -21.08357  0.02226 
  -40.49682  0.47511  12.52278     13.88666  1.29808  1.10985  19.84649  0.02778      0.0109  6419.08205   9083.17182  0.48556         3702.60178     17.29016  0.00011  55607.94312   4.87817   9.42926     31855908.86719  42.68356  18.99361  55668.80423     51.1221        44.2723   23.28172   53.72704   74.5    0.07459  -20.87405  0.06127 
  -19.10974  0.48346   5.85206       14.207  1.61155  0.84304  13.07348  0.01825     0.05627  7587.54271   7859.60838  1.53381         3793.39319      16.3961    1e-05   55629.3302   4.48973   6.32054      1975523.13127  44.64579  18.80575  55665.55981     51.2633        44.2135   35.81803  103.87228   96.5    0.22351  -21.30461  0.43389 
   -29.0756  0.41675   1.51337     14.61596  1.57107  1.22359  22.94159  0.03501     0.04555  6445.37603   9309.86563  2.06721         4751.96463     17.21822    9e-05  55619.36434   5.68522   9.56085        19587.86277  47.81316  18.93123  55664.21953    51.21791       44.53865   16.11811   32.23622  101.0    0.09956  -21.32714  0.94176 
   -9.65576  0.48976   1.38824     14.71881   1.5281  0.69495   13.2571  0.02547     0.23531  7706.37673   7140.32847   1.5466         3972.51161     16.21379    1e-05  55638.78418   4.69652   6.49282         9983.41647  48.16879  18.72736  55694.02012    51.29032       44.11231   78.79966  123.57219   82.0    0.30474   -21.3587  0.96238 
  -18.75692  0.44711   5.34433     13.97984  1.47706   1.4216  18.55143  0.02188     0.01266  6290.37334   9916.77135  2.77534         4713.90107     16.75986    3e-05  55629.68302   4.37882   8.29451      4298494.25045  44.34914  18.67117  55664.21953    51.18855       44.19621   28.65442   94.91777   75.0     0.1802  -21.84353  0.37942 
  -16.52699  0.48297   0.79748     14.96904  1.69456  0.48844  14.71268  0.03047     0.19773  8879.02286   5787.64364  1.33195         3590.67879     16.20565    1e-05  55631.91296    6.9191    7.1058         1154.08052  49.63222  19.05454  55703.18954    51.34553       44.13489   94.91777   128.9449   92.5    0.29636  -21.30547  0.99677 
  -21.31437  0.45688   5.97642     14.04822   1.5086  0.83246  18.67044  0.01827     0.02108   7204.9065   6084.38192   2.7825         4761.49729     17.10204    7e-05  55627.12557   5.78147    8.5302      4007120.87859   44.2917  18.92447  55671.09659    51.23617       44.40475   16.11811   44.77253   87.0    0.20183  -21.87418  0.32446 
  -83.37677  0.32757   27.0293     13.66977   1.5475  1.38669  68.94633  0.03144      0.0433  3496.18125   3840.11383  4.25289         4474.35803     17.07915    7e-05  55565.06317    5.0272  22.58452     480360390.5068  40.91324  19.12521  55689.55981    51.32185       44.17439   66.26335  119.99039  114.5    0.04193  -21.49494  0.00203 
  -22.89681   0.4564    8.9006     13.91379   1.6429  1.54429  19.90807  0.02864     0.01491   5841.3427   6435.60478  4.35172         3495.99894     16.75541    3e-05  55625.54313   4.05212    9.0861     17975809.01575  43.33093  19.25736  55671.09659    51.21734       44.43337   19.69991   39.39983  110.5    0.09137  -21.21074  0.17603 
  -59.50433  0.36952  25.15318     13.75512  1.50605  1.21421  45.69736  0.02617     0.02761  4438.05039   6110.86088  2.30119         3950.63711     17.39875  0.00014  55588.93562   5.36912  16.88622    273281930.23411  41.20889  18.87295  55696.31248    51.26315       44.07114   85.96326  127.15399  123.0    0.05486  -21.27949   0.0043 
  -29.71371  0.49734  10.91801     14.59078  1.72367  0.55701  18.79673   0.0213     0.12414  7021.32139   9254.83488  1.26467         3213.00361      16.9971    6e-05  55618.72623   5.52774    9.3484      1256043.82255  44.33001   18.9936  55666.51188    51.16451       44.36295   23.28172   42.98163  102.0    0.10157  -21.02001  0.14039 
  -25.22631  0.45892   1.34719     14.68555  1.66163  0.78625  15.26655  0.02299     0.06934  7285.69034   7825.43864  1.44965          3434.8185     16.66651    3e-05  55623.21363   4.83403   7.00609        11915.59955  48.15441  18.73886  55671.09659    51.29043       44.22013   39.39983  109.24498  103.0    0.22399  -21.07624  0.96571 
  -13.22651   0.3961   1.46935     14.63932  1.50058  0.95799   21.9315  0.02184     0.10444  7330.16421   5307.80986  2.39511         4011.92833     16.86383    4e-05  55635.21343   7.02948   8.68718        15837.28058  47.91117  18.76301  55673.38894    51.33842       44.19456   59.09974  125.36309   93.0    0.22456  -21.51294  0.94466 
  -19.33028  0.45397   6.46265     13.91954  1.55823  1.32376  18.62048  0.02193     0.01473  6734.39505   7219.60983  3.00235         3857.29855     16.59841    2e-05  55629.10966    5.0375   8.45308      8753706.37072  43.89846  19.05846  55698.60483    51.30404       44.05313  116.40859   137.8994   97.5    0.14177  -21.47505  0.30001 
  -37.25066  0.44257  26.78926     13.79152  1.59692  0.42451  32.58959  0.01123     0.04855  5242.00189   6444.30147  2.04681         3273.07093     18.02428  0.00059  55611.18928   5.34196  14.42323    277953711.02598  41.17223  19.03527   55710.0666    51.28693       44.06011  103.87228   134.3176  142.0    0.06151  -21.13713  0.00119 
  -21.16141   0.4291  13.85736      14.5363  1.73541   0.7875  23.06295  0.01652     0.07201  6719.13002   7488.90361  3.78956         3413.92414      17.4838  0.00017  55627.27853   6.21109   9.89631      2618062.51792  43.80691  18.49798  55668.80423    51.22433       44.27177   26.86352   73.42695  122.0    0.15168  -21.27088  0.08775 
  -10.67561  0.48766   7.04747     14.65669  1.67022  0.55684  13.22654  0.01729     0.05008  7323.66005    8283.4613  2.08579         4125.24601     16.08085    1e-05  55637.76433   4.23185   6.45001       374354.45128  45.22227    18.852  55668.80423    51.07234       44.33442   14.32721   30.44532   84.0    0.31703  -21.37108  0.35726 
  -15.67787  0.46806   5.94305     14.04633  1.61433  1.09433  13.00924  0.02078     0.02664  7726.80113   9276.04736   2.8275         4077.06354     16.93563    5e-05  55632.76207   4.63317   6.08916      4277190.47047  44.29766  18.82473  55664.21953    51.01858       44.16566   21.49082   66.26335   75.0    0.24697  -21.62676  0.43264 
   -19.3977  0.45403   6.06693     14.12309  1.58461   1.0099   16.2855  0.02548     0.02727  7254.46904   7965.34728  2.13543           4112.463     16.63761    2e-05  55629.04224   5.11257   7.39405       3072490.1611  44.41534  18.62774  55668.80423    51.08935        44.3382   21.49082   50.14524   90.0    0.17615  -21.48439  0.37154 
  -30.85493  0.44855   2.37144     14.44237  1.50948  0.99248  22.22262  0.02911     0.04571   6433.7709   6288.49077  1.92598         3666.34633     17.03735    6e-05  55617.58501   5.48724     9.968       102783.83313  46.68572  19.12346  55700.89719    51.31562       44.06005  118.19949   139.6903  117.5    0.11045   -21.2471  0.74316 
   -46.8567  0.31573  27.32234     12.94911  1.55056  0.85774  54.27756  0.01577     0.08103  4033.47965   7807.86912  3.02634         3491.33614     16.44776    2e-05  55601.58324   5.26753  17.13715  13587154778.79939  39.45317  19.08698  55666.51188    51.14035       44.30996   19.69991   51.93614  127.0    0.05152  -21.25293    7e-05 
  -14.08806  0.40424    1.8319     14.59721  1.54205  1.04656  21.45842  0.02284     0.07669  7512.78884   5725.56656  2.46711          3966.9152     16.86585    4e-05  55634.35188   7.22482   8.67439        30710.98958  47.44385  19.14897  55664.21953    51.20848       44.21329   30.44532   94.91777   91.0    0.22902  -21.56843  0.88961 
  -20.46964  0.49601   2.69964     14.70412  1.71558  0.19718  10.03765  0.04116     0.21994  8423.85204   8854.58002  1.43787         2268.59144     16.67336    3e-05   55627.9703   4.24894   4.97874        45351.48611  46.98405  18.71142  55665.52002    51.16388       44.35869   21.49082   46.56343   69.0    0.20836  -21.61375  0.83647 
  -16.33457  0.47265   5.99919     14.43728   1.6763  0.84566  17.16852   0.0214      0.0961  7007.43292   8418.54458  2.39682          3352.9695       16.752    3e-05  55632.10537   5.02896   8.11468       747825.98358  45.06321  18.93518  55666.51188    51.11424       44.17837   25.07262   71.63605   99.5    0.19842  -21.29974  0.38005 
  -63.14245  0.39512  18.40449     14.61666  1.61083  0.90804  46.42919  0.03132     0.03324  4425.74907   5701.13288  2.57799         5551.38222     17.84832  0.00039  55585.29749    5.4249  18.34509      2960673.94641  43.47466  19.11633  55700.89719     51.3163       44.07749  109.24498   136.1085  104.5    0.05853  -21.70109  0.02576 
  -14.19164   0.4983    5.2532     14.41341  1.78616  0.56713    9.8525  0.02596     0.04242  8452.65775   7776.89732  2.01061          3512.7825     16.70652    3e-05   55634.2483   4.19914   4.90946       681975.43985  45.24615  18.79437  55677.97365    51.30967       44.19377   55.51794  118.19949   73.5    0.29634  -21.49119  0.59024 
  -10.22527  0.46548   3.77956     14.53524  1.46273  1.17537  16.16361  0.01738     0.02134  7371.92693   8812.27808  2.43273         4314.68756     17.29317  0.00011  55638.21467   5.23995    7.5239       164959.27913  46.06175  19.39011  55696.31248    51.34665       44.15125   87.75417  127.15399   74.0    0.33774  -21.59881  0.58531 
  -19.44162  0.47878   5.40037     14.22803  1.60218  1.10859  16.19825  0.01611     0.01056  7145.38132   8403.92791  1.54748         3826.50721      17.3686  0.00013  55628.99832    4.9334   7.75534      1518113.91025  44.82741   18.9335  55676.43994    51.19245       44.22201   30.44532   84.17236   79.0    0.22904  -21.37542  0.42412 
  -10.47124   0.4459   6.33791     14.34316   1.6952  0.58456  14.41768  0.01168     0.06534  7697.94249   6194.88298  3.12043         3680.09598      16.7858    3e-05   55637.9687    5.0965   6.42879      1301989.60519  44.77957  18.60917  55659.63482    51.16637        44.2775   23.28172   62.68155   90.0    0.32361  -21.60925  0.40783 
  -22.60211  0.47012  20.88488     14.47053  1.78192  0.53716  23.71854  0.01421      0.0789  6150.67225   9922.99055  3.78733         4204.74335     17.27285   0.0001  55625.83783   5.35255  11.15066      8266059.56287  42.96277  18.81575  55687.14306    51.24169       44.09519   62.68155  119.99039  109.5    0.16585  -21.57353  0.03138 
  -33.24439  0.45694   1.85953     14.91006  1.85742  1.43714  24.97873  0.03995     0.02564  6257.58436   8741.84083  3.53856         4584.02995     16.67328    3e-05  55615.19555    5.8346  11.41366         9024.21819  48.04354   19.4059  55696.31248    51.25486       44.12178   62.68155  119.99039  105.5    0.08241  -21.45335  0.95785 
  -31.20343  0.48542  14.87903     14.23669  1.91503  0.99269  19.61205  0.01921     0.01121  6685.41374   9556.30705  1.78277         3079.09426      18.1344  0.00076  55617.23651   5.22886   9.52006     13235825.32714  43.08412  18.61885  55676.43994    51.36292       44.20381   68.05425  121.78129   80.5    0.08636  -20.96003  0.08285 
  -42.28699  0.38876  26.83307     13.71639  1.86883  0.20972  34.96777  0.02071     0.10187   5359.1577   9406.40399  3.17633         3480.48268     17.53037  0.00019  55606.15295   5.99085  13.59404    461268074.90113  41.01912  18.59609  55671.09659    51.16364       44.34718   23.28172   50.14524  108.5    0.06903  -21.21384  0.00024 
  -59.12646  0.39815  28.58556     13.86123  1.50519   1.1379  43.73399  0.02623     0.02137   4577.9819    6960.1696  2.38588         3426.01862     17.56453   0.0002  55589.31349   5.46757  17.41272    216391749.33315   41.1989  19.54698  55671.09659    51.08858       44.13472   26.86352   82.38146  124.0    0.05458  -21.23569  0.00363 
  -20.65302  0.45366   1.57161     14.66355  1.77404  1.18227  17.81883  0.03569     0.04211  6830.13608   9208.35054  2.87095         3381.63802     16.25276    1e-05  55627.78692   4.95867   8.08362        19159.02895  47.84275  18.60676  55664.21953    51.24515       44.55312   16.11811   30.44532   88.5    0.15267  -21.26435  0.95284 
  -15.02371  0.49861   6.59224     14.13124  1.56262  0.86569  12.00147  0.01795     0.05201  7974.24974   7888.21285  1.80737         3861.68367     16.70256    3e-05  55633.41624   4.55241   5.98407       3445445.7877  44.28739   18.9098  55675.68129    51.08423       44.11787   35.81803   89.54507   97.5    0.22522  -21.27287  0.37448 
  -83.33567  0.41334  29.24758     14.23652  1.83778  0.76792  52.05033  0.03457     0.04108  4139.44496   6169.12081  3.07519         3901.27879     17.45572  0.00016  55565.10427   5.32028  21.51426     49118031.05933  41.90972  18.88143  55668.80423    51.11168       44.30206   21.49082   46.56343  122.5     0.0507  -21.37289  0.00608 
