 texplosion  fnickel    Pspin  log(Bfield)      Mns  thetaPB   mejecta    kappa  kappagamma      vejecta  temperature    alpha  cutoff_wavelength  log(nhhost)      A_V         MJD0   kenergy  mnickel            TSD   log(L0)  Peak_mag     Peak_MJD  log(E_rad)  log(Peak_lum)  Rise_Time    E_fold  tau_1  delta_m15     r_peak     frac 
  -16.77123  0.18091  3.74181      14.1004  1.51163   1.0524   5.16918  0.04154     0.10322   7591.81561   9707.64757  3.63936          4006.9241     19.14476  0.00775  57381.85407   1.77721  0.93514  1237731.77329   45.2095  19.28631  57409.43651    51.07506        44.5033   17.19903  25.01677   32.5    0.50403   -22.0614  0.92118 
   -40.7666  0.08444  1.98004     14.04443  1.43208  0.92473  22.67161  0.02826       0.046   6286.71528   7721.97218  1.67675         5871.78369     16.97494    5e-05   57357.8587   5.34512  1.91437   424886.61421  46.20319   19.7383  57402.47091    51.31161        44.5885   21.88968   45.3429   44.0    0.22545  -22.29833  0.94996 
   -38.6722  0.20461  1.45531     14.36748  1.70159  0.74638  15.02754  0.09371     0.05714  10038.65467   7054.99999   1.2017         5316.70865     18.80539  0.00355   57359.9531   9.03371  3.07481    61605.68991  47.38417  19.54982  57409.43651    51.11581       44.57714   17.19903  23.45322   43.5    0.21131  -22.11429  0.96764 
  -36.48083  0.17109   1.1269     14.54277  1.97233  0.40719  18.51839  0.07784     0.07516  12706.73656   8670.03144  3.57222         2402.41676     21.00188  0.55797  57362.14447  17.83604  3.16829    19099.41732  48.17903  19.56397  57409.43651    51.15953        44.5392   12.50839  32.83451   41.0    0.20156  -22.43262  0.98374 
  -54.63507  0.18838  0.71345      14.2542  1.80072  1.24362   22.2953  0.22436      0.3305  17133.65065   5614.16582  0.77826         3892.67417     18.98675  0.00539  57343.99023  39.04273  4.20008      26398.993  48.39598    19.475  57407.11464    51.10239       44.46503   20.32613  29.70742   69.5    0.14896  -21.35129  0.99377 
  -42.44708  0.06806   1.2768     14.23351  1.69082   1.0579  22.98112  0.07299     0.01167   9459.00894   8540.19003  1.45483         4002.07269     18.35272  0.00125  57356.17822  12.26562  1.56402    87325.36444  47.34356  19.61739  57404.79278    51.19315       44.46968   26.58032  39.08871   41.5    0.17921  -21.83548  0.98717 
  -56.06389  0.05221  2.02005     14.03721  1.76195   1.2871   7.65935  0.18221     0.03053  10459.13521   8184.53231  0.22553         4306.42545     16.34784    1e-05  57342.56141   4.99817  0.39992   562484.18214    46.154  19.75918  57404.79278    51.20661       44.51634   28.14387  37.52516   37.0    0.20673  -21.60742  0.99168 
  -66.54798  0.02054  1.86024     14.13202   1.8307  0.84357   9.42057  0.22703     0.05098  10741.51107   6833.74124  0.56433         2622.73181     16.20752    1e-05  57332.07732   6.48388   0.1935   320280.07729  46.48679  19.70922  57404.79278    51.34291       44.54363   18.76258  48.89159   47.0    0.17042  -21.47945  0.99676 
  -14.86683  0.12211  4.22068     14.21195  1.86439  1.35981   6.52817  0.03083     0.48838    7634.3452   8577.89906  4.37451         3340.67864      19.3413  0.01219  57383.75847   2.26967  0.79714  1162058.61959  45.22339   19.5683   57398.6253    51.23494       44.46634   20.32613  43.77935   32.5    0.53323  -21.88149  0.93669 
  -51.54588  0.11592  0.94088     14.42197  1.75993   0.7243  28.25529  0.07489     0.01468   10166.5743   5286.02162  1.48739         4130.08486     18.98808  0.00541  57347.07942  17.42113  3.27526    20722.56358  48.25083  19.70023  57398.64605      51.272       44.52895   20.32613  46.90645   51.5    0.14475  -21.35489  0.98897 
  -50.06875  0.04075  0.79775     14.12185    1.514  1.22896  10.72143  0.17662     0.08167  10891.32715   8873.74361  0.51252         5883.38365     19.33518  0.01202  57348.55655    7.5865  0.43687    51047.67956  47.93726  19.76461  57402.47091    51.31755       44.55558   21.88968  50.03354   38.0    0.19248  -21.49342   0.9986 
  -26.76746  0.13803  3.99116     14.04713  1.79467  1.19465   6.10091   0.0545     0.06486   9841.59417   8208.99718  2.89489         3255.29504     18.09426  0.00069  57371.85784   3.52495  0.84213  2136663.66813   44.9909  19.67869  57390.86156    51.37802        44.6101   28.14387     48.47   47.5     0.3508  -21.78766  0.93606 
  -31.46169  0.30977  1.85225     14.11249  1.50854  1.43412   8.78257  0.11153      0.0946   9288.10324    8533.2737  1.60066         5477.69061     18.26574  0.00102  57367.16361   4.51963  2.72057   286275.97631  46.45522   19.6686  57402.47091    51.29861       44.50925   29.70742   42.6374   40.0    0.24271  -22.21917  0.94358 
  -43.93034  0.08397  0.70102     14.22747  1.94706  1.50002  34.75452  0.08944     0.01382  15481.65609    6302.3031   4.6516         2470.37818     20.81807  0.36542  57354.69496  49.69049  2.91835    31168.91041  48.37304  19.57777  57402.47091    51.23933       44.49427   17.19903   45.3429   41.5    0.16032  -22.06908  0.99605 
  -59.44367  0.06055  1.07251     14.19246  1.66721  0.83663  15.86651  0.22249     0.06411  13377.94731   5833.70412  0.36836         3113.28798     16.63438    2e-05  57339.18163  16.93899   0.9608    73398.98606  47.56434   19.7208  57402.47091    51.31096       44.64008   18.76258  40.65225   52.0    0.16275  -21.36126  0.99419 
  -33.81072  0.21323  3.68855     13.95228  1.74042  1.43516   4.47946  0.11453     0.08736   10650.0234   7304.79188   2.6093         3113.19548     18.74557  0.00309  57364.81458   3.03078  0.95514  2739253.25697  44.93816  19.37722  57409.43651    51.11146       44.52295     17.346  26.43335   51.0    0.27563  -21.79214  0.93506 
  -35.58643  0.17684  1.09467     14.18871  1.39834  1.03996  14.75354  0.11419     0.05777  10316.06212   8023.78066  1.96508         4705.20151     19.59826  0.02203  57363.03887   9.36594  2.60907    65248.85662  47.52132  19.61209  57400.14904    51.27461       44.51945   20.32613  46.90645   43.0    0.20493  -22.12218  0.98049 
  -46.61012  0.31582  1.51408     14.29461  1.86547  1.10154    12.661   0.1567     0.06253  11558.02966   6446.29082  1.07573         5158.66432     19.44586  0.01551  57352.01518  10.08934  3.99863   102255.58633  47.16965  19.43007   57407.3329    51.11436       44.48783   20.32613  29.70742   50.5    0.16747  -21.84701  0.96058 
  -61.76376  0.18198  1.02427     14.44146  1.77293  0.54314  24.90255  0.10062     0.03369  10689.37014    5466.2692  2.03756         2089.71155     17.28484  0.00011  57336.86154  16.97365  4.53185    22616.05142  48.14229  19.51516  57407.11464    51.13942       44.51966   20.32613  29.70742   64.0    0.13117  -21.28122  0.97889 
  -55.76171  0.21003  2.97621      14.0336  1.86896  1.28032   7.68346  0.17952     0.03754   9558.99684   5304.35615  2.71318         3239.64198      16.1658    1e-05   57342.8636   4.18802  1.61374  1316894.66584  45.47357  19.75315  57402.47091    51.29463        44.5469   31.27096   42.2158   50.0    0.16642  -21.68739   0.9364 
  -64.74644  0.11504  0.79783     14.26912  1.88365  0.98256  17.90956  0.20592     0.02496  11316.45631   5807.49101  1.11389         3185.35962     16.40817    1e-05  57333.87886  13.68148  2.06026    32240.23932  48.23163  19.74437  57404.79278    51.48946       44.78119   32.83451  39.08871   54.5      0.143  -21.00497  0.99543 
  -37.96779  0.22254  3.09591     13.99271  1.54337  1.03505   6.93041   0.1025     0.11651  10071.24434   7024.37257  4.21983         2813.95958     18.84787  0.00391  57360.65751   4.19326  1.54232  1420500.98164   45.3233  19.65508  57397.82717    51.27189       44.54289   21.88968  46.90645   51.5    0.23917   -21.8017   0.9142 
  -42.63534  0.14367  3.56047     13.93713  1.81979  1.47888   4.94655  0.15748     0.13979   9766.58066   6210.65315  2.11712         4255.58029     18.86375  0.00406  57355.98996   2.81459  0.71066  2861421.88356  44.96927  19.69789  57400.14904    51.38749       44.61736   23.45322  50.03354   51.5    0.22196  -22.01978  0.95686 
  -40.46715  0.32304  1.98647      14.1013  1.68905  1.52182   9.95848  0.11427     0.03384   7865.66805    8815.4025  1.86168         5878.21568     18.58583  0.00214  57358.15815   3.67529    3.217   388169.26465   46.3113  19.60835   57407.3257    51.15376       44.48144   23.45322  34.39806   46.5    0.17784   -22.3972  0.93532 
  -60.72725  0.05129  0.77783      14.1995  1.64323  0.97962  12.63363   0.2069     0.07907  10301.44932   8563.46788  0.76424         3667.76292      17.8243  0.00037  57337.89805   7.99746    0.648    36838.01896  48.13648  19.73569  57404.79278     51.2336       44.52067   28.14387  39.08871   54.5    0.10777  -20.99878  0.99827 
  -41.62817  0.07569  1.26558     14.28817  1.66925   0.8919  20.46016  0.06264     0.01362   8356.83621   8685.76845   1.5572         5591.20438     18.24585  0.00098  57356.99713   8.52354  1.54856    65853.56767  47.46821  19.61545  57409.43651    51.16804       44.49942   28.14387  35.96161   41.0     0.1872  -22.23282  0.98738 
  -34.89972  0.02553  3.55376     13.96967  1.73238  1.15663   4.82546  0.08945     0.06327  10639.85837   6987.88701   1.4334         3888.56105     17.90872  0.00045  57363.72558   3.25865  0.12319  2336120.46338  45.03762  19.75296  57402.47091    51.23807       44.51214   28.14387  40.65225   48.0    0.29338  -21.85235   0.9917 
  -30.14984  0.15047  3.42676     14.07797  1.67458  1.15128   6.90487  0.08433     0.11886   8446.86266   8231.39166  2.72573         3742.61812     18.50752  0.00179  57368.47546   2.93882  1.03897  1275124.01012  45.31743  19.73198  57402.47091    51.37872       44.59093   25.01677  53.16064   43.5    0.27459  -21.82156  0.93601 
  -43.35395  0.24797  0.77168     14.33258  1.77947  1.28195  13.06505   0.1519     0.08418  11922.07186    8087.2063  1.04142         4720.13665     18.09325  0.00069  57355.27135   11.0775  3.23975    21272.71298  48.41644  19.54367  57407.11464    51.18859        44.4747   25.01677  37.52516   44.0     0.1842  -21.74824  0.99514 
  -32.25333   0.0681  1.66346     14.32584  1.83078   1.1716  20.13268  0.05454     0.04312   8358.24105   8015.65251  2.08411         4823.55356     18.39257  0.00137  57366.37197   8.38993  1.37112   104905.40295  47.06866  19.64486   57395.5053     51.2687       44.47999   21.88968  50.03354   40.5    0.22592  -22.07271  0.98291 
  -43.73048  0.40403  1.58409     14.23763  1.71909  1.03657  10.77475  0.16933     0.15322  11747.33312   6285.91985   1.0672         5923.04721     18.69626  0.00276  57354.89483   8.86978  4.35333   134094.18909  46.97717  19.68173  57400.14904    51.35325        44.6361   29.70742  39.08871   47.5    0.18305  -22.15781  0.94647 
   -24.2609  0.05513  4.07307     14.02523  1.88416  1.19818   5.12877  0.04879     0.11085  10184.19507   5762.26092  2.11327         3591.60745     18.55082  0.00197   57374.3644   3.17318  0.28277  2584139.93567   44.9118  19.68709  57404.79278    51.16306       44.49463   23.45322  35.96161   54.0     0.3478  -21.83749  0.97818 
  -39.28011  0.24827  3.64452     13.94194  1.72573  1.40914   5.34453  0.11747     0.35585  10689.52748   6853.23766  2.78417         3490.66672     19.17269  0.00827  57359.34519   3.64296  1.32689   2780956.4721  44.93834  19.63332   57407.3329    51.16976       44.49152   23.45322  34.39806   52.5    0.25822  -21.92283  0.91288 
  -35.98819  0.06595   3.0613     13.86949  1.29954  0.83587  14.44087  0.02123     0.07684   6467.20316   7008.50826  2.63931         5101.49347     17.70568  0.00028  57362.63711   3.60291  0.95234  2062703.61901  45.09639  19.70047  57402.47091    51.24237       44.49149   18.76258  43.77935   48.0    0.29357  -22.22511  0.93093 
  -38.77687  0.02097  2.08317      13.6649  1.01967  0.89682  16.88962  0.02752     0.05787    6388.8777   7307.18561  1.80903         5402.34093     17.33057  0.00012  57359.84843   4.11241  0.35423  1922721.84859  45.35594  19.62226   57407.3329    51.15228       44.43665   26.58032  37.52516   51.0    0.22746  -22.19404  0.98207 
  -27.79195  0.19302  1.44941     14.48881   1.7411  0.86961  16.84354   0.0613     0.02406   9098.55769   9364.82387  2.73751          4192.8873     18.83759  0.00382  57370.83335   8.31774  3.25117     35760.2712  47.63389  19.66621   57395.5053    51.37934       44.52679   29.70742  59.41483   39.5     0.2299  -21.95004  0.97155 
  -48.00512  0.18381  1.79703     14.21864  1.58822  0.68727  14.20944  0.07816     0.05609   6565.84565   7563.94421  2.10473         5710.33608      18.2647  0.00102  57350.62018   3.65414  2.61186   174000.61691  46.72009  19.73089  57404.79278    51.37151       44.53276   23.45322  54.72419   52.0    0.16043   -22.2005  0.95197 
  -40.26219  0.09537  2.93959      14.0826  1.53817  0.72148   5.54931  0.15274     0.07446   9721.60779   8148.87752  3.06501         3045.96552     18.18031  0.00084  57358.36311   3.12854  0.52926   843703.61807  45.59309  19.61481  57409.43651    51.12332       44.55131   18.76258  26.58032   46.0    0.21848  -21.79013  0.97164 
  -33.43121  0.16501  3.56154     14.01326  1.69352  1.22179    5.1077  0.10991     0.08881  11170.25335   8856.81096  3.46476         2778.49584      18.6333  0.00239   57365.1941   3.80171  0.84282  1876564.03838    45.121  19.64817  57409.43651    51.14621       44.53798   17.19903  31.27096   41.5    0.28706  -21.76048  0.94411 
   -27.0408  0.11001  3.68768     14.10506  1.68648  1.12215   7.11976  0.06368     0.10052    9439.5954   6977.49163  2.89992         3734.44058     17.98534  0.00054   57371.5845   3.78442  0.78325  1312717.27955  45.24415  19.70919  57393.18343     51.4092       44.61634   28.14387  46.90645   41.0    0.36113  -21.88788   0.9442 
  -42.94724  0.28959  2.88739     13.90609  1.55503  1.42415   4.73694  0.11499     0.04715   8187.46575    6494.7283  1.20621         4765.27139      17.2851  0.00011  57355.67806   1.89419  1.37179     1855191.94  45.27118  19.64596   57407.3329    51.21433       44.52833   25.01677  35.96161   50.5    0.23722  -21.90285  0.93302 
  -61.36755  0.05253   1.0998     14.34259  1.80505  0.71715  38.95993  0.06048     0.04952   9078.23037   6074.15383  1.15414         3757.51819      16.3019    1e-05  57337.25775  19.15348   2.0464    41855.19767  47.82096  19.74233  57404.79278    51.12052       44.43633   25.01677  34.39806   62.5    0.13522  -21.13271  0.98891 
  -31.02605  0.13118   3.0055     14.09074  1.56354  1.03377    8.2552  0.08371     0.05664   9448.41014    8780.9665  2.66629         3969.20054     19.21801  0.00918  57367.59925   4.39615  1.08295   863513.94733  45.57085   19.8147  57407.11464    51.36617       44.59927   23.45322  51.59709   38.5    0.29725  -21.98671  0.94292 
  -48.35884  0.11807  0.88528     14.14518  1.60968  1.35284  10.97985  0.14742     0.03025    8306.3818   8961.77528  0.91832         5051.32178     17.89669  0.00044  57350.26646   4.51905  1.29636    60028.35823  47.80307  19.74652  57402.47091    51.30124       44.55108   20.32613     48.47   44.0    0.15684  -21.47377  0.99514 
  -49.01865  0.05678  3.31604     13.87069  1.87886    1.223    5.8975  0.12544     0.04681  10881.35195   7346.51817  0.80141         3949.58065     17.18311    8e-05  57349.60665   4.16544  0.33484  3479981.32527  44.95992  19.52667  57404.79278    51.11018       44.45554   23.45322  31.27096   50.0    0.20318   -21.8992  0.98258 
  -63.75023  0.06674  2.60116     13.85271  1.70673  1.10813   5.82154  0.23888     0.04919  10737.06815   9087.93673  1.43154         2057.01857     16.06934    1e-05  57334.87507   4.00347  0.38852  2112985.77969  45.34578  19.73455  57404.79278    51.25304       44.50395   25.01677  43.77935   38.5    0.18604  -21.75748  0.98576 
  -50.75047  0.08583  2.89654     14.05866  1.70142  0.67371   5.64142  0.15882     0.01939   9551.48643   7321.18382  2.43573         2826.04929     18.29839   0.0011  57347.87483   3.07014  0.48422  1011755.58464  45.57082   19.6487  57404.79278    51.18991        44.5387   24.01161  33.83968   41.0    0.22725  -21.77799  0.97807 
  -50.41598  0.09245  0.77612     14.15901   1.5632  1.08011  21.13491  0.18962     0.03846  14743.73587   6275.99013  0.64702         2876.09673      16.7944    3e-05  57348.20932  27.40581  1.95387    42040.98847  48.05933  19.39281  57409.43651    51.07645        44.5636   15.63548  21.88968   49.0    0.15641  -21.44806  0.99446 
  -52.26313   0.1001  0.89704     14.58224  1.97637  0.56253  38.25606  0.05731     0.02433   9627.46878   5873.03039  2.09773         2946.65489     18.09055  0.00068  57346.36218  21.15201  3.82936    10111.56768  48.65427  19.66589  57404.79278    51.15773       44.49743   15.63548  37.52516   65.5    0.12762  -21.22742  0.99111 
  -71.37465  0.05767  0.73921     14.39083  2.11505  0.79635  20.36976  0.12589     0.03829   9561.55424    4796.9607  0.46792         4436.27594      16.7055    3e-05  57327.25065  11.10887   1.1747    17742.52434  48.60762  19.65142  57400.14904    51.28074       44.53654   20.32613  46.90645   54.5    0.15306  -20.91967  0.99831 
  -40.21865  0.27424  2.50879     14.11922  1.44414  0.87191     9.655  0.06676     0.03635   5982.32461   6626.83152  2.52011         4596.67568     18.74017  0.00305  57358.40665    2.0612  2.64777   487431.10679  45.94161  19.74957  57400.14904    51.33655       44.52643   21.88968  54.72419   48.5    0.20833  -21.97931  0.89625 
  -49.81017  0.10778  0.75136     14.34021  1.81727  1.08295  41.77466  0.06785     0.08166  12091.95246    5890.3484  1.59514         3689.51539     18.03137   0.0006  57348.81513  36.43619  4.50237    19884.59564  48.47805  19.66959  57397.82717    51.35927       44.57761   32.83451   45.3429   63.5    0.13093  -21.40258  0.99333 
  -44.07283  0.20473  1.27194     14.22573  1.71339  1.30923  15.23469  0.13229     0.03406    10753.643   7836.16156  1.68127         4851.09538     18.30852  0.00113  57354.55247  10.50926  3.11902    91022.43621  47.33462  19.69943   57395.5053    51.32963       44.49081   25.01677  57.85129   47.5    0.16687  -21.94451  0.97595 
   -37.5535  0.15002  1.05803     14.32282  1.76119  1.29449  22.90812  0.09338      0.0686  12080.54958   8312.74914  1.76963         4206.40193     18.52054  0.00184   57361.0718  19.94298  3.43675    41397.65289  47.84868  19.69077  57400.14904    51.35178       44.54319   23.45322  54.72419   44.5    0.17736  -22.04653  0.98576 
  -57.15018  0.03308  2.55412     14.07766   1.9386   1.1199  11.49448  0.07995     0.03062   6658.76374   6102.23608  1.17861         4780.92513     17.64611  0.00025  57341.47512   3.04021  0.38026   821244.46174  45.82738  19.70459  57397.82717    51.37636       44.58456   25.01677  46.90645   56.0    0.16121   -21.6562  0.98901 
  -44.10016  0.15098  1.18077     14.21456  1.72894  1.14861   13.1481  0.15984     0.03307  12677.04247   9866.61965  0.73084         3988.96058     19.92295  0.04652  57354.52515  12.60452  1.98516    83329.18926   47.4415  19.58484  57400.14904    51.25777       44.48397   23.45322     48.47   33.5    0.20335  -21.84947  0.98678 
  -40.03003  0.13864  2.20296     14.25809   1.8889  1.26317  10.94397  0.11522     0.05517   9796.59004   6951.06799  2.47096         3554.17865     18.64144  0.00243  57358.59527   6.26545  1.51729   259337.29806  46.44518  19.71078  57402.47091    51.25644       44.57531   26.58032  37.52516   44.0    0.21125  -21.87311  0.96735 
   -23.8574  0.12124   3.4702     13.89757  1.41842  1.28074   4.60867  0.08448     0.07883  11391.31397   8924.56218  3.78984         3209.99205     18.44504  0.00155   57374.7679   3.56739  0.55878  2542034.61113  44.93476  19.74184  57402.47091    51.37032       44.52176   25.01677  62.54193   39.0    0.38306  -21.85657   0.9535 
