 log(Bfield)      Mns    Pspin  cutoff_power  cutoff_wavelength  fnickel    kappa  kappagamma   mejecta  log(nhhost)  temperature  texplosion  thetaPB      vejecta      A_V        MJD_0   log(KE)      M_Ni  Peak_mag     Peak_MJD 
    14.75174  1.84042  2.35049       4.30341         2057.74887  0.42438  0.05464     0.10021   23.7641     19.75422    7258.2692   -19.89705  0.56691  23152.70233  0.03155  57378.72825  53.40366  33.61858  19.61199  57409.85219 
    14.10863  1.73753  2.19552       1.40248         5957.33841  0.03034  0.03437     0.08626  27.72082     16.81977   8709.14246   -36.95098  1.44929   7709.14466    4e-05  57361.67432  52.46051   2.47088  19.71756  57404.38452 
    14.16462  1.51574  2.71995       0.54737         2657.16134  0.05775  0.04348     0.03715  27.26156     18.19981   4564.02584   -45.57696  0.49941  13692.77418  0.00088  57353.04834  52.95819   4.68916  19.61588  57409.85219 
    14.69804   2.0708  0.76903       3.66444         2343.20346  0.17546  0.07412     0.08542  16.58249     21.36846   9982.47479    -32.2639  0.16403  12455.71423  1.29775   57366.3614  52.83568   12.9865  19.66085  57409.85219 
    13.91451  1.59681  2.15729       0.13579         5972.66538  0.20686    0.274      0.2122  10.20307     18.98626   6465.11591   -55.62565  1.28563  13905.45441  0.00538  57342.99965  52.88801  13.85768   19.6832  57407.11836 
    14.16434  1.49691  2.49226       3.68805          2126.6568  0.18446  0.05219     0.03543  29.76303     18.18495   6815.08317   -33.23181  0.92852  17084.48771  0.00085  57365.39349  53.15715  15.21345  19.75041   57407.3329 
    14.51394  1.59976   2.7055       3.67406          2052.3082  0.37134  0.06195     0.40615  20.40042     17.49076    5540.9146   -28.19955  0.50594  17820.75446  0.00017  57370.42575  53.16403  28.59691  19.68384  57401.65069 
    14.13751  2.08422  3.48398       1.24586         4711.85618  0.01346  0.11204     0.17428   5.56179     16.48086   9529.63494   -39.82614  1.29787   8229.27103    2e-05  57358.79916  52.37139   0.78353  19.70649  57401.65069 
     13.9158  1.43455  1.99082       1.70998         4775.56651  0.01218  0.04003      0.0963  18.45195     19.69726   9480.86758   -50.20443  1.22738   5134.69879  0.02767  57348.42087  52.07494   0.92041  19.66819   57407.3329 
    14.36102  1.45932  1.58658       0.49601         3903.19492  0.20931  0.13998     0.01012   21.1728     20.36759   7480.83805   -66.35037  0.26936  10983.73654  0.12951  57332.27493   52.7467  16.23139  19.55717   57407.3329 
    13.77169  1.37735  2.10539       2.34444         2054.96088  0.14498  0.11949      0.3048  15.43715     20.32396   5157.48619   -53.37339  1.39412  14344.01006  0.11714  57345.25191  52.95217  10.58053  19.70516   57398.6253 
    14.04536  1.72029   2.5646       2.83208         2017.09863   0.0752  0.07974     0.02836  16.11781     16.23212   9061.81702    -44.2941     1.11  11149.45493    1e-05   57354.3312  52.73703   5.53512   19.7051  57393.44919 
    14.31121  1.74006  0.74872       0.09559         3877.05767  0.41117  0.16258     0.18363  24.41981     19.12852   4826.86215    -43.4007  1.45271  18175.79558  0.00747   57355.2246  53.19559  32.73414  19.62817  57404.38452 
    13.98584  1.68628  1.11679       3.87555         2075.29517  0.07847  0.15311     0.01786  16.67964     20.86288   6806.92587   -56.79626  1.02164  10950.64978  0.40514  57341.82904  52.72432   5.81435  19.59755   57407.3329 
     14.2602  1.67943  4.02233       2.51198          2711.9449  0.49209  0.07263     0.30446   11.4564     19.61681   7325.96186    -22.3179  0.80648  21459.34529  0.02299   57376.3074   53.2756  33.79032  19.68266  57404.38452 
    14.07492  1.61362  4.20253       1.78323         2227.55276  0.47128  0.03803     0.02425  27.13983     20.31878   6589.65255   -37.76805  0.69499  21804.25383  0.11575  57360.85725  53.36194  38.23898  19.73285  57407.11836 
    13.99101  1.43938    3.275       2.08981         3719.41579  0.24208  0.09975     0.14319   4.70012     18.09664   5774.96099   -23.89173  1.00813  11987.32114  0.00069  57374.73357  52.67956  13.50336  19.68137   57407.3329 
    13.93193  1.68634  2.22013       0.33942         5481.65305  0.40524  0.20005     0.07956   11.7877     19.41498   3793.67757   -68.15975  1.32293  11253.89406  0.01444  57330.46555  52.71758   27.9936  19.65491  57409.85219 
    14.36767  1.69723  0.89732        1.8602         2396.58421  0.11634  0.08923     0.01425  23.97067     16.81317   4677.74179   -71.34638  0.57117   7832.84174    4e-05  57327.27892  52.46298    9.2305   19.7179  57404.38452 
    14.14208  1.88721  1.72115       1.49158         2119.82861  0.10493  0.23092     0.11277  10.87407       16.393    4322.8756   -67.09971  0.95663  10155.95867    1e-05  57331.52559  52.62101   7.12592  19.74422   57398.6253 
     14.7311   1.7557  1.16722       0.84336         2307.76759  0.31589  0.03864     0.03221  33.15452     20.21976   5229.40506   -30.43343  0.51387  16268.18529  0.09215  57368.19188  53.12276   26.5458  19.68278  57401.65069 
    14.00669  1.51232  2.87655       4.82958         2044.63252  0.22364  0.09721     0.41887   11.2385     18.55866   5300.82454   -42.03027  0.81123  13957.08371  0.00201  57356.59503   52.9002  15.29464  19.67953   57407.3329 
    14.00262  2.11865  2.93121       4.43846         2122.40724  0.04819  0.14824     0.04299  13.77352     20.14347   4626.21824   -59.20701  1.25694   13369.3292   0.0773  57339.41829  52.88112   3.43753  19.65683  57407.11836 
    14.55794  1.48262  1.55737       0.93901         4040.56521  0.17114  0.02507     0.05454  51.95457     16.16796   4548.36104   -21.69541  0.74379  19994.33395    1e-05  57376.92989  53.33423  15.49338  19.70204   57407.3329 
    14.11991  1.59055  1.76363       3.47559         2286.79114  0.19801  0.07953     0.41508  20.07295     20.40707   9354.47647   -31.59234  1.41706  14556.66998  0.14184  57367.03296  52.98698  15.20247  19.71605  57401.65069 
    14.00249  1.77677  4.15051       0.45882         3024.95311  0.17214  0.02532     0.10205  33.56556     16.88893   6534.75448   -33.23322  1.45981  18950.01032    4e-05  57365.39208  53.25622  14.49598  19.72336  57404.38452 
    14.54774  1.78278  1.30695       1.04635          2971.0727  0.43978   0.0651      0.1624   26.4047     17.91753   6893.66258   -25.43305  1.28154   21894.5452  0.00046  57373.19225   53.3634  35.50905  19.65972   57407.3329 
    13.95591  1.54303  3.80412       2.95756         2338.68564  0.22974  0.04139     0.04202  23.46846     19.03495   7278.87639   -29.64258  0.87683  24615.87094  0.00602  57368.98272  53.45589  18.15807  19.66851  57404.38452 
    14.19844   2.0866  3.42082       1.41267         2714.38452  0.11148  0.03947      0.1636  32.33742      19.7964    6935.1178   -36.06443  1.49786   15710.4585  0.03476  57362.56087  53.09059     9.328  19.69206  57401.65069 
    14.71139  1.70639  1.68096       2.20581         2643.99291  0.17667  0.06005     0.37053  30.16682     21.01693   8218.39389   -26.31221  0.21043  23054.45098  0.57765  57372.31309  53.41848   14.6047  19.73702  57401.65069 
    14.29173  1.78194  0.77121       3.86977         2078.02414  0.15514  0.15119     0.03764   27.1556     18.43133    5037.6785    -42.7041  1.16816  16310.10367   0.0015   57355.9212  53.10982  12.58891  19.67122  57404.38452 
    14.02326  1.70868  3.69365       2.47978         3255.31191  0.07884  0.12296      0.1174   4.46031     17.89815   3772.91953   -26.95946  1.02579  13540.91384  0.00044  57371.66584  52.77947   4.33814  19.71783  57404.38452 
    14.02867  1.36083  1.27712       0.05953         5879.24756  0.23203  0.11451     0.46627  24.87967     19.68793   5333.90164   -47.80228  1.20923   16034.1414  0.02708  57350.82302  53.08817  18.53489  19.69762   57407.3329 
    14.11133  1.73249   3.4092       2.24785         2677.36241  0.19417  0.04206     0.02844  29.95939     18.48235   4966.83072   -37.84482  1.15356  15062.46733  0.00169  57360.78049  53.04823  16.03195  19.76754  57401.65069 
     14.4857   1.4225  1.41206        0.7562         2271.14645  0.37807  0.05363     0.40984  22.82424      20.2656   8680.79849   -35.20286  0.48307  15046.28803  0.10241  57363.42244   53.0261  29.72944  19.68288  57396.18302 
    14.46023  1.63567   3.9741        2.1802         3657.98302  0.09515  0.01978     0.46016  16.24043     19.42279   8591.49251   -20.18046  0.32541   13723.9079  0.01471  57378.44484  52.91813   7.01379  19.65507  57407.11836 
    13.83106  1.44025  2.22396       0.61955         5130.22452  0.07806  0.05092     0.14023  18.17542     18.58596   5860.60999   -56.59145  1.36665   7517.71573  0.00214  57342.03385  52.40483   5.88086   19.6363  57409.85219 
    14.33783  1.44991  1.10054        0.5132         2248.62569  0.46494  0.06557     0.42187  27.87179     18.10949   4661.55011   -34.18861  1.38212   18610.0244  0.00071   57364.4367  53.22641  37.90337  19.76443  57401.65069 
    14.11968  1.53411  1.60712       0.15358         4055.56612  0.11062  0.05939      0.0122   36.7731      16.4877   6786.49036   -48.23738  1.03032  12950.00089    2e-05  57350.38792   52.9323   9.46121  19.76297  57404.38452 
     14.3762  1.66654  2.41052       0.96744         5692.22059    0.278  0.02271       0.105  30.99435     16.93122   4505.83355   -26.09312  1.05688   11667.5723    5e-05  57372.53218  52.82898  23.09032  19.72816  57390.71536 
    14.18903  1.73123  1.47856       1.47719         5136.09089  0.06335  0.10072     0.16977   9.13959     16.14709   7048.13962   -44.39132  1.16425   5544.33213    1e-05  57354.23398   52.0789   4.14286   19.7464  57398.91686 
    14.19509  1.73031  1.33871        0.3932         2215.96436  0.03179  0.03888     0.02069  44.99515     16.37112   5399.14173   -53.69791  0.93371   9536.02889    1e-05  57344.92739  52.68106   2.81199  19.61353  57409.85219 
    14.01196  1.51814  0.76195       0.64864         2982.59227  0.04126  0.03368     0.03422  54.37302     20.21022   6402.83172   -65.61503  1.34457   7455.27333  0.09015  57333.01028  52.48049   3.76274  19.70453  57407.11836 
    13.91453  1.47941  2.13268       0.42523         5452.98558  0.04517  0.03571     0.01296  43.92701     19.99084   4429.66789   -48.62336  1.18868  11868.95542   0.0544  57350.00194  52.86944   3.97991  19.59948   57407.3329 
    13.93848  1.34585  2.28737       4.61265         2003.83481  0.15401  0.07388     0.01349  21.73281     20.17158   7651.81785   -63.04946   0.5084  11842.35096  0.08247  57335.57584  52.81419   12.0014  19.55383  57409.85219 
    14.83146  1.91696   3.1658       0.48866         5616.13803  0.34891  0.03991     0.05445  30.64906     16.49149   9951.68613   -27.29236  0.43923  19656.54043    2e-05  57371.33294  53.28118  28.92392  19.67381   57407.3329 
    14.07479   1.6364  1.54494        0.2301         4878.33649  0.05018  0.03652     0.06656  63.55307     19.85832   8476.17014   -48.63252  1.54057  13207.68153  0.04009  57349.99278  52.98783   4.68858  19.70431  57393.44919 
    14.65088  1.86988   0.7642       1.37827         3498.59128  0.26934  0.02603     0.01492  33.62773     19.81145    7761.7088   -20.36103  1.43496  14866.27485  0.03599  57378.26427  53.04554  22.68921  19.70325  57404.38452 
    14.42872  1.63354  2.67634       4.16988         2035.59734  0.35187  0.05771     0.14656  25.80154     17.67209    3466.6255   -29.78651  0.79819  20588.46206  0.00026  57368.83879  53.30817   28.2934  19.69038  57404.38452 
    13.98322  1.70311   3.0234       1.13488         4426.39115  0.08926  0.20173     0.44806   3.37939     18.13562   7478.14487   -41.03767  1.25143   8367.24534  0.00076  57357.58763  52.32845   4.55325   19.6024   57407.3329 
    14.08209  1.52846   2.2995       0.76963         4366.28901  0.22199  0.09873     0.46404  17.10467     16.64408   5307.26041   -33.61273  1.39164  14727.86831    2e-05  57365.01257  52.98385  16.53017  19.72258  57404.38452 
     14.4934  1.81188  1.18099       0.07871         4797.53836  0.16876   0.0222     0.09327  57.90582     16.86652   6229.23564   -30.86742  1.39829  17046.85862    4e-05  57367.75788  53.20317   15.5422  19.70507   57407.3329 
    14.09807  1.64962  4.02355       3.57183         3279.27102  0.21008  0.02461     0.06565  13.36347     16.80515   6430.57938   -23.01308  1.56324   9333.48069    4e-05  57375.61222  52.56632  14.89323  19.67877   57398.6253 
     14.3774  1.81057  1.65219       2.53204         2722.15699  0.22274  0.04759     0.05884  38.01502     17.31387   5187.45164    -35.1953  1.41664  14512.98049  0.00011     57363.43   53.0337  19.15827   19.7471  57407.11836 
    14.07812  2.01931  2.09452        1.7051         2272.32625  0.03728  0.19209      0.1724  14.89235     17.88638   3726.39539   -60.79045  1.55554  11196.23873  0.00043  57337.83485  52.73387   2.70131  19.64343  57401.65069 
    14.13888  1.99615  4.13251       0.06814         4928.19296   0.2849  0.05555     0.12354  16.55884     18.31286   9241.74941   -29.00417  1.39986   20663.3469  0.00114  57369.62113  53.27522  21.08105  19.63346   57407.3329 
      13.975  1.39906  2.11446       0.99158         4717.76388  0.04415  0.19007     0.06286   7.12755     16.55798   9383.38702   -48.37349  0.88701   9635.59876    2e-05  57350.25181  52.53439   2.72838  19.67301  57404.38452 
     13.7878  1.48256  3.00546       4.19158         2059.93716  0.13571   0.1191     0.14089  10.54817     19.64876   8060.70384   -35.06691  1.42874  21263.59647  0.02474  57363.55839  53.26002   9.15682  19.60466  57409.85219 
    14.13597  1.73564  1.55281       0.00221         4102.96909  0.06948  0.14091     0.05229  27.75723     16.29064   6797.63182   -46.29604  1.10639  16394.84397    1e-05  57352.32926  53.11601   5.65995  19.73259  57401.65069 
    14.18528   1.5424   2.2516       0.55743         5496.02259  0.34642  0.05128     0.05349   25.9748     18.72403   4888.70078   -34.83325  1.54055  14581.54781  0.00294  57363.79205  53.00906   27.8883  19.65332  57407.11836 
    14.65574  1.95224  1.23969       0.84326         3956.30347  0.27065  0.02583     0.03805  43.08001      20.4899   6998.46424   -21.24627  0.95336  19228.81002  0.17164  57377.37903  53.28713  23.76901  19.70629  57404.38452 
    14.55886  1.48188  0.78307       0.60673         5085.93589  0.30217  0.07004     0.01201  20.52365     18.43147   4602.13668   -43.06743  0.46824   9969.76619   0.0015  57355.55787  52.66004  23.29685   19.6679  57404.38452 
    14.16051  1.53391  1.89819       1.88276         3337.11411  0.17658  0.08314     0.21498  13.47967     18.14784    4975.6875    -46.8682  0.91368   7284.21256  0.00078   57351.7571  52.35176  12.54035  19.73424  57404.38452 
    14.29987   1.7597  2.66346       0.35946         3489.16804  0.49705  0.08247     0.07599  22.94532     17.83624     6991.277    -47.4931   0.9784  16075.46459  0.00038   57351.1322  53.08399  39.12336  19.58711  57407.11836 
    14.13718  1.86784  1.82377       0.00469         5958.34779  0.04554  0.07778     0.41198  28.50107     17.23263   7651.53798   -49.04572  1.37933  11975.78571    9e-05  57349.57958  52.84524   3.72749  19.67384  57407.11836 
    14.01016  1.76971  4.05443       3.67681         3269.55391   0.0399  0.04176     0.04658    9.1783     17.29608    7364.0226   -23.46101  1.21364  11878.42251  0.00011  57375.16429  52.74112    2.6117  19.73482   57407.3329 
     14.5121  1.60436   1.0039       2.41597         2252.53465  0.12815  0.04981     0.09105  41.44258      21.1751   7062.23977   -37.33566  0.23247  17810.49554  0.83143  57361.28964   53.2178  11.18288  19.73838  57409.85219 
    14.63311  1.44322  2.33288        3.4305         2878.07796  0.40667  0.03438     0.09025  20.61126     18.10273   5259.10708   -17.51019  0.67959  16804.44444   0.0007  57381.11511  53.11387  31.37853  19.69586  57398.91686 
    14.18312  1.43807  1.98547       1.18455         5523.19416  0.00193  0.12035     0.09163   7.51219      17.6093   9634.41996   -55.02083  0.46232   5768.73366  0.00023  57343.60447  52.09411   0.12102  19.75704  57407.11836 
    14.29911  1.47666  0.80508       4.75832          2423.2588  0.02622  0.14836     0.11373   11.4708     20.30944    3615.3525   -32.18877  0.74005  10044.15457  0.11328  57366.43653  52.61631   1.80092   19.7365  57401.65069 
    14.12908  1.65361  0.88087       1.29009          3760.7276  0.07565  0.15272     0.02734   8.90246     16.30042   4316.23495   -55.77827  1.46263   5546.79539    1e-05  57342.84703  52.07675   4.91864  19.68167   57407.3329 
     14.1464  1.75462  4.23844       3.45932         3184.21036  0.11182  0.01683     0.23049  14.67674     17.58664   6314.31511   -19.97153  1.01192   9126.32262  0.00021  57378.65377  52.55505   8.07921  19.71294  57398.91686 
    14.34366  1.50883  1.55461       1.58217         4935.53607  0.11493   0.0226     0.02171  33.97402     18.07108    6249.9153    -36.9156  0.73518   6411.24886  0.00065   57361.7097  52.31579   9.69857    19.523  57409.85219 
     14.5836  1.52928  3.46011       4.58597         2418.03451  0.42477  0.05022      0.0652  20.39049     16.96302   6268.19915   -30.95577  0.36091  14825.18858    5e-05  57367.66953  53.00414  32.70868  19.62763  57396.18302 
    14.24447  2.13995  4.97314       3.05733         3808.63677  0.29132   0.0398     0.32803   3.91139      18.7577   9171.14385   -17.90459  1.45497   6663.18089  0.00318  57380.72071  52.14829  15.47635  19.38989   57407.3329 
    14.60078    1.694  1.13797       1.74844         4379.95548  0.06645  0.03328      0.0332  48.59222     18.30347    6248.2896   -41.18484  0.47127   8902.92739  0.00112  57357.44047  52.62682   5.95177  19.71145  57409.85219 
    14.91131  1.80392  0.78643       0.73899         3906.72873  0.08076  0.04663     0.10981  59.58477     17.05874   5883.70528   -36.01158  0.28144  15803.79826    6e-05  57362.61372  53.13935   7.47092  19.71674  57407.11836 
    13.94314  1.68304  2.23451       1.74633         3021.28482  0.08679  0.25262     0.24413   4.01096     19.93814   4998.80482   -57.22913  1.38695   6633.97775  0.04818  57341.39617  52.14743   4.64241  19.67703  57404.38452 
    13.89698  1.95879  1.89158       1.34742         2719.01559  0.22406   0.2558     0.02707   8.19608     20.93116   9775.60966   -55.81673  1.30911  12913.93232  0.47412  57342.80857  52.80272  14.30017  19.68827  57398.91686 
    14.15137  1.60635  2.01008       0.06812         5201.76203  0.22007  0.09782     0.05034  24.35329     16.25762   9536.22379   -36.89849  1.15404  17914.37673    1e-05  57361.72681  53.18279  17.51185  19.57578   57407.3329 
    13.92404  1.61084  3.83767       0.55639         5408.65175  0.22762  0.02355     0.11296  20.30478     19.44962   5346.68606   -29.18536  1.33129  16302.75578  0.01564  57369.43994  53.08632  17.51359  19.70462   57407.3329 
     14.1561  1.91847  2.68003       4.03453         2117.97926  0.14369  0.17481      0.2828   9.78556     16.69388   6448.98478   -36.86236  1.33597  14398.48363    3e-05  57361.76294  52.91434   9.53933  19.67787   57407.3329 
    14.56737  1.52732  0.93908       0.39038         5990.67519  0.09503  0.06374      0.2492  46.80546     20.27689   5621.05342      -43.66  0.34229  14384.78034   0.1051   57354.9653  53.04093   8.45962   19.6199   57407.3329 
    14.25627  2.02417  3.56321       0.81123         2622.31271  0.39119  0.19781     0.07407   5.99615      16.3769   9625.39699   -51.02245  0.48233  13170.85598    1e-05  57347.60285  52.78793  23.19889   19.6351   57407.3329 
    14.48916  2.06043  3.38816       2.87465         2162.00008  0.35243  0.05183     0.07592  22.45376      17.4933    6613.6213   -27.96325  0.95797  18131.19138  0.00017  57370.66205  53.18678  27.62971  19.66034  57404.38452 
