 texplosion  fnickel     Pspin  log(Bfield)      Mns  thetaPB   mejecta    kappa  kappagamma      vejecta  temperature    alpha  cutoff_wavelength  log(nhhost)      A_V         MJD0   kenergy   mnickel                TSD   log(L0)  Peak_mag     Peak_MJD  log(E_rad)  log(Peak_lum)  Rise_Time     E_fold  tau_1  delta_m15     r_peak     frac 
 -172.99511  0.36217   5.10962     13.56946  1.81192  0.56082  32.55137  0.09635     0.47852   2959.93179   3871.75614  4.80534         4211.28495     16.68432    3e-05  57629.31118   1.70122  11.78915     31901325.33135   43.6064  19.79052   57793.0397    51.20791       43.83136  132.56471  180.16412  148.0    0.02303  -20.98623  0.25508 
 -174.34616  0.48911    3.5768      13.8037  1.68501  1.15415  47.59658  0.03114     0.03979   2120.56174   8272.09354  3.89935         3144.61845     20.93433  0.47759  57627.96013   1.27675  23.27973      4943115.10382  44.69446  19.19602  57963.92008    51.60578       44.13667  173.92405  240.81792  154.0    0.02468  -21.39277  0.36888 
 -169.35211  0.48515   1.56405     14.89466  2.03159  1.16017  55.49267  0.07512     0.46653     1891.194   3275.61884  3.99751         3865.52081      18.5112   0.0018  57632.95418   1.18395  26.92215         7496.07222  48.31335   19.6313   57860.9537    51.30758       43.90556  183.95813  195.66456  160.0     0.0127  -21.09688   0.9389 
 -122.46106  0.41769   0.86743     12.52247  1.64206  0.38286  59.74261  0.25474     0.33797    4635.1367   7773.33187  2.52917         4712.07778     19.49655  0.01743  57679.84523   7.65661  24.95404    103451188.56381  44.59303   19.3181  57931.05847    51.71131       44.21245  220.74976  252.52435  520.0     0.0031   -21.8195  0.57835 
 -176.82128  0.48984   3.55997     13.44819  1.79015  1.15544  91.71204   0.2113     0.45012   2414.09763   5630.70108  2.84732         4786.97902     19.31947  0.01159  57625.48501   3.18833  44.92416     26743054.62945  43.99163  19.55965   57860.9537    51.51132       44.20227    125.426  158.87293  258.0    0.00494  -21.41654  0.21746 
  -103.5972  0.40712   2.66132     14.40907  2.09709  0.39065  39.99419  0.14936       0.251   4149.09094   3120.67244  1.99484         2515.56338     17.50083  0.00018  57698.70909   4.10705  16.28238       209650.53008  46.41877  19.56373  57891.62453    51.54827       44.10713  183.95813  214.06037  130.0    0.01585  -21.39592  0.68426 
 -170.30338  0.41894   1.78586     12.45094  1.65637  0.59834  72.80686  0.14634     0.42271   4024.24874   9791.18946  1.63687         3102.39061     17.25494   0.0001  57632.00291   7.03346  30.50148    614885332.82731  43.19552  19.83777  57821.51976    51.14485       43.86701  120.40896  147.16651  186.0    0.00988  -20.99934  0.10101 
  -152.9637  0.49323   4.13829     13.89638  1.97291  0.63919  19.88145  0.17546     0.40007   2603.87053   3783.40457  2.42224           4096.053     19.83868  0.03832  57649.34259   0.80411   9.80617       5056091.0574   44.6265  19.78789  57790.84892    51.29852       43.99908  105.35784  160.54528  158.0    0.01423  -21.14918  0.55063 
 -104.82722  0.48965   1.98382     14.24207  2.13098   1.5192  42.10767  0.28681     0.30525   5690.12661   7147.16388  1.65522         3118.85091     17.23303   0.0001  57697.47907   8.13265  20.61797       255423.36883  46.59516   19.5898  57856.57215    51.38859       44.02443  143.82181  182.28579  150.0    0.01706  -21.34566  0.76337 
 -164.19085  0.48115   2.52432     13.07308  1.66497  0.56552  62.48061  0.13615     0.47138   2594.54324   9521.45989  2.77431         3967.50645     16.85486    4e-05  57638.11544   2.50896  30.06238      70364590.5914  43.83861  19.71555  57896.00608    51.99602        44.4128  177.26875  561.90848  244.0    0.00691  -21.28145   0.2416 
 -129.35825   0.3934   4.53643      13.4996  1.75108  0.90572  24.12955  0.02948     0.49636   3758.60661   7677.66664   0.9023         4282.29202     16.53813    2e-05  57672.94804   2.03343    9.4925     33522894.71729  43.67338  19.52856  57909.15073    51.51877       44.05686  178.94109  234.12853  178.0    0.03417  -21.01882  0.40732 
  -146.3337  0.48163   1.85949     13.98179  1.46148  1.52244   29.0247  0.23262     0.01508   3844.97088   9895.71289  1.14914         3758.36925     16.45144    2e-05  57655.97259   2.55965  13.97907       510290.60084  46.18703  19.68506  57786.46737    51.27483       43.95257  102.01315  173.92405  148.0    0.01063  -20.95942  0.75295 
 -175.19932  0.47633   2.31397      14.9512  1.79947  1.02253  84.64496  0.15217     0.44557   1764.56732   7880.95261  2.79372         5617.65398     17.17447    8e-05  57627.10697   1.57219  40.31877         11201.3275    47.746  19.39102  57896.00608    51.40623       44.06209  157.20059  168.90701  230.0    0.00616  -21.18849  0.71797 
 -166.41701  0.49307   2.82377     15.03676  1.98288  0.06801  68.70951  0.22776     0.47605   2825.19094   8058.21356  4.64161         3447.41688      19.1266  0.00744  57635.88928   3.27144  33.87894        12395.27054  47.57123  19.67553  57847.80905    51.19588       43.84504  152.18355  172.25171  204.0    0.00847  -21.29377  0.45706 
 -136.30214  0.48782   1.62623     14.96442  1.21439  0.59865  53.87458  0.12305     0.14692   3544.31277   7123.96909  2.64119         3618.08863      16.6854    3e-05  57666.00415   4.03715  26.28092         3513.17267  48.38514  19.68324   57793.0397    51.14945       44.08127   36.79163  103.68549  146.0    0.01662  -21.24149   0.8749 
 -153.70817  0.42327   7.51949     14.08846  1.31684  0.82703  34.48317  0.03185     0.40483   2577.45281   3182.05662  1.24098         4914.98739     19.99435  0.05484  57648.59812   1.36652  14.59583      4600459.67427   43.9732  19.04647  57990.20937    51.79576        44.2641  234.12853  287.64363  138.0    0.02887  -21.04783  0.12586 
 -169.09967  0.49976   2.62651     14.66269  1.81794   1.0042  27.63159  0.15363     0.06031   4186.21682   8440.03989  2.00752         4323.95728       19.451  0.01569  57633.20662   2.88853  13.80907        55052.11912  46.94889  19.54322  57880.67066    51.45038       44.06385  172.25171  187.30283  136.0    0.01535  -20.92403   0.7095 
 -158.98535  0.49981   1.11123     12.66584   1.2884  1.17498  84.09334  0.23286     0.49916   3020.48448   6704.48423  4.56335         2450.62029     18.63848  0.00242  57643.32094   4.57659  42.03079     68833272.91107  44.44949  19.79308  57802.30629    51.40602       44.14198  112.04723  140.47712  404.0    0.00371  -22.05169  0.60062 
 -194.67328  0.32951   3.13342     13.94081  2.08106  1.51083  15.71689  0.23792     0.46996   3240.70218   7469.91496  3.99943         2795.62283     17.49714  0.00017  57607.63301   0.98463   5.17887      2491826.67378  45.19857  19.66884  57867.52602    51.39062       43.97086  168.90701  207.37099  126.0    0.02828  -20.78576  0.82799 
 -140.57228  0.49691   2.44567     14.02061    1.435  0.53464  27.17147  0.28488     0.43769   2875.07389   4900.85998  3.98749         3879.35802     18.72805  0.00297  57661.73401   1.33979  13.50185       724838.80326  45.78866  19.46907  57913.53228    51.56132       44.08168  158.87293  252.52435  160.0    0.01204  -21.13328   0.6348 
  -56.70665  0.30179   1.06781     12.18235  1.32671  1.53023   5.97339  0.09296       0.074   5879.26948    8228.1093  2.14177          4835.3461     18.26922  0.00103  57745.59964   1.23167   1.80271    606573402.47586  43.55175  19.63403  57738.27034    51.41748       44.04151   90.30672   175.5964  240.0    0.03259  -21.20711  0.92148 
 -152.06868  0.47968   2.13189     14.21893  1.62086  1.55083   60.7502  0.13177     0.45826   2858.27751   8951.03994  1.19329          5962.5048     19.80805  0.03571  57650.23761   2.96063  29.14083       249598.12976  46.42382  19.69871   57843.4275    51.18712       43.95276   100.3408  133.78773  158.0     0.0117  -21.39312  0.56851 
 -186.81771  0.36532   1.09471     14.06823  1.60168  1.03603  56.58778  0.20173     0.16954   3705.99373   8825.44916  1.60354          3711.6128     18.78331  0.00337  57615.48858   4.63617  20.67293       130177.69138  47.28029   19.8972  57797.42125    51.25768       44.01951  110.37488  135.46008  178.0    0.00898  -20.81007   0.8756 
  -142.4382  0.43369   1.14951      14.5032  1.83244  0.49888  68.40437   0.2165     0.07569   4038.29148   8896.63214  4.11824         3751.61014     17.14783    8e-05  57659.86809   6.65436  29.66649        22155.35551  48.06537  19.70682   57843.4275    51.37849       43.98694  153.85589  193.99221  192.0    0.00711  -21.32797  0.85195 
  -104.1841  0.49703   1.48783     14.40891  1.31963  1.06832  86.62796  0.13258     0.05238   3863.16565   4835.97251   1.6193         5243.63856     19.28379  0.01068  57698.12219   7.71209    43.057        41261.80571  47.42865  19.20254  57924.48615    51.56523       44.17214   150.5112  193.99221  152.0     0.0123  -21.72683  0.64051 
 -172.23746  0.48709   2.07557     13.78531  1.92098  1.13899  69.00201  0.14455     0.46325   1234.24502   7908.71909  2.65135          5284.0517      17.8049  0.00035  57630.06883   0.62703  33.60988      2065365.56017   45.6031  19.59043   57852.1906    51.38506        44.0495  117.06427  177.26875  254.0    0.00554   -21.3512  0.60007 
  -96.78425  0.48342   1.37354     13.94024  1.97954  0.72788  49.57475  0.29284     0.42557   4064.07815    5891.7098  0.11671         3438.79387     17.60842  0.00023  57705.52204   4.88441  23.96555       456650.91902  46.63014  19.66406  57802.30629    51.03512       43.82431   95.70811  130.05869  170.0    0.01136  -21.69853  0.83583 
 -156.36619  0.45718   1.75947     14.13342  1.52089  0.19159  35.22765  0.17972     0.26454   2011.52424   9841.20509  1.92437         3553.50129     20.49747  0.17466   57645.9401   0.85028  16.10546       236509.25951  46.58633  19.65558  57900.38763    51.44136       43.94541  215.73272    250.852  172.0    0.00799  -21.41958  0.74922 
 -139.27235  0.44685   1.67165     13.00398  2.16774   0.9169  99.56641  0.19283     0.17998   3281.58343   8596.81536  4.33196         2797.07407     18.71399  0.00288  57663.03394   6.39598  44.49103     55227566.00698  44.41641  19.67698   57784.2766    51.37487       44.13801  107.03019  133.78773  434.0    0.00309  -21.96918  0.54452 
 -156.20895  0.49978   2.29228       14.223  1.82441  0.61074  37.48831  0.13894     0.03995   3224.13449   5343.09503  0.08918          3499.0673      16.3173    1e-05  57646.09734   2.32461  18.73605       318773.06939  46.30595  19.14705  57738.27034    51.32855       44.33379   35.11928   78.60029  138.0    0.01595  -21.17195  0.67438 
 -125.00333  0.49886   2.81328     13.85968  1.98144  1.38037  68.78164  0.14474     0.25264   3168.79511   4009.23884   1.6582         3856.68859     20.14916  0.07832  57677.30296   4.11991  34.31267      2778780.00175  45.22355  19.83035  57856.57215    51.35959       43.95808   175.5964  193.99221  166.0    0.01067  -21.59661  0.45507 
 -126.15422  0.49986   1.49505     14.04493  1.89571  0.63929  73.73533  0.22318     0.01721   2857.50419   8058.65624  2.17705         3640.69691     19.93791  0.04815  57676.15207   3.59151  36.85714       319926.26526  46.69225  20.09994  57782.08583    50.96753       43.71906  112.04723  137.13243  200.0    0.00682  -21.50337  0.72398 
 -130.24239  0.41775   0.81171     12.19977  1.71746   0.8714  38.12432  0.20946     0.42334   4535.25111   9597.12918  4.01919         2893.85437     16.03383    1e-05   57672.0639    4.6777  15.92646    418753804.61848  44.06297  19.37073  57909.15073    51.61883       44.18952  187.30283  210.71568  564.0    0.00434   -21.6092  0.72644 
  -166.1086  0.26566   2.18291     14.53053  2.04684  0.34046  78.58203  0.13634     0.48006   2259.40081   5916.64202   4.8693         4235.49858     17.13101    8e-05  57636.19769   2.39297  20.87605        78689.13682  47.00594  19.68485  57786.46737    51.18736       43.96926  102.01315  120.40896  198.0    0.00824  -21.05635  0.70945 
 -172.44891  0.46282   0.91297     14.70036  1.76857  0.35002  91.97408  0.07705     0.27053   2080.98843   5033.97484  0.94646         2953.55102     16.83318    4e-05  57629.85738   2.37592  42.56707         5440.31838  48.85993  19.64472  57814.94744    51.35128       44.08141  107.03019  145.49416  174.0    0.00835  -21.11676  0.88145 
 -184.09297  0.49229   3.16598     13.47482  1.74276   0.6209  58.92985  0.05869     0.42353   1427.61609   4874.82834  2.80245         3271.17794     17.96913  0.00052  57618.21332   0.71645  29.01049     18215032.52081  44.24864   19.6816  57830.28286     51.1115       43.89989   90.30672  130.44304  252.0    0.00925  -21.12186  0.31487 
 -182.11166  0.47655     2.474     12.21043  1.19106   0.7834  39.86318  0.08019     0.20317   3701.17809   9695.24801  3.51399          3237.3363     16.87681    4e-05  57620.19463   3.25746  18.99667   2568572328.73011  42.14829  19.38699  57966.11085    51.70269       44.11945  240.81792  327.77995  131.5    0.02457  -21.02724  0.02563 
 -157.39072  0.35679   1.76325     12.85075  1.90535  1.04417  32.36869   0.3075     0.49692   4004.13887   5815.59992  1.60418          4127.3241     17.32854  0.00012  57644.91557   3.09578  11.54873    109375356.81607  44.01727  19.34062  57742.65189    51.52295       44.39204   63.54917  108.70253  558.0    0.00864  -21.60239  0.73194 
 -166.50275  0.33881   3.19424     14.64311  1.59774  1.29823  87.80589  0.01623     0.01005   1883.92149   3013.92585  0.70487         3963.82722     18.85624  0.00399  57635.80354   1.85899  29.74987        78314.89251  46.56977  19.30534  57963.92008    51.67985       44.12093  254.19669  316.07352  164.0    0.01654  -20.98171  0.38588 
 -147.14701  0.48479   1.54259     13.72013  1.37451   1.0018  64.21878  0.12332     0.37659   3103.92218   9307.11372  0.39782         2219.26777     17.71061  0.00029  57655.15928   3.69072  31.13268      1102050.70758  45.98829  19.12612  58003.35401    51.88391       44.22792   301.0224  438.15483  132.0    0.01209  -21.47792  0.64201 
 -134.60336  0.27981   3.46497     12.98555  1.25056  0.69494  48.82062  0.04911     0.40463   2495.20794   8034.45954  2.68838            5055.83     17.47174  0.00016  57667.70293   1.81319  13.66051    149012468.58827  43.11333  19.81406  57825.90131    51.28024       43.95803  143.82181  160.54528  154.0    0.02123  -21.12351  0.16935 
 -172.15034  0.41344   4.26898     14.12443  1.73815  0.88629  61.08668   0.1034     0.48953   2777.73974   7657.17737  3.57789         3170.02452     17.36925  0.00013  57630.15595   2.81162  25.25544      1658374.87697   45.0286  19.52083   57920.1046    51.50834       44.09744  193.99221   200.6816  154.0    0.01086  -21.14381  0.28868 
 -142.25922  0.25318   1.08438       14.758   1.0284  1.04856   58.6012  0.02062     0.02827   3570.46982   8873.41261  1.08487         3788.80358     17.74125  0.00031  57660.04707    4.4564  14.83639         3422.48119   48.6763  19.68159  57786.46737    51.23153        43.9486   88.63437  160.54528  116.0    0.03238  -20.97303  0.98228 
 -148.93727  0.45078   4.02648     14.64895  1.90458  1.33704  61.95906  0.14397     0.43438   2683.16883   5180.40808  3.70529         4978.49929     16.13357    1e-05  57653.36902    2.6609  27.92999       144401.02211  46.17922  19.65304  57882.86144    51.51453        44.0576  180.61344  224.09445  162.0    0.01153  -21.32563  0.33388 
 -133.89918  0.43209   5.04148     13.09082  1.73067  1.42804  54.60062  0.06355     0.47757   2118.65823   7027.21832  2.84741         4231.29161     17.08274    7e-05  57668.40711     1.462  23.59261     268848193.6789  42.67244  19.67445  57847.80905    51.42447        44.0546  158.87293  178.94109  164.0    0.01537  -21.20384  0.08979 
 -178.06313  0.49276   1.08983     14.00338   1.1643  1.34268  91.72295  0.20214     0.48103   3079.58766   4246.39664  2.68227         3969.52597     16.11962    1e-05  57624.24316   5.18908  45.19765       126427.14994  47.15835  19.56333  57900.38763     51.5407       44.09907  182.28579  217.40507  186.0    0.00872  -21.23608  0.67738 
 -186.28848  0.33685   1.32175     12.48608  2.02624   0.7646   33.5615  0.07822     0.48355   3617.68049   3654.01181  1.84728         2344.71874     17.84603  0.00039  57616.01781   2.62017  11.30506    350468611.89781  43.78859  19.61095  57887.24299    51.54858       44.07674  182.28579  235.80088  380.0    0.01329  -21.14575  0.62294 
 -184.80732  0.47286   1.75171     13.42512  1.93202  0.34672  75.28508  0.27833     0.48563   3090.31781    7737.0178  2.50785         2749.15204     20.08125  0.06699  57617.49897   4.28886  35.59941      7771766.72818  45.17741  19.61769  57821.51976    51.26151       44.01132  103.68549  137.13243  408.0    0.00265  -21.75729  0.56579 
 -160.93741   0.4315   1.05136     12.69375  1.70485    0.623   67.2451  0.26893     0.17501   4029.93165   9589.26199  0.25371         3431.45153     16.05809    1e-05  57641.36888   6.51453  29.01646     71698141.34543  44.60152  19.79647  57797.42125    51.23438       43.96156   95.32376  147.16651  506.0    0.00211  -21.80313  0.68322 
 -196.12302  0.49338   2.06101      13.8709  1.93724  0.29991  83.25801  0.21954     0.46332   1797.95684    4873.3669  2.18068         3624.72683     18.25479    0.001  57606.18327   1.60551   41.0775      1384724.15138   45.7865     19.88  57812.75666    51.22357       43.94736  130.44304  142.14947  296.0    0.00326  -21.40334  0.53147 
 -173.75974  0.40809   2.79485     13.05162  1.27314  0.76938  38.12065  0.07463     0.44676   2708.23494   3736.15113  1.90683          3985.1984     18.95028  0.00495  57628.54655   1.66786  15.55681      72806851.5783  43.61883  19.37181  57904.76918    51.49866       44.13337  152.18355  180.61344  186.0    0.01854  -21.09385  0.32585 
 -129.90551  0.41397    2.3899      13.3637  1.94497  0.41309  66.33896  0.13992      0.4924   3264.45534   9291.48218  4.24559         3960.97581     19.04805  0.00621  57672.40078   4.21713  27.46208     19323433.39408  44.51491  19.26453  57922.29537    51.63568       44.21459  180.61344  205.69864  286.0    0.00682  -21.64806  0.41604 
 -117.39336  0.34332   1.07738     14.56352  1.53269  0.67725  23.69225  0.08214     0.11044     4008.247   3117.13295   2.5386         4346.21411     18.39714  0.00139  57684.91293   2.27061     8.134        12330.24913  48.29859  19.58628  57869.71679     51.4308       44.09828  157.20059  165.56232  110.0    0.04658  -21.10565  0.96629 
 -144.02776  0.45759   3.79593     13.75632  1.60754   1.3024  66.90643  0.14174     0.33616   2455.70327   7027.46671  3.37813         4331.52524     18.84751  0.00391  57658.27853   2.40684  30.61561      6606387.90569  44.49641  19.55282  57865.33524    51.54617       44.21651  112.04723  172.25171  190.0    0.00998  -21.40415  0.26732 
  -93.51548  0.46873   1.34129      13.1134   1.2886  0.31108   41.3818  0.22119      0.4403   4016.27081   6948.89004  4.91484         4472.95343      17.7797  0.00033  57708.79081   3.98183  19.39689     12769964.37974  45.01773  19.41655  57898.19686    51.55487        44.1265   175.5964  210.71568  388.0    0.00901  -22.06348  0.64219 
 -198.07303  0.32031   5.63086     15.14466  2.00123  0.82704  99.91231  0.01085     0.01908   1336.99323   8074.36753   4.5048         2924.65372     17.67818  0.00026  57604.23326   1.06538  32.00265        30265.42278  46.58805  19.30105  57959.53853    51.73927       44.17888  265.90312  306.03944  170.0    0.02251  -20.98551  0.22193 
 -149.33398  0.18639   4.46065       13.898  2.02914  1.09043  61.88883  0.06449     0.41599   2437.26548   5554.39104  4.15025         3793.12731      17.8944  0.00044  57652.97231   2.19303  11.53542       5996761.5113  44.49945  19.72936  57834.66441    51.19614       43.82486  177.26875  180.61344  154.0    0.01414  -21.09435  0.49595 
