 texplosion  fnickel    Pspin  log(Bfield)      Mns  thetaPB   mejecta    kappa  kappagamma     vejecta  temperature    alpha  cutoff_wavelength  log(nhhost)      A_V         MJD0  kenergy  mnickel            TSD   log(L0)  Peak_mag     Peak_MJD  log(E_rad)  log(Peak_lum)  Rise_Time    E_fold  tau_1  delta_m15     r_peak     frac 
  -16.54229  0.07557  1.87338     14.03471  1.96973  1.48391  15.18205  0.04484     0.24973  5223.85291    4986.8045  0.87698         4623.34019     19.18706  0.00855  58813.89771  2.47138  1.14726   547072.58289  46.27995  19.13329  58872.48047    51.50991       44.76684   26.79724  40.02078   60.5     0.1433  -21.78484  0.98279 
  -18.65064  0.00528  2.09719     13.97179   1.9552  1.31708  27.60558  0.01965     0.35813  4686.99231   6401.36654  0.91324         4768.05923     18.50416  0.00177  58811.78936  3.61753  0.14575   909301.65507  45.95805  19.13531  58872.25391    51.53076       44.80493   25.36722  39.70983   68.0    0.14178  -21.76545  0.99717 
   -15.3961  0.05794  1.58859     13.82988  1.42258  1.16618  16.33986  0.03136     0.04898  4496.31084   4888.10572   1.0152         4732.73519     16.30043    1e-05   58815.0439  1.97055  0.94678   729732.84888  46.15673  19.15174  58872.25391    51.59451       44.87181   23.60316  40.44913   63.5    0.15137  -21.77608   0.9833 
  -16.05341  0.01527  1.84982     14.19385  1.65532  0.49473   24.2176  0.02085      0.0352  4437.39005   5644.77917  1.01601         4833.70623     16.12904    1e-05  58814.38659  2.84455  0.36986   215401.53895  46.62022  19.13362  58872.25391    51.48261       44.70977   28.93617  41.90062   65.5    0.14955  -21.78455  0.99287 
  -19.03868  0.08673  2.00867     14.08348  1.91008  0.93684  22.18401  0.03098     0.46555  5414.98734   6982.74972  0.82097         4549.73614     17.74499  0.00031  58811.40132  3.88027    1.924   487221.38918  46.25635  19.15183  58873.06788    51.50977       44.77034   26.04172  42.66957   69.0    0.14098  -21.75376  0.96575 
  -16.15114  0.02296   1.5027     13.94815  1.51171  0.89873  23.46783  0.02202     0.01539  4059.59518   6396.59898  1.05915         4970.86316     16.51392    2e-05  58814.28886   2.3071  0.53892   402470.42416  46.48984  19.13086  58872.47647    51.44457       44.67256   29.65435   42.6333   62.0    0.14845  -21.79926  0.99219 
  -17.83056  0.04336  1.94958     14.07978  1.74865   0.7697  24.56948  0.02843     0.14878  5536.52068   9083.40896  0.84612         4546.04254       18.765  0.00323  58812.60944  4.49259  1.06535   427411.59766  46.30082  19.14405  58873.06788    51.50784       44.75802   28.18173  40.52956   58.5    0.14229  -21.77951   0.9793 
  -16.55967  0.02679  1.78386     13.90065  1.54441  1.00341  19.72159  0.03032     0.01183  5162.65661   3636.39379   0.8745         4852.92101     18.15896   0.0008  58813.88033  3.13556  0.52842   721119.22371  46.09688  19.13242     58871.42    51.45897       44.68882   29.70513  41.84258   63.0    0.15371  -21.80835  0.98953 
  -21.38011  0.02683  2.46467     14.06681  1.87036  0.75327  15.47047  0.05866     0.02025  7186.56675   6502.85721  0.73065         3977.54324     17.57886  0.00021  58809.05989  4.76621    0.415   775585.82188  45.86762   19.1391  58872.25391    51.50601       44.77927   26.83351  39.70983   63.5    0.14562  -21.79501  0.98815 
  -19.66092  0.03783  2.00606     13.76694  1.50984  1.37787  16.05905  0.04276     0.01084  6094.89899    6577.8264  0.76591         4260.44361     16.94004    5e-05  58810.77908  3.55861  0.60752   1650271.7038  45.62553  19.12902     58871.42    51.51131       44.77529    26.0999  39.02793   64.0    0.14152  -21.76887  0.98424 
  -15.45133  0.00821  1.84134     14.12019  1.60007  0.59759  15.84054  0.03316     0.01062   4290.9825   5116.78469  1.20371         4438.05035     17.21303    9e-05  58814.98867  1.73985  0.12998   289624.98992  46.48088  19.14603  58872.26172    51.50565       44.73404   28.93617  41.17565   62.0     0.1491  -21.73198  0.99738 
  -17.58312  0.01037   1.7567     13.84357  1.50625  1.07737   12.3098  0.04588     0.01998  5043.95682   3273.26242  0.85875         4795.84107     18.18582  0.00085  58812.85688  1.86819   0.1276    887079.0659  46.00938  19.15576  58872.48438    51.51292       44.77474   25.33914  41.25499   65.5    0.15424   -21.7931  0.99743 
  -17.22735  0.01546  1.62705     14.11488  1.69738  0.67955  34.23076  0.01681     0.01427  4576.93632   7156.07378  0.91686         4859.43887     19.30424  0.01119  58813.21265  4.27753  0.52929   245831.78691  46.68519  19.12482  58872.25391    51.50063       44.78733   26.08539  39.04244   62.0    0.14644  -21.78591  0.99244 
     -18.15  0.06916  1.51788     13.87321  1.49897  1.41575  23.88489  0.03407     0.14138  5724.12236   3980.80871  0.78322         4501.74762     17.91235  0.00045     58812.29   4.6684  1.65188   574989.71541   46.3225  19.15471     58871.42    51.49008       44.77026   28.18173  39.30261   62.0    0.14456  -21.75821  0.97569 
  -16.31096  0.11994  1.85227     13.79971  1.46839  1.35789  12.66121  0.04469     0.01876  5568.60882   5896.84644  0.82906         4522.26295     18.19923  0.00088  58814.12904  2.34205  1.51861  1176620.52143  45.82964  19.13591  58872.48438    51.51978       44.78932    26.0999  39.25183   69.0    0.15811  -21.77207  0.96578 
  -14.58563  0.02831  1.41853     14.07927  1.55082  0.68722  26.15843  0.01893     0.02283   3909.8096   6006.19587  1.07542         4895.66292     18.28315  0.00107  58815.85437  2.38534  0.74042   201149.28874  46.85221  19.14348  58872.26172    51.52767       44.80381   24.59827  39.73159   59.5    0.14877  -21.77049  0.99083 
  -15.86403  0.00297  1.68644     14.09241  1.49557  0.54521  35.30055  0.01384     0.01384  4327.31368   8785.99895  1.04709         4824.60609     17.56733  0.00021  58814.57597  3.94317  0.10499   258080.42225  46.57795  19.12317     58871.42    51.51971       44.78325   26.04912  39.30261   62.0    0.14933  -21.78723  0.99804 
  -16.93771  0.07362  2.33282     14.04852  2.12598  1.46003  12.99267  0.04854     0.03369  5375.66655   6579.30063  0.92037         4558.99557     19.02618   0.0059  58813.50229   2.2397  0.95646   859201.52414  45.92655  19.12557  58872.25391    51.47065       44.71504   28.98695  41.12487   65.5    0.14651  -21.79132  0.98011 
  -15.04288  0.06469    1.474     13.89406  1.55411  1.39066  17.82575  0.03096     0.14802  4560.98496   8061.22152  0.92862         4951.62498     16.36293    1e-05  58815.39712  2.21204  1.15321   510701.75066  46.41517  19.12884  58872.25391    51.51704       44.77964   26.04912  39.30261   61.5    0.15818  -21.78462  0.98472 
  -17.98556  0.01675  1.93196     14.12252  1.62711  0.55645  21.09516  0.02991     0.05945  5069.51702   4015.42116  1.06792         4195.36273      19.7454  0.03091  58812.45444  3.23402  0.35329   320767.18661  46.40208  19.14581  58872.25391    51.52603       44.79643   25.36722  39.70983   67.5    0.13873  -21.76275  0.99237 
  -15.96364  0.00206  1.67953      14.0023  1.55741  0.74874  17.95727  0.02763     0.16098  4269.47786   6909.35108  1.01933          4976.3985     16.78228    3e-05  58814.47636  1.95262  0.03697   403636.64989  46.40488  19.15014  58872.47647    51.50249       44.74631   27.49983  41.21146   62.0    0.15232  -21.80224  0.99935 
  -19.33744  0.02647  1.97883     14.04732  1.76714  0.73972  13.45059  0.05543     0.04511  6557.02137   5673.95703  0.60858         4413.18075     20.01831  0.05795  58811.10256   3.4497  0.35602   516738.72377  46.21003  19.12462     58871.32    51.52498        44.8021   25.36722  38.96264   66.5    0.15365  -21.84329  0.99287 
  -17.13354  0.01086  1.80011     13.88494  1.62047  1.35221  19.21124   0.0361     0.08735  5409.56688   6421.47805  0.87475         4492.49268      17.7105  0.00029  58813.30646  3.35357  0.20861   828277.65046  46.04971  19.14801  58872.48438    51.50325        44.7418   28.18173  41.24048   60.5    0.14836  -21.76731  0.99606 
  -15.07449  0.04198   1.6527     13.96016  1.71723  1.30084  19.06827  0.02837      0.4296  4411.77825   3394.97926  1.00865         4788.47715     18.44269  0.00154  58815.36551  2.21394  0.80053   523245.75692  46.34858  19.15193  58872.48438    51.50251       44.77244   27.46356  40.02078   60.0    0.14809  -21.76996  0.98846 
  -17.74603  0.00857  2.10429     14.27034   1.9209  0.51746  31.21069  0.01854      0.0854  4709.27634   9213.21781  1.01295         4489.39392     18.33504   0.0012  58812.69397  4.12894  0.26742   227431.21157  46.54929  19.15397  58872.48438    51.52078       44.78372   26.79617  41.91513   59.5    0.14071  -21.74465  0.99465 
   -18.0021   0.0275  1.89302     13.95448  1.60346  0.90272  20.68741  0.03274     0.40458  5429.34516   3498.37337  0.87925         4507.92074     18.38698  0.00135   58812.4379  3.63771  0.56888   657998.85272  46.10137  19.15857  58872.25391    51.56981       44.84632   26.29977  38.13258   64.5    0.14018  -21.76924  0.98801 
  -15.55133   0.0272  2.18446     13.99865  1.76086   1.0692  20.34105   0.0324     0.01149  4963.49121   4605.74485  1.45717         4001.71788     19.39369  0.01375  58814.88867  2.98934  0.55321   785102.03334  45.94095  19.12697  58872.48438    51.49697       44.75376   28.18173  40.52956   61.5    0.14874  -21.75511  0.98652 
  -19.09286  0.00422  1.78271     13.99552  1.73655  0.91317  22.28704  0.02892     0.40645  5323.79433   5840.84296  0.70399         5184.69693     18.84843  0.00392  58811.34714   3.7681  0.09409   523152.26888  46.28774  19.13224  58873.06788    51.52176       44.78813    26.0999  39.25183   63.0    0.14367  -21.80916  0.99843 
  -18.29555  0.22157  1.81984     13.85721   1.4263  1.00779  11.28836  0.06167     0.01442  6189.20655   4229.19143  0.71397         4591.64744     16.48527    2e-05  58812.14445  2.57946  2.50111   846595.36335  45.97532  19.14437  58872.47647    51.51716       44.77467   27.51542  39.30261   62.5    0.14511  -21.79456  0.94445 
  -15.84916  0.00293  1.38981     13.98089  1.40265  0.71646  20.31602  0.02636      0.4309  4126.51407   9878.38549  1.03728         4923.37257     16.25397    1e-05  58814.59084  2.06363  0.05945   274722.43236  46.69099    19.146  58872.26172    51.49202       44.73417   28.18899  41.23322   55.5    0.14337  -21.78155  0.99917 
  -19.33071  0.00852  2.49629     13.87095  1.79221  1.12683  10.98263  0.05606     0.01848  6714.40877   4095.53391  0.73996         4187.92815     18.76329  0.00322  58811.10929  2.95358  0.09354  1878858.93567  45.45375  19.12489  58872.25391    51.42395       44.69776   29.70513   40.5386   67.0    0.15022  -21.80224  0.99704 
  -15.41551  0.04854  1.86442     14.02081  1.79363  1.14435  17.40658   0.0378     0.08683  5116.86605    6886.4232  1.02566         4535.61682     17.20074    9e-05  58815.02449  2.71862  0.84499   526033.42144  46.26048  19.13973  58872.26172    51.50784       44.77405   25.33095  40.02078   59.0    0.14956  -21.78412   0.9855 
  -15.01559  0.06568  1.83283      13.9244  1.57757  1.14087  16.52256  0.03683     0.16998  4820.25497   4812.33992  1.18193         4309.62577     19.11662  0.00727  58815.42441  2.29005  1.08515   697033.92488  46.09734  19.13121     58871.32    51.50674       44.78262   26.04912  39.02793   63.0    0.14981  -21.75261  0.97829 
  -17.81286  0.03018  2.32626     14.00533  1.93322  1.16847  19.43759  0.03724     0.32986  5702.08631   5792.67528  0.99325         4214.01374     18.20471  0.00089  58812.62714  3.76996  0.58664   947892.98855  45.84505  19.13814  58872.25391    51.51959       44.78175    27.5662  40.47878   64.5    0.14058  -21.77065   0.9859 
  -15.73998  0.05731  1.73898     14.00953  1.86903  1.40096  18.11859  0.03264     0.12296  4647.93272   3605.58354  0.94369         5104.23213     16.81663    4e-05  58814.70002  2.33492  1.03831   502292.70098  46.35892  19.12026  58872.25391    51.48844       44.74659   26.85434  39.72434   59.5    0.14791  -21.82398  0.98545 
  -13.75403  0.07972  1.64314     14.03135  1.65453  0.94422  18.34564  0.02891      0.3884  4332.39749   8410.72528  1.10344          4553.7664     16.69226    3e-05  58816.68597  2.05408  1.46258   359033.67725  46.50104  19.13142     58871.42    51.50204       44.76805   27.51542  39.30261   61.0    0.14751  -21.73406   0.9782 
  -21.29183  0.01855  2.62255     13.95841  2.06058  1.31501  18.37216  0.03898     0.01367  6462.52525   3343.96211  0.74363         4271.06318     17.57779  0.00021  58809.14817  4.57711  0.34089  1593812.11355  45.54295  19.13876     58871.42    51.50893       44.75765   28.23251  40.47878   67.0    0.14238  -21.79072  0.99044 
  -14.83961  0.06971  1.33199     13.90632  1.27121  0.82977  35.92107  0.01558     0.45754   4674.8714   5908.96218  0.98444         4811.68916     16.13171    1e-05  58815.60039  4.68291  2.50418   322399.56278  46.61567  19.12785     58871.42    51.53792       44.81258   26.23957  38.27349   65.5    0.15239  -21.78324  0.96412 
  -20.60086  0.01948  1.91586     13.86653  1.62635  1.20542  20.91695  0.03487     0.01673  6009.69376    3043.8809  0.67883         4669.83337     18.93493  0.00478  58809.83914   4.5064  0.40737  1024936.44776  45.90464  19.11184  58872.25391    51.45027       44.70364   22.10661   42.7439   65.0    0.14616  -21.77916  0.99135 
  -15.77505   0.0807  1.59848     14.06385  1.48053  0.64953  28.92726  0.01864     0.31862  4608.61414   6341.40777  0.99963         4503.43087     18.88386  0.00425  58814.66495  3.66501  2.33443   261783.63382   46.6139  19.15065  58873.06788    51.50047       44.74338   28.18899  41.26224   69.5    0.15078  -21.73293  0.96167 
  -17.45502  0.02911  1.44209     14.01508  1.49498   0.7276  26.76289  0.02176     0.02413  4566.35476   5348.12444  0.88374         5041.43686     17.46616  0.00016  58812.98498  3.32889  0.77909   269319.98566  46.69523  19.14237     58871.42    51.54022       44.79982   26.73088  39.81864   62.0    0.14511   -21.7911  0.98946 
  -16.90108  0.01039  1.84048     14.02112  1.52632  0.66907   25.8096  0.02203      0.0815  4734.69075   3648.02425  1.07564         4356.46003     18.42473  0.00148  58813.53892  3.45137  0.26804   435589.62401  46.28355  19.12871  58872.25391    51.50729       44.78309    26.0999  38.97715   65.5    0.14638  -21.73829  0.99421 
  -16.37355  0.01149  1.85625     14.01214  1.79435  1.00873  19.89685  0.02913     0.01691  4774.06728    7905.4607  0.93329           4865.247      17.4386  0.00015  58814.06645  2.70513  0.22858   542890.90508  46.25077  19.13158     58871.42    51.38471       44.60323    32.3593  43.14574   61.5    0.14788  -21.79779  0.99606 
  -17.12466  0.03074  1.91074     13.96315  1.80029  1.29937  24.55754  0.02548      0.0364   5156.3791   5513.64775  0.88818         4679.66903     17.81817  0.00037  58813.31534  3.89495  0.75497   723221.52008  46.10251  19.12949  58872.47647    51.48377       44.74391   26.04912  40.52956   63.5    0.14648  -21.78455  0.98643 
  -13.12201  0.11858  1.06049     14.01392    1.607   1.3454  23.81609  0.02548     0.24988  4304.45485   4054.85281  1.01872         4856.03348     16.33744    1e-05  58817.31799  2.63229  2.82411     157401.541  47.22684  19.13823  58872.47647    51.48928       44.75983    25.3382  40.01353   58.5    0.14408  -21.75973  0.98227 
   -17.9569  0.04697  1.94464     14.00065  1.59358    0.793  24.78518  0.02659      0.0613  5394.47394   6067.23663  0.97184         4389.60669     18.40586  0.00141   58812.4831  4.30247   1.1641   557904.89353  46.14698  19.11364  58872.25391    51.43353       44.66207   29.75698  43.29343   67.5    0.14486  -21.77067  0.97422 
   -15.5798  0.15341  1.42443     14.03872  1.55897  0.81705   16.6222  0.03779     0.08151  5039.70304   8120.14232  0.84329         5157.46105     19.58111  0.02118   58814.8602   2.5184     2.55   245746.63359  46.76392  19.14755  58872.25391    51.52952       44.78437    26.7599  40.72445   63.0     0.1544  -21.85353  0.96913 
  -18.93472  0.00697  2.16642     13.96852  1.75698  0.95432  23.14048  0.02857     0.04119  5654.26377    5041.7741  0.89136         4353.16268      18.7339  0.00301  58811.50528  4.41318  0.16122   885188.96554  45.89509  19.13106  58872.25391    51.49552       44.75837   27.51542  40.52956   67.0     0.1463  -21.77054  0.99607 
  -18.05888   0.0056  1.39769     13.79083  1.20588  0.79443  34.49578   0.0151     0.32076   4406.9144   6139.30693    0.982         4705.47137     19.67257  0.02614  58812.38112  3.99634  0.19304   573156.62639  46.30106  19.13517  58872.25391    51.52251       44.79193   24.59827  39.81864   66.0    0.14605  -21.77825  0.99657 
   -17.5032  0.03773  1.72787     14.00322  1.85807  1.28497  26.79644  0.02414     0.23786  4875.25419    3946.7776  0.84325         4884.57355     16.08187    1e-05   58812.9368  3.79926   1.0111   507534.23394  46.35742  19.12318  58872.26172    51.49551       44.75807   26.80356  38.54817   63.0    0.13944  -21.77447  0.98588 
  -17.37655  0.03119  2.09628     13.99657   1.8069  1.05877  20.81183  0.03444     0.16762   5896.0975   7138.26933  0.85207         4312.07297     18.58619  0.00214  58813.06345  4.31585  0.64919   749040.77212  46.00837  19.11184     58871.42    51.44509        44.6717   29.75698  41.86435   62.5    0.14816   -21.7768    0.986 
  -14.47494  0.01488  1.27384     13.81656  1.31064  1.11605  24.28404   0.0199     0.35143  3864.72168   8402.10863  1.10975         4921.00487     17.57469  0.00021  58815.96506  2.16364  0.36129   459634.07294  46.51369  19.14932     58871.42    51.52865       44.80238   27.46178  39.02793   58.0    0.14856  -21.78268  0.99533 
  -17.26283  0.00295  1.88213     13.93661  1.68881  1.07825  26.03489  0.02152     0.33797  4717.19849   9773.20769  0.97731         4943.37872     17.24451   0.0001  58813.17717  3.45582  0.07674    743816.2796  46.07566  19.13322     58871.42    51.51279       44.78589   24.83347  40.24357   56.0    0.15101  -21.81962   0.9985 
  -16.90066  0.07423   1.4214        13.79   1.1946  0.90175  20.74409  0.02929     0.01933  5100.86719   4225.91979  0.91215         4640.28247      18.9244  0.00467  58813.53934  3.21966  1.53981   589493.59263  46.27015  19.14653  58872.25391    51.52946       44.78241   28.18173  40.52956   65.5    0.14509  -21.78326  0.97207 
    -19.404  0.01952  2.10612     14.05211  1.92737  0.94432  16.85515  0.04104     0.08654   5744.0533    7197.1761  0.73604         4696.62032     18.23225  0.00095    58811.036  3.31739  0.32905   624482.63147  46.11132  19.12819  58872.47647    51.47173       44.73029   28.18173   41.2695   65.0    0.14953  -21.78499  0.99345 
  -13.98741  0.07321  1.54417     13.97577   1.5499  1.03522   29.9707  0.01987     0.43497  4880.07565    4591.6538  0.98345         4771.49387     18.91937  0.00461  58816.45259  4.25772  2.19417   383671.89251   46.4978  19.14867  58872.25391    51.53297       44.79522   27.51542  39.07871   63.0    0.15048  -21.79212  0.96849 
  -17.37592   0.0099   1.9763     13.97811  1.84936  1.23291  14.84471  0.04588     0.40448  5454.78878   8536.72757  0.85144         4454.67592     19.25812  0.01007  58813.06408  2.63484  0.14704   741844.79032  46.07385  19.14595  58873.06788    51.50817       44.75012   27.49983  41.21146   58.5    0.14485  -21.77143  0.99725 
  -17.97227  0.04613  1.62727     14.05008   1.4683  0.64178  28.03769  0.02764     0.08204  5939.39414    5757.2941  0.73521         4574.92746     16.78047    3e-05  58812.46773  5.90002  1.29349   286672.41024  46.55536  19.14833  58872.48438    51.51764       44.76248   27.46356  41.24773   62.0     0.1497  -21.78195  0.97733 
  -15.79812  0.07289   1.7199     13.91969  1.54459  1.00524   16.1819  0.03116     0.38581  4486.47802   6141.25139  1.01551         4690.35846     18.37196  0.00131  58814.64188  1.94298  1.17944   614133.27256  46.19839  19.13631  58872.25391    51.49014       44.74237   28.93617  39.77512   66.0    0.14815  -21.76119  0.97855 
