 texplosion  fnickel    Pspin  log(Bfield)      Mns  thetaPB   mejecta    kappa  kappagamma     vejecta  temperature    alpha  cutoff_wavelength  log(nhhost)      A_V         MJD0  kenergy  mnickel            TSD   log(L0)  Peak_mag     Peak_MJD  log(E_rad)  log(Peak_lum)  Rise_Time    E_fold  tau_1  delta_m15     r_peak     frac 
    -3.2456  0.02276  5.24238      14.3874  1.57189   0.8917    8.1473  0.05944     0.01724  4855.26677   6655.24038  0.46814         5036.35831     17.33556  0.00012   55317.1354  1.14569  0.18546    673737.4912  45.19772  17.98529  55363.28431    50.59992       43.89091   25.69339  39.24183   45.5    0.21142  -20.18999  0.96968 
   -2.60865  0.19783  3.09261     14.51505  1.83347  1.48544   5.48658  0.11837     0.02977  6161.22025   6785.41928  0.05148         5780.28454     20.49357   0.1731  55317.77235   1.2424  1.08541   151925.31262  46.36984  17.97251      55362.4    50.60527        43.9093   25.69339  37.33371   43.5    0.23561   -20.3686  0.95386 
   -4.16681  0.00213  7.09747     14.43129  2.06782   1.2362   4.18726  0.09514     0.02906   4445.1962   6535.70535  0.58542          5514.8333     18.62586  0.00235  55316.21419  0.49356  0.00892  1327244.09722   44.7592   18.0074      55362.4    50.65922       43.96997   25.21084  35.29517   48.0    0.21764  -20.18532  0.99817 
   -2.36453  0.14384  3.79225     14.58419   1.7337   0.9669   7.12132  0.07736      0.0127  5194.39644   6407.26598  0.30871         4474.19197     17.61192  0.00023  55318.01647  1.14619   1.0243   157109.49548  46.15382  18.00978    55362.234    50.66873       43.99081   20.16867  37.81626   47.0    0.21638  -20.17713  0.92919 
   -3.30914  0.03035  6.41978     14.41885  1.89128  1.13853    6.0419  0.06097     0.01814  4608.12334   7126.08711  0.44106         5952.73301     17.36281  0.00013  55317.07186  0.76533  0.18337  1051753.68682  44.90865  17.99291    55362.234    50.59369       43.89247   25.69339  37.33371   47.0    0.23026   -20.1876  0.96597 
   -3.21357  0.01376  6.01391     14.53025  1.68885  0.62964   8.51137  0.05645     0.01848  5098.15627     6588.799   0.5358         4548.28088     16.60808    2e-05  55317.16743  1.31963   0.1171   493421.23567   45.2449  18.01258    55362.234    50.64108       43.95711   22.68975  37.81626   46.5    0.22245  -20.18078  0.97712 
   -2.80199  0.04959  5.29441     14.51698   1.8403  0.85508   6.19117  0.06451       0.016  4239.66349   6534.55566  0.55951         5448.55856     20.06148    0.064  55317.57901  0.66384  0.30705   442976.30937  45.43972  18.02528  55363.28431    50.81972       44.17382   20.16867  35.29517   48.0    0.20944  -20.23158  0.96008 
   -2.18864  0.00197  7.09822      14.6922  2.05634  0.55655   7.18423  0.04416     0.01244  4004.07345   6412.47617  0.91922         4637.85338     17.38099  0.00013  55318.19236  0.68709  0.01414   397008.49261  45.28084  17.96776    55362.234    50.56604       43.84788   27.55741  37.99077   49.0     0.2282  -20.15576  0.99707 
   -4.38624  0.02747    5.308     14.29159  1.64044   1.3966   6.35262  0.07092     0.02175  4818.31524   6636.59796  0.31197         5605.65611     19.19489   0.0087  55315.99476  0.87977  0.17449  1120613.79459  44.98449  18.01023    55362.234    50.86649       44.24416   15.94277   34.4789   47.0    0.22038  -20.18238  0.97246 
   -3.51412  0.03396  5.30717     14.65607  1.63703  0.51842  11.37712  0.05111     0.01306  5129.01014   6844.88851  0.45275         5002.07188     17.89445  0.00044  55316.86688  1.78536  0.38637   208665.44163  45.71373  18.04159   55360.5144     50.6039       43.90677   27.73192   36.9866   45.5    0.20682  -20.17867  0.94102 
   -3.14332  0.07049  4.38295     14.34198  1.30328  0.81089   7.12763  0.07024     0.01739   5261.3031   6337.51646  0.32005         5264.63604     18.27667  0.00105  55317.23768  1.17695  0.50245   481316.99687  45.41792  18.00626    55362.234    50.60312       43.90545   25.21084   36.9866   46.0    0.22987  -20.20248  0.92744 
   -2.29731  0.14728  5.77145     14.59342  2.16287  1.41789   4.79185  0.10143     0.01966  4698.14518   6657.13536  0.55372         5040.88096     17.22672    9e-05  55318.08369  0.63093  0.70575    435089.2118  45.44273   17.9974    55363.365    50.67398       43.98757   25.21084  35.29517   47.0    0.21819    -20.191  0.91853 
   -3.91665  0.00205   6.9792     14.40059  2.01308  1.54167   4.65056  0.08148     0.02328  4116.52455   7137.97026  0.67727         5644.63571     17.52312  0.00019  55316.46435   0.4701  0.00952  1439162.02351  44.72698  18.01952      55362.4    50.52259       43.78089   27.73192  42.85843   47.5    0.21028  -20.16927  0.99803 
   -3.03516  0.06155  4.44781     14.28372  1.41861  1.13271   5.62943  0.08031     0.01973  4687.89791   6668.17662  0.36549         5439.67229     16.98891    5e-05  55317.34584  0.73799  0.34651   705563.88249  45.27588   17.9926    55363.365    50.71063       44.02248   20.16867  37.81626   46.5    0.21469  -20.17352  0.95337 
   -2.91652  0.00101   5.4811     14.44018   1.5078  0.62491   8.24013  0.04739     0.01452  4653.61661   6677.94622  0.62886         4869.64252     16.83148    4e-05  55317.46448  1.06449  0.00833   554034.34275  45.22592  17.97283    55363.365     50.7918       44.12417   22.68975  35.29517   46.5    0.23204  -20.20094  0.99836 
    -1.6814  0.14917  3.35425     14.46051  1.54351  1.24574   6.46549  0.07876     0.01524  5183.30342   6823.32133  0.27882         5362.96216     17.75621  0.00032   55318.6996   1.0362  0.96443   193416.13993  46.11967  17.99682    55362.234    50.61123       43.91241   25.21084   36.9866   45.0    0.23127  -20.19318  0.93769 
   -2.80636  0.03394  6.01621     14.55427  1.76404  0.72058   7.82322  0.05193     0.01171  4066.55908   6971.58617  0.84486         5148.83151     18.76732  0.00325  55317.57464  0.77173  0.26554   461764.52902  45.29229  18.00783    55363.365    50.69513       44.02872   22.68975  35.29517   47.5     0.2106  -20.17985  0.95273 
    -2.5723  0.07755   4.1212     14.52534  1.78479  1.06661   8.22301  0.06089     0.01636  5089.28206   6479.34359  0.21688         5701.78503     19.12247  0.00737   55317.8087  1.27049  0.63767   250472.93606  45.89162  18.04431  55363.28431    50.62352        43.9118   22.68975  39.50768   45.0    0.23362  -20.19621  0.94861 
   -2.85491  0.01705  6.64536     14.49766  1.91763  0.85733   4.80462  0.08359     0.03035  4824.49871   6851.01191  0.51589         5029.62316     16.54934    2e-05  55317.52609   0.6671  0.08193   794888.56595  45.00627  17.98503    55363.365    50.67572       43.97969   20.48906  40.01696   46.5    0.23012  -20.17956  0.98373 
   -2.38778  0.11647  4.06898     14.78514  1.67123  0.46125   5.43764  0.10009     0.02785  5019.93341   6496.45055  0.36192         5003.60464     19.18379  0.00848  55317.99322   0.8174  0.63333    69109.27107  46.43337  18.00501    55363.361    50.60787       43.89621   28.21447  37.33371   45.5    0.21468  -20.19174  0.94525 
   -2.91207  0.16937  3.81807     14.53234  1.77073  1.36413   5.83683  0.08774     0.01495  4909.08615   6467.46398  0.26947         5567.42867     18.21801  0.00092  55317.46893  0.83908   0.9886   206528.33009  46.03833  18.02593    55362.234     50.7124        44.0381    15.1265  40.33734   47.5    0.21522  -20.14314   0.9328 
   -2.67883  0.09508  1.54124     14.39655   1.3394  1.05174  12.43449  0.04802     0.01179  5659.46011   6837.26087  0.00052         2186.89439     20.51973  0.18385  55317.70217  2.37577   1.1823    47572.70654  47.34266  17.97691    55362.234     50.6555       43.97369   22.68975  37.81626   44.0    0.23252  -20.34106  0.98303 
   -3.68727  0.04227  4.24593     14.58336  1.72992  0.83184  14.44002  0.03945     0.01312  5185.35733   6513.23795  0.19194         4805.50102     17.93765  0.00048  55316.69373  2.31607  0.61034   197271.83297  45.95586  18.03175    55362.234    50.65237       43.96774   21.26543   36.7195   45.5    0.21615  -20.12662  0.94538 
   -3.94988   0.1019  3.91607     14.70253  1.65804  0.60243   8.18442  0.06068     0.01097  4370.29979   7228.80069  0.49657         5681.45119      19.0694  0.00652  55316.43112  0.93248  0.83397    92909.44716  46.33468   17.9871    55362.234    50.71729       44.05184   21.27453   36.7104   48.0    0.20087   -20.1586  0.93355 
   -2.42616  0.12216  1.30768     14.47058  1.72521  1.30445   9.20239  0.04833     0.01208  4786.57871   6587.78493  0.10325         4582.88645      20.6534  0.25011  55317.95484   1.2577  1.12421     31369.0892  47.77618  18.03512   55360.5144    50.58007       43.87931   25.21084   36.9866   47.5     0.2378  -20.34387  0.99362 
   -3.61298  0.00488  5.97357     14.34263  1.79188  1.41609   6.57931  0.07073     0.02244  4841.01065   7065.86611  0.45943         5174.35173     17.70231  0.00028  55316.76802  0.91977   0.0321  1225528.64204  44.88136  18.01726  55363.28431     50.6606       43.95909   17.64759  42.85843   45.0    0.21846  -20.18845  0.99425 
   -4.20814  0.01728  6.83738     14.52862  2.14651  0.95865   4.68227  0.09441     0.03158  5042.88029    6595.8886  0.32542         5162.94847     16.73882    3e-05  55316.17286   0.7103  0.08089   816740.22047  45.01871  18.01535  55363.28431    50.71537       44.05639   20.44992  35.01393   46.5    0.22457  -20.18656  0.98562 
   -3.34509  0.00965  5.50902     14.40675  1.73913  0.95268     8.884  0.05259      0.0207  5432.21146   6603.79256  0.16224         5151.74422     18.80925  0.00358  55317.03591  1.56383  0.08576   752990.15833  45.15024  17.99014    55362.234    50.53726       43.81662   27.73192  40.33734   44.5    0.23513   -20.2017  0.98646 
   -2.70554   0.0375  4.40509     14.54935  1.86104   1.0921  15.70071  0.03652      0.0111  5210.85741   6813.56869  0.25037         4892.89984     16.60384    2e-05  55317.67546  2.54311  0.58883   267163.90352  45.82391   18.0103  55363.28431    50.78457       44.11871   17.64759  37.81626   44.5    0.21977  -20.17398  0.94901 
   -2.75864  0.08072   4.3457     14.34814  1.56628  1.33653    6.6036  0.06896     0.01966  5002.40206   6690.16148  0.26144         5558.91105      19.3793  0.01331  55317.62236  0.98575  0.53305   552739.27926  45.44508  17.98851    55362.234    50.72301        44.0622   17.64759  35.47458   46.0    0.23483  -20.20475  0.94188 
   -2.61294  0.05146  5.25548      14.5019   1.8539  1.13961   8.87702  0.04985     0.01123  4267.84656   6916.30071  0.57595         5605.39166     17.13526    8e-05  55317.76806  0.96452  0.45678   471325.02371  45.42239  17.98809    55362.234    50.60318       43.90708   25.69339  36.50405   46.5    0.22387   -20.1795   0.9433 
   -5.66874  0.00732  5.82108      14.3092  1.54126  0.88977    4.5382  0.09652     0.02702  4927.03184   7062.53432  0.38647         5284.20288     16.15089    1e-05  55314.71226  0.65718  0.03323  1167596.27037  44.85942  18.05098  55363.28431    50.63088       43.91595   20.48906  41.70838   47.0     0.2119  -20.14622  0.99289 
   -3.02112  0.07261  1.25508      14.3177  1.32647  1.53151  14.53599  0.04143      0.0129  5360.11191   6895.56562  0.20075         5261.60633     20.67695  0.26404  55317.35988  2.49126   1.0555    44921.23428  47.54175  18.01054    55362.234    50.62457        43.9245   22.68975  39.50768   43.0    0.24727  -20.49625  0.99112 
   -2.08329  0.35617  2.02206     14.84235  1.83819  0.72178   4.38521  0.14068     0.01775  5677.77369   6413.84554  0.16612         3480.38917     19.26592  0.01025  55318.29771  0.84328  1.56188    14424.53572  47.76255  17.99253   55360.5144    50.59702       43.89373   25.21084   36.9866   45.0    0.22843  -20.21404  0.98084 
   -4.41492  0.01276  5.54086     14.31199   1.6868  1.53359  10.20147  0.04784      0.0154  4855.77546   6864.98593  0.33866         5994.83544     18.16719  0.00082  55315.96608  1.43485   0.1302  1143046.82172  44.95069  18.00455      55362.4    50.61381       43.91662   25.21084   36.9866   45.5    0.21348  -20.17999   0.9784 
   -3.22378  0.08072  5.08068     14.69662  2.08743  0.86173   8.74623  0.06306     0.01091  4777.07923   6714.49963  0.39189         5231.70239      19.3857   0.0135  55317.15722  1.19062  0.70595   202312.44261  45.87059  17.98386   55360.5144     50.5651       43.84247   25.69339  39.85479   46.5    0.20586   -20.1584  0.93261 
   -3.15846  0.11193  3.31335     14.28628  1.11667  0.81174   5.61048  0.08365     0.01312  4275.96222   6856.47514  0.51801         5511.22122     17.66642  0.00026  55317.22254  0.61192  0.62799   304586.95913  45.79252  18.03432    55362.234    50.66187        43.9949   21.27453   36.7104   47.0    0.19598   -20.1682  0.93453 
   -4.43779  0.09155  4.59581     14.46234  1.51718  0.73964   4.86743   0.0804     0.01689  4304.24581   6759.61564  0.36835         5878.41821     16.77224    3e-05  55315.94321  0.53792  0.44563   353920.16087  45.57625  18.01035      55362.4    50.66328       43.97992   21.27453   36.7104   48.5    0.22124  -20.12861  0.94278 
    -2.3974  0.00339  5.39248     14.28898  1.50099  0.94242   6.91468  0.04754     0.01289  4231.98818   7039.06239  0.57751         5708.18213     19.82148  0.03683   55317.9836  0.73873  0.02344  1071057.95351  44.95183   18.0039    55362.234    50.74429       44.07987   17.64759  35.47458   48.0    0.23033  -20.20455  0.99552 
   -2.01303  0.14887  4.05117     14.52903  1.82301  1.42414   5.84507  0.07682     0.01518  4582.07298   6927.30751   0.4154         5772.45733     16.54413    2e-05  55318.36797  0.73205  0.87016   243058.00338  45.92876  18.04575    55362.234    50.70739       44.03588   17.64759  37.81626   47.0    0.22746  -20.18766  0.93569 
    -3.2724   0.0701  5.41079      14.4098  1.66929  1.08277   7.38181  0.04967     0.01035  4335.89884   6882.00611  0.54412         5269.53594     18.31946  0.00116   55317.1086  0.82784  0.51744   687492.64849  45.18759  17.98027      55362.4    51.04132       44.44254    15.1265  32.77409   48.5    0.22818  -20.16163  0.92185 
   -3.24774  0.01576  5.55743     14.31473  1.66825  1.52634  11.92142  0.03734     0.01218  4763.99068   6853.93671  0.41948         5889.56392     17.38243  0.00013  55317.13326  1.61398   0.1879  1122949.14002    44.951   18.0328    55362.234    50.58983       43.88333   25.21084  37.81626   45.5     0.2259  -20.20321  0.96845 
   -2.11143  0.06149  4.27998     14.43885  1.63667  1.28289   9.72079  0.05823     0.01458  5028.68556   6509.85902  0.38247         5225.09656     16.94609    5e-05  55318.26957  1.46635  0.59772   368935.74261  45.65297  18.02399  55363.28431    50.71312       44.02951   20.16867  37.81626   45.0    0.22468  -20.17775  0.94113 
   -3.64864  0.00599  5.25154     14.42428  1.95294  1.07274   8.14728  0.04156     0.01098   4141.8344   6849.80249  0.45686         5170.99303     20.36282   0.1281  55316.73236  0.83373  0.04878   708781.38113  45.26845  18.02283    55360.343    50.69288       44.03435   17.64759  35.47458   49.0    0.22307   -20.2395  0.99408 
   -2.18278  0.12792  1.75521     14.43782   1.7343  1.41858   6.56886  0.07518     0.01932  4673.57394    7222.7428   0.1894          5928.3309       20.661  0.25453  55318.19822  0.85588  0.84029    66064.37948  47.19934  18.01076      55362.4    50.55326       43.83315   27.55741  37.99077   44.5    0.22002  -20.40872  0.98865 
   -2.91976  0.06073  4.21964     14.45601  1.86645   1.4959   8.47317  0.05885     0.01655  4947.49445   6547.30968  0.22889         5585.33711     20.12389   0.0739  55317.46124  1.23721  0.51454   377881.91316  45.71195  18.01838  55363.28431    50.61587       43.89618   25.21084  40.33734   45.0    0.22082  -20.23667  0.95878 
   -2.45206  0.05206  5.80666     14.48873  1.70051  0.85531   6.04507  0.06455     0.01855  4174.75326   6665.61879  0.86759         4798.06381     16.92244    5e-05  55317.92894  0.62848  0.31468   560760.06222  45.22279  17.99833   55360.5144    50.57705       43.86691   25.21084  37.81626   47.5    0.21537  -20.16086  0.94534 
   -2.12834  0.06402  3.82503     14.59742  1.81108  0.92503  11.39781   0.0429     0.01058  4580.38342   6502.14923  0.46494          4909.8625     19.93522  0.04786  55318.25266  1.42644  0.72973   157103.83852  46.16533  18.04724    55362.234    50.67766       44.01458   21.27453  34.18932   47.0     0.2167  -20.19391  0.95069 
   -2.57217  0.05278  4.42314     14.53235  1.95826  1.55349   11.0702  0.04798     0.01463  5071.14114   6547.32262  0.25829         5783.25682     19.01848   0.0058  55317.80883  1.69822  0.58433    306507.2396  45.78281  18.02107      55362.4    51.09234       44.48865   14.20254  33.69806   44.0    0.23942  -20.20338  0.95262 
   -4.03893  0.02565  5.59976     14.43645   1.6979  0.85748   8.31571  0.04342     0.01285  4511.65233   6591.17288  0.46484         5352.81542     17.28166  0.00011  55316.34207  1.00971  0.21329   662458.88164  45.18126  17.97876    55362.234    50.69474       44.01345   21.27453   36.7104   48.5    0.22766  -20.18015   0.9647 
   -1.90918  0.20245  3.51919     14.82425  1.89216  0.61523   5.54466  0.08915     0.01257  4895.74467   6563.77501  0.27225         5468.42143     16.42223    1e-05  55318.47182  0.79276  1.12252    48883.08098  46.76376  18.04756  55363.28431    50.64045        43.9347   22.68975  37.81626   46.5    0.22137  -20.16066  0.94192 
    -3.2801  0.00135  5.12919     14.30416  1.65864    1.429   8.47324   0.0446     0.01409  3944.07815   6803.98269  0.65624         5512.04273     19.51473  0.01817   55317.1009  0.78626  0.01146   998517.98983  45.06914  18.02328  55363.28431    50.62135         43.925   25.21084   36.9866   46.5    0.21057  -20.20995   0.9983 
   -1.40622  0.08566  1.34067      14.7407  1.92482  0.88792  12.85391   0.0513     0.01413  5187.37843   6937.39845   0.2851         4792.97751     20.56811  0.20551  55318.97478  2.06328  1.10112    10603.50468  48.27314   17.9908    55362.234    50.61286        43.9201   25.21084   36.9866   44.5    0.22239  -20.31496  0.99628 
   -3.15867  0.00362  5.64953     14.38472   1.6594   0.8816   5.61415  0.06007     0.01406  3982.82369   6509.30005  0.70131          5212.0105     18.17756  0.00084  55317.22233  0.53124  0.02033   836261.66295  45.06243  18.02861  55363.28431    50.66736       43.97426   20.16867  37.81626   48.5    0.22125  -20.18388  0.99633 
   -2.36768  0.37001  4.26781     14.63434  1.98309  1.20604   3.60038  0.14984     0.01999  5357.46662   6569.22274  0.24726         4408.36683      19.2349  0.00954  55318.01332  0.61645  1.33217   180668.95873  46.04889  18.00842  55363.28431    50.63857       43.94944   22.68975  37.81626   46.5    0.21587  -20.17844   0.9071 
   -2.44291  0.00448   6.6109     14.79531  1.90951  0.40802   8.29733  0.04426     0.01122  3748.78525   6948.27298   0.9546         5429.43086     17.97006  0.00052  55317.93809  0.69558  0.03713   198904.85712   45.6106  18.01836  55363.28431    50.60147       43.88247   22.68975  40.33734   47.0    0.21253  -20.19779  0.99259 
   -3.98463  0.00125  6.20398     14.45866    1.975  1.07525   4.74451  0.09437     0.02772  4352.41327   6863.09327  0.55522         5608.85295      16.0437    1e-05  55316.39637  0.53614  0.00595   853901.98071  45.04767  18.00864  55363.28431    50.60748       43.90753   25.69339  37.33371   46.0      0.203  -20.19905  0.99901 
   -3.13865  0.00139  4.52775     14.08443  1.18481   1.2344   3.61646  0.10667     0.02346  4054.04049   6856.23469  0.79908         4902.58831     17.53118  0.00019  55317.24235  0.35456  0.00503   1528869.4904  44.84636  17.99913  55363.28431    50.57274       43.85447   27.55741  37.99077   47.5    0.20705  -20.15798  0.99903 
   -3.53179  0.06214  5.73244     14.65065  1.71032  0.50845   5.16855  0.09146     0.02704  5271.09604   6870.16085  0.29742         5227.95065     17.80245  0.00035  55316.84921  0.85664  0.32116   260775.98449  45.56898  17.97632  55363.28431    50.55577       43.82282   27.73192  40.33734   45.5    0.23089  -20.18987    0.946 
