 log(Bfield)      Mns    Pspin  cutoff_power  cutoff_wavelength  fnickel    kappa  kappagamma  mejecta  log(nhhost)  temperature  texplosion  thetaPB     vejecta      A_V        MJD_0   log(KE)      M_Ni  Peak_mag     Peak_MJD 
    14.74641  2.02817  4.30007       0.04637         5273.07724  0.14358  0.04001     0.01471  8.44697     19.54736   6586.43162    -2.04317  0.80029  4600.13886  0.01959  55318.33783   51.9091   9.22651    17.941     55356.29 
    14.13709  1.25701  5.75363       1.96781         4576.37577  0.00531  0.09982     0.02886  2.16594     16.41517   7087.23242    -2.27366  1.15213  2175.61006    1e-05  55318.10734   51.0999   0.23664  18.02841    55360.343 
    14.35298  1.69016  7.01595       1.80325         4511.38205  0.00125  0.08365     0.02309   2.6078     16.95152   8739.09787    -2.19535  1.04041  2230.21383    5e-05  55318.18565  51.14683   0.05916  18.03475    55360.343 
    14.39291  1.63842  6.85819       1.80337         4555.69775  0.00119  0.07085     0.02938  3.12219     17.18108    8580.4528    -2.84586  0.84942   2079.7101    8e-05  55317.53514  51.10943   0.05911  18.07692  55358.60226 
    14.41224   1.6286  6.82902       1.82077         4404.34226  0.00274  0.09209     0.04384  2.45124     19.33008   7921.91382    -2.35048  0.76873  2395.40901  0.01188  55318.03052  51.20059   0.12726  18.01591  55358.60226 
    14.44286  2.06318  7.87197        1.7174         4690.05215  0.01371  0.17619     0.05267  1.16773     17.70059   7974.35246    -2.04323  1.38652  1900.37847  0.00028  55318.33777  50.88528   0.48855  17.98666    55360.346 
    14.42169  1.73647  7.32631       1.99793         4764.20606   0.0148  0.10704     0.02404  1.97891     16.23067   7873.79714    -2.25575  0.91609  1913.46118    1e-05  55318.12525  50.97546   0.64026  18.04377    55360.343 
    14.34909  1.76372  7.47477       2.21465         4651.58745  0.00152  0.12779     0.02875  1.64065     17.61554   8257.84531     -2.4916  1.24159  1891.48564  0.00023   55317.8894  50.93733   0.06167  18.01948  55358.60226 
    14.31914  1.70157  6.89608       1.34087          4858.8698  0.00753  0.12234     0.04023  1.87456     19.08513   5830.21029      -2.759  1.17946  2383.12889  0.00676    55317.622  51.15818   0.32009  18.03806    55360.343 
    14.60447  2.09874  8.05234       1.98502         4512.68349  0.00126  0.10858     0.04136  2.03249     16.09853   8099.63535    -1.65655  0.77447  2052.02656    1e-05  55318.72445  51.04005    0.0549  18.01369    55360.343 
    14.14938  1.33858  5.76319       1.37921         4623.17754  0.00195  0.07192     0.02805  3.33344     17.07933   3819.66558     -2.2627  1.29804  2568.71903    7e-05   55318.1183  51.30103   0.09894  18.02209  55358.60226 
    14.46073  2.11286  7.63773       1.36265          4603.2909  0.00159  0.07591     0.05571  2.98942     18.07894   9360.09527    -2.37757  1.25457  2330.48764  0.00067  55318.00343  51.20281   0.07844  18.02019  55358.60226 
    14.37116   1.5966  6.69042       1.64261         4567.71435  0.00217  0.14443     0.08184  1.44885     17.91957   8380.73649    -2.05053  0.86058  2381.50895  0.00046  55318.33047  51.11774   0.08409  18.04056    55360.343 
    14.34152  1.64957  6.89467       1.75959         4793.86977  0.00126  0.05912     0.01449  3.39007     17.98702   5401.73385    -2.02144  1.00988  1982.24542  0.00054  55318.35956  51.07799   0.06445  18.10452    55360.343 
    14.34224  1.65344  7.03743       1.59109         4546.30367  0.00809  0.14309     0.06495  1.70272     16.47994   5704.88533    -2.03732  1.01678  2602.75581    2e-05  55318.34368  51.22031   0.33231  18.02447  55358.60226 
    14.41022  1.88496  6.97061       1.18522         5065.48288  0.00238  0.13039     0.05532   1.7621     16.76468   8880.61431    -2.39216  1.18828   2309.0894    3e-05  55317.98884  51.12153   0.09903  17.98661  55358.60226 
     14.2708  1.47886  6.63429       2.07487          4650.0838  0.01786   0.1441     0.02603   1.4472     18.06633   9746.76135    -2.03044  1.05048  1994.04009  0.00065  55318.35056  50.96332   0.69213  18.05973    55360.343 
    14.39409  1.81689  2.82538       0.14422         5243.72822  0.19767  0.06354     0.01711  5.76385     20.93097   6660.07889    -1.22403  1.40092  4229.35427  0.47391  55319.15697  51.79705  11.60944  18.01509  55355.19579 
    14.34573  1.64327  6.91525       1.81621         4791.50396  0.00592  0.10174     0.02345  1.95487     16.27081    7660.3466    -1.56219  1.01541   2002.4215    1e-05  55318.81881  51.01316   0.25499  17.99649  55358.60226 
    14.72296  2.06048  3.18139       0.02534          4931.9397  0.16143  0.03647     0.01503  7.85331     20.49836   6484.49729    -0.97995  0.85115  4330.18296  0.17502  55319.40105  51.84939  10.20342  18.02672    55360.343 
     14.5753  1.96723  3.67083       0.02807         5469.15863  0.16996  0.04183     0.01421  7.98257     20.43234   6686.16963    -1.29048  1.12616  4531.31218  0.15034  55319.09052  51.89045   10.7825  18.01622  55358.60226 
    14.21403  1.41659  5.81167       1.32022         4542.99824  0.00263  0.07542     0.03782  3.05801     19.33405   8101.26407    -1.89051  1.11236   2501.9058  0.01199  55318.49049  51.26735   0.13022  18.01578    55360.343 
    14.37307  1.83339  7.26134       2.23595         4328.63196  0.00253  0.07162     0.04056  3.65872     17.62194      6213.16    -2.51705  1.33747  2147.43829  0.00023  55317.86395   51.1568   0.13204  18.05302  55358.60226 
    14.62174  1.97398  7.79442       1.97986         4464.02186  0.00164  0.08083     0.02904  3.01726     17.77828   7678.81626    -2.28478  0.65466  2166.18061  0.00033  55318.09622  51.14049   0.08112  18.06489  55358.60226 
    14.38898  1.35279  5.18202       0.48991         3945.43366  0.19685   0.0558     0.02159  4.95806     18.13106    6475.7893    -1.78019  0.89595  4592.52024  0.00075  55318.60081  51.85219  11.13271  17.98459  55358.60226 
    14.38309   1.7223  7.36926       1.75497         4609.08714  0.00102  0.08222     0.02548  2.79477     17.06059   4306.30977    -2.93434  0.91945  2314.18111    6e-05  55317.44666  51.18804   0.04929  18.01841    55360.343 
    14.36087   1.7167  6.93801       1.56363         4505.31141  0.00111  0.10066     0.04288  2.47435     19.34683   9866.86498    -2.19373  1.04422  2460.43969  0.01235  55318.18727  51.22513   0.05174  18.04191  55358.60226 
    14.44176  2.06727  7.76785       1.84176         4709.58816  0.00168  0.11843     0.02723  1.84747     19.42024   8271.97095    -2.36395  1.33038  1884.50068  0.01462  55318.01705  50.95212   0.07115  18.01538  55358.60226 
    14.51964  1.87826  7.54365        1.5764         4621.77567  0.00756  0.10572      0.0376  2.01225     17.98081   9479.09251    -2.41852  0.74828  2249.38385  0.00053  55317.96248  51.11837     0.329  18.02209  55358.60226 
    14.26151  1.58308  6.86249       1.88332          4663.2999   0.0013  0.08573     0.02639  2.26303     16.88679   4934.56571    -2.08147  1.30926  2015.52436    4e-05  55318.29953  51.03965   0.05866  18.00854  55358.60226 
    14.48474  1.88058  6.95192       1.29435          4748.4092  0.00378  0.07511     0.02525  2.90761     16.24057   6494.56046    -2.15967   0.8687  2290.30584    1e-05  55318.22133  51.18415   0.18459  18.03475  55358.60226 
    14.33794  1.79834  7.59457       1.99909         4602.80563  0.00186  0.08932     0.03472  2.43421     16.93725    4643.2469    -2.14149  1.35692  2138.94266    5e-05  55318.23951  51.10128   0.08586  18.02635    55360.343 
     14.2656  1.34901  5.84406       1.84848         4558.61017  0.00318  0.12096     0.04705  1.79046     17.53423   6661.91261    -1.81873  0.86256  2158.39167  0.00019  55318.56227  51.06531   0.13282  18.02971    55360.343 
     14.4295  1.91751  2.59854       0.13987         5277.06341  0.10928  0.03485     0.01442   8.3162     20.92339   6516.16147    -1.58724  1.31454  3813.48344  0.46571  55318.79376  51.74468   6.99753  18.03428    55360.343 
    14.48307  1.82803  7.56692       2.09602         4329.13873  0.00343   0.1192      0.0345  1.98339     16.47575   9170.10504    -2.19781  0.80911  2287.56332    2e-05  55318.18319   51.1309   0.14851  17.99988  55358.60226 
     14.3492  1.58605  6.37496       1.53874         4370.20434  0.00111  0.03987     0.01731  6.16535     18.81342    3874.0489    -2.36049  0.90051  2453.92574  0.00362  55318.02051  51.33137   0.06616  18.03745  55358.60226 
    14.48003  1.87898  7.62327       2.05806         4505.30037  0.00175  0.09329     0.01668  2.51824     16.51751   5839.71546    -2.58044  0.87099  2076.30623    2e-05  55317.80056  51.08005   0.08206  18.01605    55360.343 
    14.30826   1.6489  7.23667       1.81627         4642.04135  0.00472    0.029      0.0143  7.73709      18.4709   3745.02028    -2.10025  1.15175  2375.94966  0.00164  55318.28075  51.32657   0.29749   17.9987  55358.60226 
    14.02783  1.11723   5.0299       1.34761         4773.71164   0.0023  0.09484     0.04831  2.52712     16.05276   5276.49754    -2.54493  1.30204  2436.99548    1e-05  55317.83607  51.21965   0.10767  18.04907    55360.346 
     14.2698   1.5496  6.38942       1.61369         4391.29632  0.00276  0.15219     0.17364  1.62543     17.78855    9844.1265    -2.06753  1.19145  2431.72829  0.00034  55318.31347  51.15411   0.11162  18.03002  55358.60226 
    14.21886  1.48554  6.05003       1.55462         4609.71249  0.00125  0.07064     0.03215  3.28488     17.37487   5796.28111    -2.11099  1.31382  2368.07287  0.00013  55318.27001  51.22857   0.06348  18.05467    55360.343 
    14.45417   1.7332  6.78811       1.46335         4756.80768  0.02006  0.12248     0.04522  1.89282     18.68093   8711.15134    -2.03502  0.81901  2324.52486  0.00266  55318.34598  51.13799   0.85526  18.00692  55358.60226 
    14.75656  2.06788  5.61529       0.02365         5219.55805  0.11236  0.03345     0.01681  8.47491      18.8657   6464.86177    -1.96956  0.70607  4654.66364  0.00408  55318.41144  51.91966    7.2257  18.05107    55360.343 
    14.51794  1.86888  7.91805       1.80864         4821.51064  0.00491  0.09034     0.02496  2.26985     16.33872   3309.17555    -2.17918  0.73541  2077.92788    1e-05  55318.20182  51.06655   0.22212  18.05598    55360.343 
     14.3506  1.77225  2.57628       0.11132           5196.073  0.26531  0.07348     0.01855  5.44321     21.00538   6636.85541    -2.15986  1.50881  4573.01068  0.56249  55318.22114  51.85874   15.3625  18.03284    55357.282 
    14.41856   1.9368  7.73961       1.75687         4659.31978  0.00466  0.08737     0.01894  2.16904     19.23979   5801.56717    -2.75422  1.08765  1992.02996  0.00965  55317.62678  51.02353   0.20782  18.07266  55358.60226 
    14.11112  1.26906   5.4146       1.42356         4763.13738  0.00352  0.08276     0.03976  2.52929     18.46857   8923.73345    -2.30427  1.38211  2266.05712  0.00163  55318.07673   51.1566   0.16487  17.98877  55358.60226 
    14.53438  1.87232  7.47225        1.5927         4735.83363  0.00191  0.05633     0.01447  3.81828       19.394   9469.82583    -2.87476  0.70634  2057.55704  0.01376  55317.50624  51.12477   0.10065   18.0028    55357.282 
    14.42083  1.60708   6.8321       2.02166         4381.77688  0.00142  0.11177     0.03213  2.17689     17.81989   7016.59201    -2.76877  0.73784  2272.65294  0.00037  55317.61223  51.13851   0.06329     18.05    55360.343 
    14.41787  1.76699  7.67495       2.20508         4599.89364  0.00128  0.08528     0.02206  2.22889     18.83179   9255.10485    -1.93418  0.89864  1998.40167  0.00377  55318.44682  51.03012   0.05754  18.02755    55360.343 
     14.5449  1.79206  7.06862       1.57503         4758.57036  0.00283  0.11407     0.03144  1.89321     19.58888   8364.25302    -1.83129  0.64953  2149.41358  0.02156  55318.54971  51.06999   0.12045  17.99752    55360.343 
    14.39032  1.92639  7.79242       2.02247         4565.54224  0.00687  0.13305     0.04672    1.577     18.59376   8109.06388    -1.75107  1.39055  1985.15732  0.00218  55318.62993  50.97314   0.27452  18.03506  55358.60226 
    14.42682  1.82023  2.70253       0.09586         4658.13914  0.24097  0.06732     0.02071  5.30943     20.85566   6351.69552    -2.17166  1.29907  4588.12331  0.39846  55318.20934   51.8589  13.86627   18.0424    55360.343 
    14.41648  1.54325  6.23541       1.44296         4678.84329  0.00101  0.05241     0.02796  4.73685     16.72092    7345.0521    -1.56875  0.73141   2460.9949    3e-05  55318.81225  51.30521   0.05649   18.0066  55358.60226 
    14.43558  1.70031   6.9129       1.51486         4617.43816  0.00507  0.12613     0.05027  1.83014     19.51835   4673.63585    -1.69371  0.80011  2424.42949  0.01833  55318.68729  51.16955   0.21371  18.06572  55358.60226 
     14.6462  2.06303  8.25794       1.80855         4799.66292  0.00424  0.10988     0.02989  1.96714     17.30207   9601.07326     -2.7047  0.64375  2032.97912  0.00011   55317.6763  51.02722   0.18299  17.90457    55357.282 
    14.53832  1.97594  7.94944       1.69678         4528.12663  0.00461  0.04937      0.0202  5.45574     16.71927   5450.85125    -3.15893  0.79146  2404.09775    3e-05  55317.22207  51.30049   0.26697  18.01052  55358.60226 
    14.35346  1.66479   6.9619       2.18773         4617.10325   0.0061  0.16952     0.03589  1.32902     19.47345   8533.78353    -2.12644  1.06166  1979.25154  0.01653  55318.25456  50.94282   0.22893  18.04498  55358.60226 
    14.38893  1.61456  6.81219        1.6936         4560.54103  0.00152  0.07599     0.02099  3.17309     16.59408   3713.54744    -2.85212  0.80859  2339.39072    2e-05  55317.52888  51.21367   0.07631  18.01392  55358.60226 
    14.49657   1.6806   6.9036       1.70903         4521.08608  0.00323   0.0943     0.03638  2.65202     18.06283   8611.36765    -2.04851  0.66253  2424.45623  0.00064  55318.33249   51.2216   0.15365  18.02825    55360.346 
    14.19415  1.40998  6.32542       2.01554         4477.64258  0.00336  0.07956     0.02204  2.61503      19.4744   4884.34937    -2.01652  1.21426  2180.81407  0.01656  55318.36448  51.12774   0.15896  18.04112  55358.60226 
     14.2262  1.44193   6.3001        1.9616         4567.16986  0.00199  0.06227     0.01631  3.47294      17.6265   4856.16102    -2.07528  1.16707  2061.78137  0.00024  55318.30572  51.11512   0.10251  18.03061  55358.60226 
    14.34863  1.75036  7.04844       1.34098         4871.08463  0.00129  0.06846     0.02517  2.92039     16.87894   4862.78964     -2.1402  1.13284  2256.99087    4e-05   55318.2408  51.17199   0.06284  18.02629    55360.343 
    14.20531  1.35727  5.48991       1.54291         4537.62027   0.0018  0.08205     0.02859  3.12647     19.90257   3778.27055    -3.42644  1.05419   2326.0834  0.04439  55316.95456  51.20685   0.09002  18.02671  55358.60226 
    14.31612   1.4656  6.42359       1.88861         4815.86004  0.01522  0.13406     0.04197  1.68845     18.58386   8855.29101    -2.50998  0.90077  2019.91514  0.00213  55317.87102  50.99882   0.62346   18.0361  55358.60226 
     14.5479  1.93146  7.78595       1.84798          4638.4047  0.00581  0.06253      0.0184  3.35806      17.5263   6845.33623    -1.67956  0.76156  2107.98857  0.00019  55318.70144  51.13024   0.29593  18.06248    55360.343 
    14.29953  1.75209  7.13131       1.53142          4558.9993  0.00118  0.08848     0.03915  2.76413     16.44859   9976.02804    -3.35083  1.45491  2466.42734    2e-05  55317.03017  51.24194   0.05681  18.03432  55358.60226 
    14.62689  1.92728  3.08456       0.00265         4964.67761  0.17368  0.04115     0.01491  7.85449     20.62352   6721.36441    -1.21365  0.92628  4485.98152  0.23348  55319.16735  51.88011  10.97761   18.0336    55360.343 
     14.3074  1.67529  7.14916       1.92467         4611.49101  0.00191  0.06044     0.02019   3.6561     17.45443   5873.35319     -2.1268  1.23183  2233.01541  0.00016   55318.2542  51.19065   0.09947  18.01952    55360.343 
    14.21662   1.4686  6.46966       1.85063         4743.77145  0.00112  0.08418     0.01819  2.42816     17.91104   8313.61276    -2.26612  1.31063  2057.32208  0.00045  55318.11488  51.06715   0.05178  18.02903    55360.346 
    14.41187  1.83619  7.60816       1.76212         4834.57137  0.00178  0.13648     0.03788  1.51126     18.30572   9769.44046    -1.86705  1.02857  2131.94591  0.00112  55318.51395  51.02837   0.07009  18.04194    55360.343 
    14.36748  1.81844  7.72691       1.79914         4572.76634  0.00547  0.04036     0.01205  5.68503     16.73266   7819.18211    -2.01614  1.20524  2381.46277    3e-05  55318.36486  51.29671      0.32  18.07485    55360.343 
    14.39231  1.59365  6.78594       1.89127         4555.94034  0.01083  0.10108     0.03624  2.22255     18.80572    8524.7651     -2.4752  0.81231  2199.73976  0.00355   55317.9058   51.1131   0.48667  18.02435  55358.60226 
       14.26  1.56292  6.86734       1.90021         4571.14937  0.00263   0.0539     0.01954  3.95959      16.8734    6408.3458    -2.31529  1.23214  2187.06836    4e-05  55318.06571  51.18209   0.14032  17.99375  55358.60226 
    14.59356   1.8703  5.14486       0.01794         5525.26017  0.10767  0.03193     0.01426   9.4737     19.29597    6536.3054    -2.39486  0.88967  4813.75672  0.01098  55317.98614   51.9596   7.09771  17.93208    55355.369 
    14.25865  1.51581   6.3163       1.84462          4477.2902  0.00692  0.05919     0.02253  3.81876     16.22729   9494.33959    -1.92709  1.20805  2283.79988    1e-05  55318.45391   51.2154   0.36509  18.04178  55358.60226 
    14.49594  1.95491  7.80161       1.60285         4641.44152  0.00132  0.06759     0.02222  3.26688     19.40662   9536.32347    -3.05764  0.84828  2232.74355  0.01417  55317.32336  51.17677   0.06676  17.95899  55358.60226 
    14.30831  1.72001  7.10253       1.81137         4644.37448  0.00153  0.06793     0.02203  3.30795     16.67908   4558.63057    -3.05453  1.28637  2120.44062    3e-05  55317.32647   51.1335   0.07772   18.0507    55360.343 
    14.29046   1.4104  6.39967       1.89419         4497.70707  0.01046  0.10446     0.04621  1.99391     16.26311   7958.58115    -2.30905  0.84672  2344.73284    1e-05  55318.07195  51.15311   0.45391  18.02843    55360.343 
    14.33948  1.72581  7.35991       1.75381         4738.57503  0.00479  0.10103     0.05513  2.26126     16.80215   3916.49812    -2.14597  1.15187   2318.7391    4e-05  55318.23503  51.16127   0.21649  18.04275    55360.343 
    14.54528  1.92404  2.36632        0.0768         5070.80453   0.1478  0.04316     0.01508  7.27674     20.74848   6525.33338    -1.01547  1.10613  3993.69526  0.31132  55319.36553  51.77149   9.17892  17.94515  55355.19579 
    14.39691  1.94764  7.86674       1.66441         4442.53034  0.00264    0.122     0.05069  1.83195     19.61756    8464.2955    -2.22785  1.20086  2420.74682  0.02303  55318.15315  51.16837   0.11137  18.04692    55360.343 
     14.4163  1.87259  7.14301       1.62223         4523.82566  0.00822  0.10111     0.04135  2.35278      19.8776   8719.01155    -1.87927  1.04548  2505.68825  0.04191  55318.50173   51.2341   0.37634   18.0531    55360.346 
    14.48578   1.9611  7.54625       1.53492         4832.98379  0.00603  0.08793     0.02308  2.41628     17.94256   3437.39703    -1.84957  0.94042   2141.3136  0.00049  55318.53143  51.10124   0.27854  18.03884    55360.346 
    14.39458  1.89476  7.44073       1.55081           4666.032  0.00144  0.07622     0.03834  3.00817     19.23346   3206.20832    -3.03596  1.17266   2280.5027  0.00951  55317.34504  51.18478   0.07107  18.05088  55358.60226 
    14.45319  1.71231  7.01768       1.70682         4773.33334  0.01583  0.14089     0.04143  1.39797       19.805   7711.49299    -2.04711  0.74172  2107.17167  0.03546  55318.33389   51.0056   0.60544  18.03899  55358.60226 
