 texplosion  fnickel    Pspin  log(Bfield)      Mns  thetaPB   mejecta    kappa  kappagamma      vejecta  temperature    alpha  cutoff_wavelength  log(nhhost)      A_V         MJD0  kenergy  mnickel             TSD   log(L0)  Peak_mag     Peak_MJD  log(E_rad)  log(Peak_lum)  Rise_Time    E_fold  tau_1  delta_m15     r_peak     frac 
  -10.52656  0.03129  3.12984     14.04232  1.67083  0.67957   4.29646  0.21008     0.05187    8570.6766   8103.28426  0.78413         3526.01264     19.26602  0.01025  56228.56944  1.88264  0.13444   1250691.44357  45.40358  19.19169    56289.061    51.18851        44.4174   34.39608   44.7149   48.5    0.16064  -21.59665  0.99255 
  -11.43774   0.0062  3.45532     14.10914  1.96631   0.5899   3.79736  0.26634     0.01944   8125.56127   3104.43409   1.3921         3162.54307     19.61722  0.02301  56227.65826   1.4956  0.02354   1318767.01805  45.36535  19.21426    56289.076    51.14059       44.39191   30.95647   44.7149   46.0    0.19833  -21.58776  0.99873 
   -9.64737  0.49945  3.86402     14.03078  1.86251  1.10196   8.52003  0.11256     0.21295   8827.86223   6485.54833   0.9229         3250.53368     18.26494  0.00102  56229.44863  3.96077  4.25529   2240990.83252  45.01442  19.19281      56287.9     51.1436       44.40376   39.55549  39.55549   76.0    0.14033  -21.57501   0.7651 
  -14.78925  0.45545  2.34653     13.66452  1.46766  0.43741   3.16427  0.23922     0.01829   8132.83082   9443.98054  1.94494         2652.11771     16.83568    4e-05  56224.30675  1.24849  1.44118   3517685.05456  45.14836  19.18791      56287.9    51.19196       44.39341   36.11588  48.15451   47.5    0.15455  -21.59697   0.9422 
  -13.19949  0.01148  3.01354      13.7646  1.57831  1.06269   8.71025  0.10924     0.01268   8578.23033   9994.40548  0.83562         3338.75894     19.01593  0.00576  56225.89651  3.82343  0.09997     3935117.166  44.91393  19.20687    56289.076    51.21028       44.43038   34.39608   46.4347   38.0    0.18675  -21.59055  0.99432 
  -12.07932  0.02411  2.76863       13.874  1.64435  0.96321   5.19377  0.29724     0.01454   9113.82032   3810.36476  0.99318         2976.52152     16.99333    5e-05  56227.01668  2.57342  0.12521   2090912.37994  45.27997  19.21543  56290.17891    51.27295       44.53403   37.83568  41.27529   42.5    0.20234  -21.60219  0.99444 
  -12.23787  0.10176  3.06571     13.70307  1.76226  1.19119   5.59098  0.09197     0.01255   6900.56709   4709.80124  1.39833         3457.79888     20.44391   0.1544  56226.85813  1.58813  0.56894   6036725.54492  44.76105  19.20549      56291.8    51.26799       44.52654   34.39608  42.99509   58.0    0.16295  -21.66967  0.97183 
   -9.59419   0.0766  2.55455     13.89751  1.51711  1.35621   6.96829   0.2241     0.05497   9050.92321    6161.4295  0.97711         3339.98053     17.25855   0.0001  56229.50181  3.40517  0.53379   1473833.96247  45.46678  19.17924  56287.89226    51.12719       44.42181   34.39608  37.83568   51.5    0.14289   -21.6127  0.97788 
  -12.68608  0.25122  3.11947      13.5902  1.70143  1.18596   2.03786  0.27442     0.05573    8618.6145   4966.94769  0.87246         3218.46191     16.02946    1e-05  56226.40992  0.90298  0.51195  10148274.51715   44.5051  19.19725    56290.061    51.14502       44.41489   37.83568  41.27529   60.0    0.15128  -21.58401  0.97136 
  -11.42264  0.02369  3.93196     14.25701  2.17652  0.48556   9.05148  0.08629     0.01144   8050.69268   4443.41385  0.93679         3305.46646     17.11624    7e-05  56227.67336  3.49956  0.21442    956709.15289  45.43661  19.20729  56292.46556    51.22677       44.43238   34.39608  49.87431   51.0    0.17247  -21.53924  0.98728 
  -10.27371  0.04895  2.75575     14.16493   1.8268   0.6197   5.50716  0.32851     0.01314   9233.21216    8379.5603   0.6391         3220.81533     18.75104  0.00313  56228.82229  2.80066   0.2696    602735.16078  45.86993  19.20521    56291.061    51.17933       44.41783   36.11588   44.7149   37.0    0.21065  -21.58404  0.99001 
   -9.95665  0.47025  2.84862     14.28945  1.93876  0.56895   5.70059  0.27016     0.01132   8029.41864     9279.752  1.15399           3558.549     20.14802  0.07812  56229.13935  2.19238  2.68069    385222.20036  46.06139  19.21537      56290.9    51.12302       44.37899   39.55549  41.27529   39.0    0.18999  -21.64808  0.91095 
   -8.52007   0.0196  2.73111     14.20781  1.96285  0.81796   8.00292   0.2532      0.0148   9988.02374   5907.96588  0.65022         3192.10217     16.10304    1e-05  56230.57593   4.7625  0.15686    522107.55044  45.97129  19.20037      56287.9    51.12342       44.38235   37.83568  41.27529   40.0      0.202  -21.61946  0.99488 
   -6.56113  0.32001  2.78787     14.10582  1.78175  1.37298  10.07627  0.13079     0.11733   8490.71341   8564.49675  1.10745         3424.75194     18.06293  0.00064  56232.53487  4.33327  3.22451    789884.76992  45.73158  19.18559    56289.076    51.13683        44.4034   37.83568  39.55549   52.0    0.14768  -21.57263   0.8872 
  -10.85454   0.1162  3.47437     13.99063  1.75281  0.65501   2.59545  0.31619      0.3027   8571.04621   4471.06871  1.37337         3171.50444     18.17963  0.00084  56228.24146  1.13739   0.3016   2051331.88714  45.11879  19.19325  56287.89226    51.14428       44.40937   39.55549  39.55549   75.0    0.13871  -21.58499  0.98071 
  -13.75242  0.00339  3.18518     14.24408  1.96812  0.29489   4.02556  0.24289     0.01179   7701.27837   8819.91513   1.0186         3401.09328     17.82951  0.00038  56225.34358  1.42423  0.01365    602520.70898  45.77666  19.21269    56290.075    51.13374       44.39809   36.11588  41.27529   43.0    0.18905  -21.56029  0.99936 
  -11.22756  0.41692  3.59537     13.91582  1.93647  1.04385   5.91596  0.18788     0.01336   8761.72441   9842.14614   1.3597         3045.96245     16.02987    1e-05  56227.86844  2.70914  2.46648   3425102.27882  44.90969  19.21069    56290.061    51.31347       44.42307   36.11588  55.03372   37.5    0.18843  -21.60743  0.87143 
   -9.95537  0.03688  2.71313     14.03524  1.91898  1.17435    5.6141  0.30904     0.01432   8772.86322   7933.53528   0.7547         3318.25191     19.77043  0.03275  56229.14063  2.57745  0.20707   1115167.83154  45.63764  19.20113    56289.076    51.27721       44.40254   36.11588  51.59411   39.0    0.19668  -21.60577  0.99309 
  -10.77285  0.32528  2.24382     13.76353  1.18979   0.6611   4.97676  0.28895     0.01066   8258.13399   9180.88731  1.33811         3434.05414     19.56311  0.02032  56228.32315  2.02459  1.61884   1652713.50576  45.42414  19.21114    56290.061     51.2593        44.3954   36.11588  51.59411   39.0    0.20215  -21.60757  0.92801 
   -9.66856  0.01754  3.57499     14.53485  1.93339  0.26804   6.88783  0.15038     0.01507   8171.67147   7663.55384  1.39428         3383.06981     18.68722   0.0027  56229.42744  2.74367  0.12081    195427.17068  46.15763  19.18646    56290.061    51.28522        44.5591   34.39608  41.27529   43.0    0.18888  -21.55648  0.99299 
  -15.08419  0.01944  2.58725     13.44469  1.63153  1.32942   3.99385  0.18639     0.01289   8176.94663   3936.64688  0.72355         3306.43463     18.88428  0.00426  56224.01181  1.59295  0.07765  13082714.65472  44.53907    19.227  56290.17891    51.14312       44.38126   34.39608   44.7149   53.0    0.18151  -21.57276  0.99669 
   -13.5583  0.17464  2.05581     13.42471  1.05096  1.37449   5.05224  0.21954      0.0124   8276.10096   3546.44914  0.97098         3118.60914       19.742  0.03067   56225.5377  2.06425  0.88234   5833673.61937  44.89852  19.21576      56291.8    51.14815       44.35861   40.13287  45.85732   46.5    0.19796  -21.58932  0.95866 
  -10.50413  0.00852  3.28337     14.12939  2.11243  1.10264   9.74281  0.13194     0.28117   8968.77648   3762.81564  0.73695          3273.9744     19.33358  0.01198  56228.59187  4.67496  0.08305   1165354.36671  45.49453  19.20952    56290.061     51.1884       44.45494   34.39608  41.27529   53.5    0.15766  -21.61002  0.99647 
  -14.39093  0.02598  2.96861     13.77722  1.70003  0.78273   3.09905  0.25395      0.0198   7574.70197   4041.74434  0.93881         3469.72026     19.71817  0.02903  56224.70507  1.06069   0.0805   3880871.97746  44.96527  19.19338    56290.061     51.2983       44.49833   32.67627   44.7149   52.5    0.18308  -21.57706  0.99594 
   -9.75395  0.00464  2.85601     13.87755  1.57534   1.0014   7.22095  0.16369      0.0174   8721.85672   6530.87231  1.23021         3090.87647      19.8176   0.0365  56229.34205  3.27672  0.03348   2097071.88823  45.23309  19.20395  56290.17891    51.13054       44.39643   36.11588  39.55549   45.5    0.17817  -21.62388  0.99831 
   -8.51173  0.10044   2.6826     14.44038  1.62526  0.29032   4.18786  0.28782     0.02013   8297.06234   8241.62356  1.29569          3213.8888     20.01297  0.05724  56230.58427  1.71976  0.42063    142918.99024  46.46757  19.20219      56287.9    51.17006       44.40136   32.67627   46.4347   39.0    0.20665   -21.6149  0.98254 
  -11.47278  0.16397  2.97997     14.25269  1.64998  0.41349   8.07591  0.13871     0.01935   8601.62608   7858.50317  0.70353         3230.97274     19.20558  0.00892  56227.62322  3.56434  1.32419    424943.08415  45.90957  19.19189      56287.9    51.11158       44.37114   39.55549  39.55549   45.5    0.16737  -21.59716  0.93637 
  -11.73852  0.29334  3.12576     14.40967  1.77723  0.27857   8.00641  0.12056     0.01007   8100.42084    6387.5955  1.08583         3165.93407     20.22938  0.09421  56227.35748  3.13386  2.34862    244421.32028  46.14054  19.17837    56287.061    51.12589       44.38501   37.83568  39.55549   47.5    0.19316  -21.64362  0.89342 
  -10.07556   0.1203   2.9807     13.58178  1.42556  1.35198   4.70968  0.11329     0.36508   7769.50346   9441.86702  1.45288         3321.67759     18.96801  0.00516  56229.02044  1.69592  0.56657   8069882.70126  44.56733  19.19992  56290.17891    51.24858       44.39042   37.83568  56.75352   76.0    0.13256  -21.55573  0.96368 
   -13.1989  0.15875  3.01827     13.65382  1.77253  0.97751   7.60144  0.08251     0.01036   7693.75701   6731.05417  1.33279         3323.68138      20.3104  0.11353   56225.8971  2.68411  1.20675   7383940.16858  44.68963  19.19832    56289.061    51.33852       44.55968   32.67627  42.99509   59.0    0.15063  -21.68409  0.94269 
  -13.56212  0.00487  2.90508     13.91606   1.9043  1.15923   4.74271  0.28993       0.013   7611.62405   6756.99721  1.13157         3492.58854     20.16919  0.08202  56225.53388  1.63911  0.02311   2196615.98192  45.28051  19.20294    56290.061     51.1097        44.3682   30.95647  42.99509   45.5    0.18059  -21.64041  0.99909 
  -13.97133  0.09203  2.94803     13.97011  1.75205  0.42702   3.26882    0.288     0.01511   7923.92331   6894.41627  1.17012         3420.22261     17.33841  0.00012  56225.12467  1.22433  0.30082   1622596.00963  45.36312  19.20084    56289.061    51.18777       44.41922   37.83568   44.7149   49.0    0.19078  -21.57383  0.98564 
  -12.78897  0.01091  3.28249      13.7842  2.00451   1.3063   3.67703  0.28304     0.01294   7978.07537   6895.02436  1.27484         3141.39793     16.42166    1e-05  56226.30703  1.39611   0.0401   5417839.05915  44.80462  19.19447    56287.075    51.20903       44.44371   32.67627   44.7149   46.0    0.19802  -21.55707  0.99808 
   -3.89166  0.22129  1.74326     14.19388  1.80638  1.30006   7.71843  0.29472     0.02556  10572.12652   3422.44673  1.95206         2269.48295      16.3218    1e-05  56235.20434  5.14613  1.70803    208736.85899  46.72333  19.19797  56290.17891     51.1495       44.43465   30.95647  41.27529   41.0    0.15488  -21.62093  0.97539 
   -7.80873  0.26356  2.83102     14.11221  1.80043   1.3313  11.66678  0.09036     0.03635   7683.93456    6777.9078    0.952         3752.46358     18.56937  0.00206  56231.28727  4.10909  3.07488    799204.85596  45.71768  19.20076    56290.061    51.13124       44.39865   32.67627  41.27529   58.5    0.15304  -21.53734  0.89037 
  -12.61781  0.03169  2.79359     13.69866  1.44308  1.21411   2.81141  0.33311     0.03241   7794.52852   8778.00487  0.94115         3597.67601     18.47306  0.00165  56226.47819   1.0189  0.08908   4188956.76748   44.9137  19.20696    56287.075    51.15343       44.42495   30.95647  41.27529   43.0    0.17987  -21.56757  0.99504 
   -7.04043  0.00468  3.16944     14.11519  2.01888  1.30488   6.17343  0.23781     0.05913  10011.29902   9119.95333  0.72469         3302.28187     17.71759  0.00029  56232.05557  3.69092  0.02891   1107930.11845  45.52748  19.20354    56289.076    51.27281       44.41255   37.83568  53.31392   38.5     0.1683  -21.62235  0.99878 
   -9.67761   0.0065  2.93956     14.26955  1.68783  0.47274   5.10527  0.24219      0.3218   9304.12257   3058.73208  1.00025         2862.13551     16.00838    1e-05  56229.41839  2.63631   0.0332    391383.31859  45.96701  19.21769    56289.076    51.15513       44.42438   32.67627  41.27529   54.0    0.16352   -21.5859  0.99841 
  -14.88772  0.00346  2.69076     13.76919  1.50471  0.52926   5.69503  0.14255     0.01664   8647.57898   4710.25048  0.72365         3101.43661     16.47628    2e-05  56224.20828  2.54046  0.01969   2928434.55884  45.11991   19.2167    56289.076    51.19451       44.39712   32.67627   44.7149   55.5     0.1653  -21.60586  0.99899 
  -10.02114  0.01037  2.93472     13.91913  1.55382  0.90942  10.48087   0.0988     0.04333   8271.19594   4243.67355  1.10571         3297.46181     18.03101   0.0006  56229.07486  4.27722  0.10871   1803389.13737  45.26902  19.22067    56290.061    51.12911       44.38839   36.11588  41.27529   59.0    0.15201  -21.56974  0.99411 
  -11.74891  0.30276  2.90869     13.83627   1.5779  1.06333   4.29654  0.29893     0.02103   8813.31798   6459.69802  0.99224         3181.50364     16.83174    4e-05  56227.34709  1.99079  1.30081   2634785.87018  45.11879  19.18681      56287.9    51.12455       44.41553   37.83568  37.83568   44.5    0.19583  -21.60621  0.93598 
   -9.12777  0.44773  2.87053     14.13243  1.60552  0.65519   4.82583   0.2469     0.01434   7402.56587   4168.54619  1.41219         3590.01206     18.87888   0.0042  56229.96823  1.57748  2.16067    667583.38269  45.73403   19.1889      56291.8     51.1597       44.40218   36.11588  42.99509   45.0    0.18834  -21.55265  0.90378 
  -11.69371  0.23152   3.6493     14.06206  2.19315  1.48443   4.75893  0.28291     0.02817   8352.24013   3533.42089  1.19608         3144.17354     17.42873  0.00015  56227.40229  1.98035  1.10177   2037856.54009  45.17632  19.21167    56290.061    51.16032       44.40418   39.55549  42.99509   47.0    0.15824  -21.57875  0.94767 
  -11.33737  0.11184  3.59763     13.83965  1.82975  1.50434   7.84197  0.09389     0.10182   8104.39982   7632.65804  0.97939         3663.26773     17.11683    7e-05  56227.75863  3.07252  0.87704   4601998.10316  44.75626  19.19545      56287.9    51.23667       44.39616   34.39608  49.87431   73.0    0.14279  -21.58152  0.94594 
  -10.71351  0.34517   3.0492     13.82499  1.65222  1.48251   3.67855  0.27137     0.02468    8307.9883   7787.54018  0.97401         3130.81272     19.44087  0.01533  56228.38249  1.51459  1.26971   3193523.72542  45.01427  19.18966    56289.061     51.1735       44.41213   36.11588   44.7149   43.0    0.18496  -21.57526  0.93598 
   -6.86009   0.0034  2.26823     14.07639  1.75614  1.35943   7.00465   0.2552     0.08478   9493.28513   9045.25178  1.19015         2665.56807     19.29087  0.01085  56232.23591  3.76571  0.02379    590155.55898  46.03106  19.22302    56289.076    51.22629       44.42392   41.27529  48.15451   40.5    0.15366  -21.58576  0.99937 
   -9.77994  0.00422  2.96428     14.10546  1.50348   0.4906    6.9938   0.1298     0.02004   8075.80476    6018.6035  1.09035         3445.98707     17.82915  0.00037  56229.31606   2.7209  0.02949    754807.75933  45.62427  19.19286    56289.061    51.12949       44.38552   39.55549  41.27529   48.5    0.17355  -21.54795  0.99827 
   -5.57368  0.00911  2.52562     14.17393  1.81168  0.97405   6.58782  0.20599      0.0164   8800.88624   3038.25067  0.73398          3744.7029     18.66995   0.0026  56233.52232  3.04384  0.06004    481684.97766  46.03943  19.19505      56287.9    51.14787        44.3969   32.67627  42.99509   38.5    0.20303  -21.55987  0.99811 
  -10.29894  0.00699  2.19649     13.96171  1.52406  1.05899   5.24207  0.32356     0.02185   9275.51359   6435.76329  0.46819         3315.49055     19.61491  0.02289  56228.79706  2.69033  0.03667    814439.09156  45.85753  19.20193    56289.076    51.14976       44.38532   39.55549  42.99509   40.0    0.19794   -21.6066  0.99887 
    -8.5503  0.00103  1.92655       14.055  1.54757   0.8513   6.15451  0.29585     0.01302   8746.70952   9888.25047  0.77632         3226.09088     19.92527  0.04677   56230.5457  2.80873  0.00632     414023.3596  46.27191  19.20509      56290.9    51.17297       44.42963   32.67627  42.99509   33.5     0.1968  -21.60855  0.99985 
   -7.29458  0.00407  2.25426     14.48452  1.75102  0.36009   7.44828  0.21309     0.01535   8914.31021   5808.98582  0.75694         3594.28002     20.05614  0.06322  56231.80142  3.53068  0.03028     88730.84334  46.85805  19.19149    56289.061    51.15967       44.42412   37.83568  39.55549   40.5     0.1902  -21.65231   0.9992 
  -11.11352  0.00307  2.60333      14.5156  1.71252  0.22634   6.65773  0.30204     0.01104   8981.77347    5114.9832  1.06379         3081.59281     18.43696  0.00152  56227.98248  3.20389  0.02046    100301.35904  46.67012   19.2112  56292.46556    51.22334       44.39332   34.39608  51.59411   43.0    0.18718  -21.59457  0.99925 
   -9.41328  0.06858  3.21751     13.87074  1.66011  1.35619   8.50883  0.11539     0.16986   8472.84557   8472.67182  1.18303         3386.44882     18.35934  0.00127  56229.68272  3.64381  0.58356   2894140.68792  45.01242  19.20582    56289.076    51.10495       44.37226   32.67627  42.99509   56.0    0.15702  -21.58553  0.96646 
   -8.89824  0.00586  3.01352     13.95696  1.71524  1.32281   4.23312  0.27978     0.03629   7705.94647   7198.98396  1.56986         3460.20037     17.45122  0.00016  56230.19776  1.49948  0.02479   1763445.68506  45.29866  19.16567    56287.061     51.2599       44.41672   34.39608  51.59411   48.0    0.14967   -21.5651  0.99878 
   -9.57917   0.2146  2.61739     14.06459  1.89738   1.4554   6.91822  0.23707     0.01698   9363.96669   9807.35749  0.68934         3089.56416     19.93837  0.04821  56229.51683  3.61861  1.48467    896452.53435  45.75874  19.24008    56289.076    51.17798       44.40306   34.39608   44.7149   33.5    0.19434  -21.63955   0.9551 
   -8.59166  0.19178  2.61316     13.93695  1.63656  1.42572   6.23071   0.2597     0.01329   8675.08468   8670.08691  1.18157         3292.35163     17.39281  0.00014  56230.50434  2.79713  1.19492   1387349.58991  45.50626  19.19734    56290.061    51.13829       44.36715   41.85268  44.13751   38.0    0.20036  -21.58594  0.95486 
  -11.51797  0.04139  2.88143     14.16493  1.64626   0.5807   10.8526  0.10784     0.04102   8607.60564   4857.64347  0.95744         3110.85956     18.79562  0.00347  56227.57803  4.79652  0.44923    593838.59268  45.79246  19.18945    56289.061    51.16722       44.39705   37.83568   44.7149   56.5    0.15086   -21.5713  0.97894 
   -9.32543  0.01426  3.39667     13.92776  1.78151  1.03821   3.19937  0.27127     0.04964   9284.49466   7128.58974  0.80012          3187.6844     18.08395  0.00067  56229.77057  1.64516  0.04564   2661949.86115  45.03233  19.20641    56290.061    51.18552       44.41347   34.39608   44.7149   46.0    0.18406  -21.59223  0.99727 
