 texplosion  fnickel    Pspin  log(Bfield)      Mns  thetaPB   mejecta    kappa  kappagamma     vejecta  temperature    alpha  cutoff_wavelength  log(nhhost)      A_V         MJD0  kenergy  mnickel            TSD   log(L0)  Peak_mag     Peak_MJD  log(E_rad)  log(Peak_lum)  Rise_Time    E_fold  tau_1  delta_m15     r_peak     frac 
  -21.04287  0.00169  3.18933      14.1985  1.86652    1.544   9.19471  0.03649     0.22983  5728.15285    3899.1285  0.73035         5438.00929     18.88756  0.00429  56097.30713  1.79968  0.01556    706707.7229  45.68324  18.92575  56138.20858    51.13011       44.52931   20.48329  28.12229   45.5    0.27103  -21.24389  0.99925 
  -21.54278   0.0095  3.05436     14.16756  1.43118   0.7754   7.26233  0.04875     0.47225  6168.29747   3546.37284  0.85252         4904.51618     17.22635    9e-05  56096.80722  1.64829  0.06896   573091.55973  45.69648  18.89204  56138.20858     51.0861       44.49258   20.04257  28.05959   46.5    0.27117  -21.21923  0.99547 
   -19.2658  0.00285   3.2179     14.31454  1.88984  0.89061  15.39983  0.02044     0.12734  6328.12476   3886.15344  0.64909         5443.60796     19.23146  0.00947   56099.0842  3.67869  0.04386   426887.07082  45.89981  18.85253     56136.32    51.12832       44.57898   18.36653  25.02468   45.0    0.30863  -21.28916   0.9979 
  -20.92996  0.02367  3.17461     14.19251  1.82766  1.40939   3.92805  0.09369     0.29773  5614.59598   3962.38311  0.95035         5098.67037     20.11745  0.07281  56097.42004  0.73865  0.09299   704803.93786  45.67929  18.93951  56138.20858    51.10369       44.50941   20.04257  28.12229   44.0    0.26093  -21.31349  0.99545 
  -19.21773  0.00623  3.74796     14.44977  1.85534  0.57051   16.6517  0.01973     0.02064  6135.21827   4026.51666  0.88488         5391.71634     17.09521    7e-05  56099.13227  3.73892  0.10371   304998.27163  45.90538  18.90417     56136.32    51.08262       44.48875   21.07322  27.09163   45.0    0.29679  -21.31409  0.99307 
  -19.65859  0.01946  3.01242     14.04214  1.43615  1.56046  14.79976   0.0224     0.03033  5619.38065   3809.24964  0.92593         5140.15985     16.79681    3e-05  56098.69141  2.78778  0.28796   996692.96381  45.46965  18.89007  56138.20858    51.16083       44.59873    19.0849  26.82869   46.0    0.27945  -21.21857  0.98199 
  -21.70701  0.04167  3.10276       14.113  1.59982  1.49185  10.70555  0.03639      0.0612  6257.88369   3229.01617  0.78742         5046.59843     18.35948  0.00127  56096.64299  2.50087  0.44607   849943.30766  45.56003   18.8949  56138.20858    51.06668       44.45332   20.04257  30.06385   46.5    0.27396   -21.2325  0.97504 
  -20.59744  0.00184  3.49248     14.27673  1.67563   0.7451    4.5499  0.07535     0.24149  6348.00957   4069.54614  0.82765         5217.89598     16.98093    5e-05  56097.75256  1.09371  0.00839   530655.12535  45.68194  18.88983  56138.20858     51.1359        44.5283    19.0849  29.01726   46.0    0.28768  -21.27806  0.99943 
  -22.99855  0.01683  3.44323     14.47499  1.76481  0.49345  10.05079  0.03948     0.02969  5708.86887   3614.84338  0.87079         5511.15848     18.49964  0.00176  56095.35145  1.95401  0.16912   218001.01191  46.10315  18.85764     56136.32      51.067       44.45735    19.0849  31.02152   47.0    0.25497  -21.25218  0.98977 
  -16.25924  0.03872  3.11618     14.32211  1.48609  0.66353  19.01409  0.01769     0.01375  5827.73541    3380.6795  1.11925          5001.1604     17.93241  0.00048  56102.09076  3.85214  0.73623   304012.55786  45.97075  18.89773  56138.20858    51.09365       44.48012    19.0849  31.02152   43.5    0.30695  -21.28975   0.9546 
  -21.17565  0.01201  3.35274     14.30387  1.84929  0.86239   7.81897  0.03527     0.01266   4721.7482   4446.60427  1.03843         5803.07928     16.41694    1e-05  56097.17435  1.03988  0.09388   476303.48528  45.80717  18.88905     56136.32    51.07039       44.47269   21.08916  29.01726   45.5    0.26839  -21.34403  0.99496 
  -21.54393    0.061  3.77804     14.35474    2.092  1.02038   6.36628  0.05546     0.16294  5983.50874   3068.70224  0.79864         4994.60147     18.56539  0.00204  56096.80607  1.35964  0.38832   541293.98752  45.70144  18.87096  56138.20858    51.10134       44.52354    19.0849   27.0757   47.0    0.26968  -21.20267  0.97838 
  -19.08378  0.00108  3.57158     14.24613  1.81896  0.94089   3.81662  0.07989     0.23663  7232.96374   3671.59821  0.54293         4865.39257     16.56925    2e-05  56099.26622  1.19107  0.00412   693583.32358  45.58185  18.90653     56136.32    51.11218       44.51072   19.06897  27.08367   48.0    0.31386   -21.2209  0.99974 
  -22.80412  0.00125  3.32055     14.33015  1.80656  0.73488   6.19417  0.06028      0.0769  6317.03525   3741.87693  0.66447         5412.70124     18.49029  0.00172  56095.54588  1.47447  0.00776   404371.42003   45.8765  18.88058     56136.32    51.09773       44.48617   21.07322  28.66932   47.0    0.26866  -21.24646  0.99958 
  -19.25931  0.05152  3.55098     14.18278   1.7516  1.23964   3.69424  0.08993     0.12494  6253.61986   3904.99209  0.85196         5106.77276     16.68081    3e-05  56099.09069  0.86182  0.19033   883876.77033  45.46519   18.9101  56138.20858    51.12976       44.54325   19.06897  27.09163   45.5    0.29029  -21.26279  0.98764 
  -18.43271  0.00138  3.11051     14.18656  1.58435  0.97373  13.37919  0.02099     0.43685   5285.9835   3706.42962  1.04392         5605.69895     17.72209  0.00029  56099.91729  2.23002  0.01852   602848.91314  45.70282  18.85524     56136.32    51.11145       44.55841   19.34014  25.87102   42.5     0.3146  -21.36406  0.99892 
  -21.48477  0.00243  3.10493     14.07673  1.59325  1.54263   9.19879  0.03193     0.01286  5189.40788   4569.96673  0.99979          5589.5816     17.04686    6e-05  56096.86523  1.47772  0.02237  1001710.22434  45.48628  18.86005  56138.20858    51.16328       44.58514   19.34014  27.63198   45.5    0.27994  -21.34276  0.99871 
  -20.57545  0.01082  3.13985      14.1101  1.65462  1.34783   9.19322  0.03474     0.27748  6808.68219   3732.81539  0.53325         5294.79257     16.25588    1e-05  56097.77455  2.54227  0.09946   912283.03579  45.53359  18.90612     56138.34     51.1268       44.50971   21.07322  28.60558   48.5    0.30507  -21.23341  0.99447 
  -19.70359  0.00359  2.87759     14.40797  1.89658  0.64567  17.43741  0.01975     0.40969  6183.18022   3834.67744   0.7626         5256.17751     20.40234   0.1403  56098.64641  3.97679  0.06252   222797.34642  46.28085  18.91353  56138.20858    51.24437       44.69862   18.03831  26.05534   44.0    0.29606  -21.42884  0.99762 
  -22.30303  0.00215  2.75601     14.12706  1.59139  1.14725  10.06554  0.03549     0.41536  6083.13872   3788.56813  0.60019         5440.24391     18.65112  0.00249  56096.04697  2.22187  0.02164   625217.38916  45.79403  18.89965  56138.20858    51.11167       44.51786    19.0849   27.0757   46.5    0.27576  -21.21382  0.99901 
  -19.58959  0.00543  3.62056     14.20608  1.80936  1.35174   9.02848  0.03694     0.47748  5225.19873   3998.74623  1.23762          5097.4078     16.64424    2e-05  56098.76041  1.47044  0.04905   852553.56218   45.4781   18.8837  56138.20858    51.12784       44.55101    19.0849  26.82869   42.5     0.2885  -21.31374  0.99682 
  -18.12486  0.00136  2.76671     14.08288  1.44405  1.10516   4.19686  0.07287     0.17375  5788.23771   4008.88007  0.96551         5086.96869     20.00259  0.05589  56100.22514  0.83877  0.00571   700743.65182  45.69894  18.91101  56138.20858    51.13189       44.54841   18.03831  28.12229   43.0    0.31312  -21.34231   0.9997 
  -19.71915  0.00294  3.44189     14.19626  1.75272  1.19928  21.32991  0.01494     0.33315  5177.05845   3341.96122  1.14935         5381.15841     16.23797    1e-05  56098.63085  3.41022  0.06262   780929.36125  45.54635  18.88594     56136.32    51.06344       44.46835   20.04257  27.69572   43.0    0.27523  -21.34999  0.99615 
  -20.08525  0.03173   3.5519     14.46226  1.76968  0.54087   9.03383  0.03471     0.01769  5477.83615   4506.20948  1.04003         5136.39634     18.77074  0.00328  56098.26475  1.61703  0.28662   246666.26144  46.02371  18.88754  56138.20858    51.04054         44.434   20.04257  30.06385   45.5    0.29034  -21.27192  0.98178 
  -19.57723  0.07439  2.80966     14.40536      1.6  0.57039   4.81355  0.06615     0.18555  5422.98147   3700.33919  0.87792         5523.63716     17.76402  0.00032  56098.77277  0.84444  0.35806   181352.05227  46.31713  18.90348  56138.20858    51.07656       44.45006   21.51394  31.03745   43.5     0.2864  -21.28673  0.98348 
  -20.85788  0.00123  2.87106     14.03306  1.43336  1.21483   3.66018  0.08914      0.2502   6145.4507    3957.7684  0.70706         5712.20205     17.04541    6e-05  56097.49212  0.82459  0.00452   942191.43928  45.53498  18.89798  56138.20858    51.09531       44.47994   21.51394  28.66932   46.5    0.28589  -21.29149  0.99974 
   -18.9003    0.024     3.16      14.0986  1.61912  1.46098   3.55509  0.09157     0.48554  6265.07412   3770.22805  0.74939         5560.63227     19.62444   0.0234   56099.4497   0.8324  0.08531   953394.88572  45.49948  18.85719     56138.34    51.13702       44.56041   19.34014  27.63198   45.5    0.29067  -21.31244  0.99503 
  -19.53871  0.00799  2.73716     14.27939  1.32606  0.53165  16.11635  0.02008     0.09055  5743.72908   3713.60236  0.87426         5502.63919      16.1461    1e-05  56098.81129  3.17162  0.12877   254797.70432  46.11061  18.88146  56138.20858    51.09522       44.52322    19.0849  26.82869   44.5    0.28685   -21.2893  0.99243 
  -21.11699  0.01641  2.99819     14.27875  1.46924  0.61923  10.90987  0.03051     0.06198  5498.07879   3042.08762  1.00236         5427.19269     16.07857    1e-05  56097.23301  1.96729    0.179   339717.50718   45.9511  18.87543  56138.20858    51.09697       44.53442   18.38247  26.82869   45.0    0.27482  -21.31969   0.9892 
  -19.58906  0.05452  2.80135     14.14218  1.52394   1.2108  13.32145  0.02972     0.42727  6635.01867   3682.38783  0.70052         5373.03494     18.30947  0.00113  56098.76094  3.49835  0.72627   576968.94849  45.79593   18.9019     56136.32    51.06461       44.45971   21.08916  29.01726   44.5    0.30236  -21.29014  0.96483 
  -20.14563  0.01261   3.7051     14.24556  1.91936  1.21412   5.15798  0.06084     0.35085  6102.95934   3987.42954  0.80116           4801.844     18.03633   0.0006  56098.20437  1.14601  0.06503   789667.87615  45.51696  18.85872     56136.32    51.09666       44.51197    19.0849   27.0757   46.5    0.30092  -21.18456  0.99596 
  -19.64792  0.04827  3.55714     14.41009  1.74853   0.5996   5.39099  0.05558     0.02672  5547.66534   4431.21846   0.9768         5050.11502      16.2992    1e-05  56098.70208  0.98973  0.26025   310820.60802  45.91681  18.88948  56138.20858    51.08195        44.4755    19.0849  29.01726   46.5    0.28135  -21.22926  0.98308 
  -19.06018  0.01723  3.04844     14.20549  1.76362   1.4001  18.67381   0.0197     0.04455  6070.76965   3785.22326  0.77141         5072.00043      17.6082  0.00023  56099.28982  4.10532  0.32169   590731.85871  45.77571  18.91543     56136.32    51.11563       44.55744   18.03831  26.05534   43.5    0.29298  -21.23691  0.98488 
  -20.08313  0.01772  3.22125     14.35642  1.83882   0.8786  21.02618  0.02014     0.02325  5430.27671   3771.37103  1.08429          4759.6744     19.03733  0.00605  56098.26687  3.69855  0.37261   343220.42948  45.98176  18.98245  56138.20858    51.12275        44.4852   20.04257  30.12655   44.0    0.25577  -21.21192   0.9817 
  -19.70204  0.00293  2.89957     14.29471  1.72691  0.78994   22.3918  0.01534     0.09017  5941.78519   3979.66001  0.80059         5367.35579     20.12878  0.07473  56098.64796  4.71574  0.06551   347005.90229  46.04111  18.87755  56138.20858    51.14448       44.57616   19.06897  26.84462   44.0     0.2863  -21.35492  0.99708 
  -18.44091  0.02245  3.19021     14.16198  1.59492  1.14801    6.2042   0.0509     0.04219  5122.87933   4087.04339  1.09041          5513.8435      17.2134    9e-05  56099.90909  0.97127   0.1393   714868.06736  45.60972  18.90348     56136.32    51.13878       44.57252   18.03831  26.05534   43.0    0.28561  -21.30933  0.99158 
  -20.29878  0.01515   3.7051     14.20579  1.82887  1.28434   4.09545  0.08403     0.21124  5552.32443   3932.44986  1.06267         5458.55024     16.67895    3e-05  56098.05122  0.75314  0.06205   903672.69605  45.43742  18.94494  56138.20858    51.11395       44.48074   22.04682  30.06385   44.0    0.27078  -21.32821  0.99585 
  -21.09091  0.00396  3.51227       14.217  1.81574  1.16141  16.95665  0.02168     0.01937  5788.56588   3730.80461  0.90499         5180.76728     18.76144  0.00321  56097.25909  3.38929  0.06723    765667.8893  45.55268  18.94547  56138.20858    51.11508       44.48757   22.04682  29.63623   45.5    0.27047   -21.2503  0.99593 
  -22.26902    0.036   3.2936      14.1791  1.83289  1.38108   6.39791  0.06068     0.14808  6875.25901   3551.10276   0.4867         4900.99421     19.07815  0.00665  56096.08098  1.80403   0.2303   809256.04566  45.58855  18.86427  56138.20858    51.06023       44.44733   20.04257  30.06385   49.0    0.27923  -21.17921  0.98799 
  -17.36251  0.00419  3.41593     14.16332  1.63738  1.18477  11.23265  0.02628     0.01771  5367.58381   4090.25851    1.143         5115.44413     18.74626   0.0031  56100.98749  1.93049  0.04712   836247.41385  45.49364  18.90586  56138.20858    51.13121       44.52967   20.04257  28.12229   43.0    0.29882  -21.28766  0.99684 
  -19.89858  0.02194    3.267     14.13395  1.67753  1.42536  13.48328  0.02669     0.14223  6840.72628   3683.65371  0.61535         5171.14376     16.49688    2e-05  56098.45142  3.76381   0.2958   897196.04802  45.51233   18.8712     56136.32    51.07257         44.484    19.0849  28.58964   46.5    0.30358  -21.24155  0.98276 
  -20.44204  0.00151  2.60443     14.10365  1.29107  0.79733  20.11227   0.0165     0.04221  5497.10151   3796.41962  0.94966         5467.94112     19.35676  0.01263  56097.90796   3.6254   0.0303   504543.66591  45.84547  18.92361  56138.20858     51.0757       44.45318   21.51394   29.0332   44.0    0.27611  -21.32423  0.99831 
  -19.20337    0.005   3.5234     14.33708  1.95683  0.88937  13.04962  0.02502     0.16136  5550.48341   3684.00428  1.06509         5191.25517     20.04568  0.06172  56099.14663  2.39821   0.0652    477682.6345  45.78733  18.90759  56138.20858    51.10154       44.51734   19.06897  26.84462   43.5    0.28983  -21.37969  0.99644 
  -20.82689  0.02288  2.97755     14.15855  1.73923  1.41714   3.65486  0.09021     0.26291  5775.67249   3862.44695  0.73924         5571.72361     19.47991  0.01677  56097.52311  0.72728  0.08364   689892.88061   45.7227  18.89524  56138.20858    51.11659       44.52595   19.06897  27.09163   45.0    0.28582   -21.2884  0.99612 
  -18.72913  0.00146   3.8089      14.2698  2.06445  1.51296   8.07414  0.03483     0.37057  5465.60121   4273.93288  0.97696         5390.62977     18.87997  0.00421  56099.62087   1.4388  0.01182   802824.45968  45.51743  18.91863  56138.20858    51.09191       44.46951   19.06897   29.0332   44.0    0.29792   -21.3146   0.9993 
  -20.37444  0.00268  3.39186     14.30768  1.88617  0.94063  25.14776  0.01273     0.09138   5341.1612   4042.32771  0.95931         5493.03809     16.02971    1e-05  56097.97556  4.27955   0.0673   488559.05097  45.79463  18.88365  56138.20858    51.18639       44.61871   18.03831  26.05534   44.0    0.28725  -21.31563   0.9964 
  -18.60779  0.02998  2.97741     14.13281  1.47909  1.02098   6.98538  0.04691     0.42077  6036.16871   3335.08081  0.89892         5110.18381     19.22515  0.00933  56099.74221  1.51824  0.20941   660478.26937   45.6713  18.93641     56136.32    51.10083       44.47752   20.48329  29.63623   44.5    0.30559  -21.28074   0.9877 
  -20.16888  0.00537  3.52009     14.37544  1.90737  0.76754   15.0261  0.02395     0.14628  6255.74172   3738.17431  0.76098         5025.18657      18.9747  0.00524  56098.18112  3.50777  0.08067   389471.22018   45.8657  18.89108  56138.20858    51.16086       44.59548   18.03831  26.05534   45.0    0.28212  -21.23553  0.99544 
  -18.11172  0.00213  2.94015     14.07528  1.41592  1.20281  14.88666  0.01964      0.0105  4681.13989   4214.61254  1.32718         5462.89945     16.73987    3e-05  56100.23828  1.94593  0.03168   803604.72034   45.5781   18.8881  56138.20858    51.05612       44.43349   20.04257  30.06385   41.0    0.29211  -21.38367  0.99804 
  -18.37953  0.00261  3.71474     14.23198  1.81733  1.01832   8.34604  0.03776     0.12744  6702.06049   3636.59596  0.76009         4869.86234     19.14633  0.00778  56099.97047  2.23627  0.02174   800104.60251  45.48527  18.87338  56138.20858    51.07528       44.48982   20.04257  28.05959   46.5    0.29891  -21.24243  0.99852 
  -20.16542  0.03551  3.88025     14.26646  2.00896  1.28152   3.05394  0.10707     0.13942  5718.84609   3789.26139  0.95355         5140.70185     19.02164  0.00584  56098.18458  0.59581  0.10844   823361.75667  45.47851  18.90253  56138.20858    51.09192       44.50557   19.06897  27.09163   45.5    0.28043  -21.26069  0.99312 
  -19.83185  0.01112  2.47643     14.07448  1.45239  1.17646  16.06211  0.02047     0.04979  5402.73143   3155.82181   0.9276         5185.24958      20.1166  0.07267  56098.51815  2.79677  0.17858   586930.84439  45.87469  18.89457  56138.20858    51.10232       44.49805   19.06897  28.60558   44.5    0.28422  -21.34782  0.99253 
  -20.47359  0.00153  3.72353     14.27166  1.98232  1.15704   5.19566  0.06069     0.04792  5444.33836   3936.94225  0.92871         5557.29055     17.48742  0.00017  56097.87641  0.91867  0.00793   730425.25892  45.56053  18.86676     56136.32    51.09451       44.52106   18.38247  26.82869   45.0    0.27862  -21.29644  0.99952 
  -19.22359  0.08989  3.00378       14.211  1.52477  0.80436   4.58453  0.07357      0.1429  7167.03007   3605.15428  0.51773         5457.95192     17.79201  0.00034  56099.12641  1.40475   0.4121   483463.91793  45.81235  18.89638  56138.20858    51.05404       44.42579   20.04257  30.06385   47.0    0.30118   -21.2568  0.97672 
   -19.5156  0.00516  3.00486     14.08303  1.54231  1.43726  13.20104  0.02551     0.03915  5920.66937   3898.04256  0.91486         5223.46435      19.3871  0.01355   56098.8344  2.76043   0.0681   882226.82129  45.55579  18.87005     56138.34    51.05796       44.42974   20.67853   30.1753   44.0    0.29694  -21.31656  0.99614 
  -21.38706  0.00144  3.04424     14.05814  1.44418  1.13716   6.88401  0.05343     0.26812  6243.58498   3561.31089  0.78241         4822.56447     16.15747    1e-05  56096.96294   1.6008   0.0099   950871.62779  45.48339  18.91429  56138.20858    51.07831       44.47066   21.07322   29.0332   47.0    0.27432  -21.18691  0.99936 
   -21.5501  0.01205  2.98522     14.33654  1.57918  0.57405  10.89199  0.03389     0.11105  6834.23777   3658.28177  0.48133          5161.5302     17.46089  0.00016   56096.7999  3.03469  0.13121   277406.37004  46.07421  18.88196  56138.20858    51.07806       44.46605    19.0849  29.01726   48.0    0.27858  -21.19203  0.99293 
  -21.51387  0.00104  3.66582      14.3278  1.92566  0.89979  13.35232  0.02749     0.16881  5635.50497   3758.94595  0.95049          5069.9738     16.56481    2e-05  56096.83613  2.52959  0.01386    531051.1864  45.69995  18.92788  56138.20858    51.06152       44.41721   23.09342  31.83267   45.0    0.26115  -21.22541  0.99916 
  -19.18939  0.00303  3.21597     14.23273  1.64004  0.84676    3.5873  0.08295     0.04394  5901.59612   4691.48533  0.82971          5316.8376     18.55821  0.00201  56099.16061  0.74531  0.01088   539296.89035  45.73725  18.86146     56136.32    51.06669       44.47703   20.04257  28.05959   45.5    0.30336  -21.27574  0.99935 
