 log(Bfield)      Mns    Pspin  cutoff_power  cutoff_wavelength  fnickel    kappa  kappagamma   mejecta  log(nhhost)  temperature  texplosion  thetaPB     vejecta      A_V        MJD_0   log(KE)      M_Ni  Peak_mag     Peak_MJD 
    14.22951  1.80998  3.47269       0.67584         5106.73092  0.01155  0.04506     0.15248   9.95266     20.03601   4545.83455   -22.04684  1.07379  5880.37118  0.06036  56096.30316  52.13812   0.76976  18.91826     56138.25 
    14.24657  1.99794  4.22329       0.50002         4701.00725  0.04014  0.06428     0.09506   5.56327     18.23136   8294.77166   -17.99375   1.3162  7038.14808  0.00095  56100.35625  52.23561   2.33673  18.91131  56138.75714 
    14.38477  2.17259  3.83476       0.78178         3391.57287   0.0653  0.02735     0.32737  17.96592       20.226   4047.66211   -17.57725  1.27669  7643.18554  0.09348  56100.77275  52.41824   4.90865  18.94122     56136.32 
    14.17714   1.3527  2.59314       0.77739         5297.28886  0.00578  0.02943     0.02783   12.5226     19.93591   4774.72077   -20.84679  0.73736  5152.67978  0.04793  56097.50321   52.0445   0.40466  18.91989     56138.25 
    14.31005  1.98291     3.97       0.65298         5149.76763  0.00437  0.02717     0.01776  13.59507     18.91743   3982.02243   -20.57638   0.9932  5746.30202  0.00459  56097.77362  52.14653   0.31106  18.88173     56138.25 
    13.97747  1.29516   2.8074        0.6931         5118.53743  0.00828  0.06839      0.1006    6.2227     17.46054   4240.37168   -21.60888  1.38887  5587.89143  0.00016  56096.74112  52.04711   0.49545  18.91473     56136.32 
    14.16283  1.67344  3.93467       0.28892         4845.38962  0.04442  0.05021     0.04425   6.71016     19.51562   3531.86145   -18.04889  0.98487  8038.40039  0.01821  56100.30111   52.3708   2.70626  18.92347     56138.25 
    14.09993  1.68873  3.77282       0.63875         2721.48656  0.00128  0.06721     0.15692   7.75279     18.45635   3003.44296   -22.92623  1.28336  8083.09022  0.00159  56095.42377  52.39025    0.0806  18.96409     56138.34 
    14.14078   1.6918  3.75265        0.2026         5293.64657  0.02404  0.04809     0.04402   7.05706     17.75292   4331.79656   -18.54664  1.10096  8121.93238  0.00031  56099.80336  52.38494   1.48259  18.96376     56138.25 
    14.22415  1.51441  3.01213       0.66367         4864.17322  0.02602  0.02493     0.03955  19.17786     20.29587   3524.33216   -19.09008  0.77827  6911.97308   0.1098  56099.25992  52.33631   1.98038  18.89965     56138.25 
    14.36724  2.04665  4.11285       0.55548         5434.90941  0.07998   0.0736     0.04607   5.70911     17.11786   5160.73823   -20.77776  0.93546  6157.27274    7e-05  56097.57224  52.12226    4.6863  18.92126     56136.32 
    14.38527  2.01871  3.76632       0.50325         5495.23479  0.03022  0.04716     0.14401   8.64673       16.449   3536.32426   -19.94189  0.87499  6148.10907    2e-05  56098.40811  52.16332    1.9523  18.88347     56138.25 
    14.10328  1.58505  3.84755       0.52584         5032.28853  0.05073  0.05765     0.03496   5.38066     17.82414   4928.38534   -18.21238  1.07088  7197.76216  0.00037  56100.13762  52.25148   2.92921  18.89127     56138.34 
    14.30076  1.78379  3.84964       0.60134         4693.42757   0.0078    0.066     0.17931    5.3878     19.20764   3398.56001   -17.50777  0.84019  6711.83767  0.00896  56100.84223  52.19091   0.45078    18.899     56138.25 
    14.23908   2.1183  4.74671       0.49454         4937.96263  0.00114  0.07143     0.04807   3.26521     17.98448   5811.33482   -16.04656  1.37853  7166.73094  0.00054  56102.30344  52.18967   0.05778  18.89966     56136.32 
    14.27584    1.579  3.59239       0.54241         5433.82229  0.01129   0.0295     0.02999   9.70185     19.59494   3301.02987   -15.48206  0.69541  6973.22589  0.02186  56102.86794  52.28376   0.74798  18.87016     56136.32 
    14.24492  1.83418   3.5305       0.42554         5141.25514  0.00707  0.04799     0.28549   8.53629     19.18631   3270.13685   -20.43251  1.06741  6456.01582  0.00853  56097.91749  52.20452   0.45508  18.85952     56136.32 
    14.20371  1.65161  3.49554       0.76303         5032.07353  0.01265  0.03017     0.26602  11.80389     17.50274   3684.23476   -17.05535  1.08565  5967.56551  0.00018  56101.29465  52.16669   0.87429  18.89853     56136.32 
    14.39816    1.972   3.5473       0.36781         4708.05936   0.0051  0.04873     0.17275   8.83845     20.44626   3322.36508   -19.03339  0.66723  7927.74043  0.15524  56099.31661  52.38627   0.33097  18.91711     56138.25 
    14.10913  1.43727  3.10373       0.48793         4557.03028  0.00415  0.04554     0.39863   8.45021     17.26378   3031.93266   -21.17129  0.96341  6232.06576   0.0001  56097.17871  52.17286   0.26678  18.89553     56136.32 
    14.00535  1.50313  3.66885       0.26934         3103.54937  0.03918  0.05055      0.0418   6.32874     18.98267   5013.27978   -16.87547  1.54547   8978.6864  0.00534  56101.47453  52.46081   2.35428  18.97781  56138.75714 
    14.19059  1.63129  3.23422       0.61901         5571.66363  0.00189  0.06805     0.05326   3.89037     20.40422   4746.71409   -14.62028  0.86713  6859.01849  0.14091  56103.72972  52.17281   0.10017  18.83342     56138.25 
    14.23047  1.86569  3.71234       0.47275         5441.56041   0.0013  0.04813     0.07408   6.58526     17.36392   5460.26642   -16.38463  1.29724   6501.5554  0.00013  56101.96537  52.18455   0.07875  18.92719     56138.25 
    14.18691  1.84473  4.17103       0.61131           4186.764  0.00122  0.03949     0.44365  10.50512     16.37764   4632.64035    -19.4882  1.29516  6891.55541    1e-05   56098.8618    52.281   0.08201  18.91218     56138.25 
    14.16346  1.74548  3.38555       0.50538         5767.70411  0.00532  0.04014     0.25657  10.16112     16.90394   3283.68235   -22.14063  1.30858  5867.11952    4e-05  56096.20937  52.13811   0.35589  18.90385     56138.25 
    14.39573  2.09662  3.99142       0.20601         5968.88093  0.00276  0.06496     0.23986   6.42349     16.64379   3087.96231   -20.20817  0.80153  7306.58549    2e-05  56098.14183  52.28336   0.16626  18.89402     56136.32 
    14.07686  1.59535  3.42905       0.27854         5653.70651   0.0035  0.08304     0.07648   3.10345     18.61569   3112.03262   -16.07116   1.3541  7763.90085  0.00229  56102.27884  52.25283   0.17413  18.88668     56136.32 
    14.26006  1.67825  3.46916       0.41867          5355.3733  0.04956  0.05649     0.07763   7.10242     17.50534    3794.4715   -19.13268  0.85319  6958.90516  0.00018  56099.21732  52.25136   3.06056  18.93138     56138.34 
    14.39301  2.08566  4.66972       0.51096         5223.91186  0.05192   0.0486     0.04151   6.53008     18.70485   4606.93293   -16.36013  0.81372  7595.29849  0.00282  56101.98987  52.31874    3.1428  18.89109  56135.73286 
     14.2513  1.95589  3.73678       0.24735           5377.933  0.09321  0.06711     0.06128   6.96276     17.38296   3887.38623   -20.37231  1.46442  7511.66496  0.00013  56097.97769  52.31572    5.7289  18.90226     56138.25 
    14.19766  1.73277  3.57658       0.60162         5258.27062  0.00261  0.06098     0.35868   6.73359     16.82022    4279.9912   -21.09418  1.07062  6084.06255    4e-05  56097.25582  52.12921   0.15925  18.94328     56138.25 
    14.13792  1.60522  3.75945       0.40714         4683.43692  0.01772  0.07567     0.22618   5.34479     18.40786   4055.60153   -18.23511  1.07243   7835.6244  0.00142  56100.11489   52.3245   1.02143  18.94352     56138.25 
     14.3378  2.12355  4.16113       0.76297          5193.9786  0.00365  0.04577     0.04276   7.40816      16.4031     3229.573   -17.71871  1.18505  5660.64295    1e-05  56100.63129  52.07627   0.22737  18.90347     56136.32 
    14.18887  1.71403  3.65261       0.34908         4568.27993  0.01068  0.03177     0.36846  14.81543     18.49312   3790.44517   -21.92726   1.0385  7289.66011  0.00173  56096.42274  52.36069   0.77283   18.9112     56138.25 
    14.26048  1.79222  3.56165       0.69148         4962.39434  0.00237  0.04805     0.19932   8.45023     20.17373    3953.2896   -19.81671  0.89775  6371.06886  0.08288  56098.53329  52.19202   0.15253  18.88179     56138.25 
    14.22974  1.72717  3.73813       0.69627         4960.73612  0.01071  0.05264     0.14733   7.19646     16.38774   3036.43311   -18.52112  1.01343  6264.00813    1e-05  56099.82888  52.16132   0.66313  18.94933  56135.73286 
    14.27821  1.81616  3.60312       0.51647         5143.99552  0.01575  0.05172     0.28455    8.1499     19.68135   3480.25037    -20.1155  0.90592  6477.21734  0.02667   56098.2345  52.20283    1.0038  18.91536     56138.25 
    14.27201   1.9231  4.12897       0.01643         5743.75454  0.08246  0.09628     0.08112   3.63608     17.36376   4068.78242   -20.25218  0.88779  8682.45313  0.00013  56098.09782  52.36949   4.29354   18.9104     56138.25 
    13.92044  1.24999  2.46821       0.01189          3944.0228  0.00211  0.07377     0.09949   4.77778     18.81514   4734.13643   -19.80585  1.39654  7843.34954  0.00363  56098.54415  52.31296   0.11817  18.89878     56138.25 
    14.14474  1.78312  3.86377       0.29293          4899.8152  0.00582  0.06571     0.44616   6.42725     16.46969   3071.70534   -20.52099  1.42893  7579.19007    2e-05  56097.82901  52.31524   0.35078  18.96145     56138.25 
    14.35273  1.97111  4.08431       0.31782         5118.34613  0.01407  0.03904     0.08345   9.76154      16.2833   4573.07048   -17.61406  0.85281  7648.70841    1e-05  56100.73594  52.36465    0.9333  18.82997     56138.25 
    14.27927  1.65439  3.63249       0.67388          4812.9184  0.00107  0.07826     0.21944   4.44873     17.30041    3328.4637   -17.58058  0.79116  6179.62561  0.00011  56100.76942  52.09781   0.05866  18.94304     56136.32 
    14.24955  1.95896  3.96543       0.52051         4684.44932  0.01633  0.04331     0.13575    9.6115     18.50256   3504.39693   -20.19951   1.2887  6519.22186  0.00177  56098.15049   52.2244   1.07966  18.93413     56138.34 
    14.12766  1.70835  3.70588       0.09943          5122.3806  0.00449  0.04916     0.05338     6.863      16.3659   4337.67149   -18.05965  1.18181  8656.69842    1e-05  56100.29035  52.43748   0.27519  18.89842     56138.25 
    14.19229  1.72378  3.37056       0.49007          5368.4602   0.0012  0.03786      0.2496   9.49601     19.86351   3323.34121   -19.23289  1.06891  6507.84234  0.04057  56099.11711  52.22173   0.07946  18.93771     56138.25 
     14.2769  1.98285  3.91789       0.32026         5422.34361  0.01871  0.07077     0.09288   4.24314     18.53038   4764.19777   -15.53157  1.15609   7473.7543  0.00188  56102.81843  52.25752   1.01593  18.92136     56138.25 
     14.2313  1.94961  3.83593       0.32825          5595.6691   0.0017  0.04952     0.07478   6.89484     16.83883   7111.63638   -19.87371  1.21336   7056.6247    4e-05  56098.47629  52.26044   0.10452   18.9398     56138.25 
    14.16904  1.67071  3.58952       0.35808         5387.94587  0.01474  0.08085      0.2146   4.71377      17.2917   4179.56396   -19.32431  1.06947  7285.63292  0.00011  56099.02569  52.24738   0.82311  18.87732     56138.25 
    14.36611  1.96424  3.69941        0.6474         5053.12983   0.1227  0.04764      0.0231   9.26114     17.18041   3762.14205    -19.1955  1.11549  6184.82806    8e-05   56099.1545  52.17512   8.04815  18.92099     56138.25 
    14.26845  1.80898  3.39646       0.60521          5311.7761  0.01682  0.04449     0.10343   8.97506     20.04186   3966.92767   -20.67182  0.92359  6070.93584  0.06118  56097.67818  52.15596    1.0955  18.86557     56136.32 
    14.29974  1.92374  3.96658       0.74131         5039.74919  0.13563   0.0957     0.05177   4.06093     17.49661   3505.04418   -20.58526  1.07002  5780.80112  0.00017  56097.76474  52.02931   7.27912  18.93693  56138.75714 
    14.18157   1.6364  3.50428        0.0639         3482.26021  0.00406  0.06646     0.08093   5.25756     18.70785   3324.62512   -17.50507  0.90023   9030.0399  0.00284  56100.84493  52.44593   0.23291  18.92028  56138.75714 
    14.15343  1.76303  3.50896       0.53841         5298.16891  0.00137  0.05811     0.05421   6.64168     19.23024   3898.69281   -20.84393  1.49646  6004.42476  0.00944  56097.50607  52.11634   0.08327  18.93765     56138.25 
    14.23407  1.82774  3.98951       0.54458         2277.16388  0.02835  0.09331       0.316   4.81812     18.39359   3953.64023   -19.99281   0.9478  8701.64844  0.00138  56098.35719   52.4041   1.59174  18.94492     56136.32 
    14.24454  2.00993  4.43996       0.81628         2685.06088  0.00775  0.07365     0.17146   6.34898       17.747   3652.68224   -22.28985  1.11552  7936.14032  0.00031  56096.06015  52.35394   0.46585  18.89239     56136.32 
    14.23413  1.73229  3.70621        0.1708         5266.35306  0.01644  0.03014     0.03336  11.18111     19.55717   3245.16436   -17.44566  0.87923  8560.79559  0.02004  56100.90434  52.47517   1.12305  18.94557     56136.32 
    14.42891  2.11474  4.01025       0.37428         5774.74576  0.01551  0.03088     0.02593   13.2889     18.13187   3612.27664    -21.8034  0.76449  6478.90984  0.00075   56096.5466  52.24874   1.09846  18.88382     56136.32 
    14.14118  1.79676  3.87768       0.22739          4978.6119  0.00577   0.0449     0.04733   8.43424     18.57448   4830.82595   -20.20907  1.34236  7760.81873  0.00209  56098.14093  52.36323   0.37076  18.89415     56138.25 
    14.15865  1.60763   3.3318       0.39256         5672.99643  0.03532  0.05675     0.32943   6.95397     17.91574   3828.64431   -19.78636  1.07671  6777.88289  0.00046  56098.56364  52.22631    2.1702  18.90395  56138.75714 
    14.16427  1.87623  4.41673       0.78162         3433.46885  0.02788  0.09618     0.34017   4.73265      19.4027   3396.10985   -19.62684  1.42497  7950.10348  0.01404  56098.72316  52.32364   1.55788  18.90978     56138.25 
    14.21977  1.64239  3.36479        0.3999         5279.87967  0.00135  0.03727     0.06568  11.32146     18.59337   4480.59719   -21.46051  0.86162  6626.35246  0.00218  56096.88949  52.25383   0.09274  18.92831     56138.34 
    14.08056  1.49347  3.13054       0.26587         5727.58937  0.03864  0.05201     0.04831   6.37426     17.01427   5099.33899   -17.81876  1.19191  7346.57942    6e-05  56100.53124   52.2873   2.32545  18.94797  56138.75714 
    14.30021  1.85655  4.01601       0.30495         4486.43401  0.34214  0.06118     0.03388   4.51604     16.67228   3053.89979   -14.74027  1.08267  8115.90364    3e-05  56103.60973  52.33627  18.88738   18.9387     56138.25 
    14.12364  1.40047  3.07812       0.33618         5553.02006  0.00229  0.04472      0.0482   7.27676     16.99824   4883.20569    -18.8974  0.80952  7184.82633    6e-05   56099.4526  52.28157   0.14237  18.95589     56138.25 
    14.26492  1.84744  3.98037       0.53262         5301.06123  0.00461  0.06613      0.0516   4.09482     18.01023    4297.0895   -16.92441  0.92552   6784.5977  0.00057  56101.42559  52.16936   0.24795  18.95855  56138.75714 
    14.12659  1.69719  3.73608       0.31143         5553.72426  0.00164  0.06227     0.08273   5.60417     16.18286   3269.33308   -18.37682  1.24659   7626.5897    1e-05  56099.97318  52.30615   0.09546  18.84118     56136.32 
    14.12703  1.68366  3.70576       0.43355         5096.58409  0.01254  0.05964     0.19472   7.19633     19.54641   5374.73427   -19.72773  1.29609  7235.50422  0.01955  56098.62227  52.28655   0.77687  18.88057     56136.32 
    14.35876  1.82297  3.77885       0.84919         5368.33941   0.0113  0.02662     0.07239  13.69663     16.67828   3323.37256   -18.56222  0.78292  5601.44957    3e-05  56099.78778  52.12501   0.80543  18.89378     56138.25 
    14.07912  1.58202  3.62097       0.10978         5311.53847  0.03273  0.04667     0.04859   8.12254     18.11624   4323.04512   -18.44168  1.22848  8867.73461  0.00073  56099.90832  52.47534   2.08471  18.90656     56138.25 
    14.29231  1.89808  4.04629       0.62311         5075.34068  0.00577  0.05706     0.05809   5.61683      16.5859   3057.63066   -17.28247  0.97184  6318.02638    2e-05  56101.06753  52.14289   0.33652  18.88882     56136.32 
    14.14844  1.26408  2.98533       0.45438         4761.18294  0.00968   0.0518      0.2897   8.29336     18.02031   5874.09306   -19.73203  0.64588  7149.42594  0.00058  56098.61797  52.29031   0.61973  18.84331     56138.25 
    14.11822  1.53274  3.27406       0.38988         5247.24474   0.0207   0.0285     0.13254   14.2476     17.05046   3944.25122   -19.71153  1.12648  6999.50762    6e-05  56098.63847  52.32201    1.4867  18.90994     56136.32 
    13.95465  1.29486  3.05524       0.37545         4780.74316  0.00406  0.04856     0.07707   8.54599     18.13028   3578.60764   -18.85303  1.26833   7761.2597  0.00075  56099.49697  52.36456   0.26147  18.90523     56138.25 
    14.23885  1.61983  3.11135        0.3266         5766.17904   0.0262  0.04134     0.09053   9.29935     19.52969   3585.04808   -18.90074  0.86216  6833.28088  0.01881  56099.44926  52.26212   1.71983   18.9474     56138.25 
    14.14026  1.82035  4.15634       0.48319         5186.33882  0.00217  0.04851     0.03581   5.50776     16.08836   3172.71141   -16.27842  1.55124  7172.09994    1e-05  56102.07158  52.25091   0.12581  18.89792     56138.25 
    14.30968  1.77874  3.64787       0.36847         4907.84085  0.00327  0.06011     0.17351   7.03081     17.83744   5292.62775   -20.62385   0.7858  6845.24355  0.00038  56097.72615  52.23602   0.20131   18.9314     56138.25 
    14.29031  2.05426  3.88214        0.4025         5615.85127  0.02612  0.06848     0.33252   5.14563     19.75283   5608.78801   -18.42881  1.16512  6981.95464  0.03145  56099.92119  52.22015   1.49111  18.95657     56138.25 
    14.32448   1.6795  3.44857       0.64235         5702.71511  0.01362  0.05099     0.25974   7.92923       16.929   3581.43889   -20.68043  0.69827  6025.08647    5e-05  56097.66957  52.13726   0.86251  18.84816     56138.25 
    14.24646  1.85608  3.82141       0.39491         4345.87845  0.02515  0.07723     0.31461   6.30119     19.53086   3070.02576   -20.77168    1.065  7096.00281  0.01886  56097.57832  52.25596   1.50969   18.9145     56138.34 
    14.61849   2.0422  3.46186       0.79164         4940.42643  0.04515  0.03986     0.02206     8.035      20.5517   4480.24101   -15.97166  0.43865  6158.86254  0.19789  56102.37834  52.15765   2.86868  18.96664     56138.34 
    14.10764  1.53494  3.71024       0.56709         4524.18116  0.02394  0.05938     0.07548   6.50287     17.81553   4270.80313   -18.39439   1.0881  7229.15019  0.00036  56099.95561  52.27539   1.44767  18.93891     56138.25 
     14.0953  1.45596  3.37196       0.59867          4573.3072  0.00257  0.05297     0.43694   7.07879     18.24058   3263.46961    -18.2637  1.02672  6732.87993  0.00097   56100.0863  52.22234   0.15878  18.94328     56138.25 
    14.38127  2.01159  3.93202       0.52753         4829.08982  0.00906  0.06022     0.15493   7.18064     20.00225   3851.92904   -20.04444  0.78626  6859.66437  0.05584  56098.30556     52.24   0.56121  18.89026     56136.32 
    14.18293   1.7237  3.94198        0.3378         4798.89499  0.05012  0.06774     0.05654   4.18451      17.2476    3346.9305   -16.30755  1.01698  8029.12625   0.0001  56102.04245  52.31817   2.71173  18.89829     56138.25 
     14.2349  1.44383  2.99369       0.54001         5266.22853  0.00599  0.06798     0.18894   5.88587     19.96855   4191.78742    -20.8434  0.64316  6562.20525  0.05167   56097.5066  52.18083    0.3535  18.87104     56138.25 
    14.02515  1.31485  2.94197       0.28702         4453.93422    0.043  0.07585     0.22516   5.93347      16.9978   7953.45265   -19.59807  1.05589  7614.81085    6e-05  56098.75193  52.31091    2.5433   18.9169     56138.25 
