 texplosion  fnickel    Pspin  log(Bfield)      Mns  thetaPB   mejecta    kappa  kappagamma      vejecta  temperature    alpha  cutoff_wavelength  log(nhhost)      A_V         MJD0  kenergy  mnickel            TSD   log(L0)  Peak_mag     Peak_MJD  log(E_rad)  log(Peak_lum)  Rise_Time    E_fold  tau_1  delta_m15     r_peak     frac 
   -5.98156  0.05281  8.29269     14.56555  1.95099  0.90927   6.47874  0.05564     0.02873  10864.92767   6889.61681  1.69312         3663.81372     17.34629  0.00012  58724.42472  4.56217  0.34216   921214.79504  44.75735   17.7857  58751.31682    50.49949       43.94863   19.58673  26.46564   30.5    0.51574  -20.70352  0.90506 
   -6.74795  0.03538  6.97001     14.31736  1.58057  1.15507   2.66056  0.15502     0.10834  12157.74695   7392.31689  1.79671         3275.51033     16.08794    1e-05  58723.65833  2.34589  0.09414  1653364.07095  44.56282  17.73176   58752.1638     50.6668        44.1602   13.99081   22.7343   29.5    0.51067  -20.70446  0.97273 
   -6.29967  0.12999  7.11488     14.41641  1.68292  1.25787    2.9416  0.18533     0.14737  14241.06474   7221.47395  2.18422         2462.81191     16.34579    1e-05  58724.10661  3.55874  0.38238  1162481.70281  44.72519  17.71243  58753.36601     50.6508       44.13627   16.43916   23.4698   27.5    0.54524  -20.71014  0.90299 
   -3.22933  0.48444  4.09565     14.81779  1.84504  1.07263   3.13813  0.20984     0.07687  14235.21748   6990.83969  2.65992         2520.73401     17.76697  0.00032  58727.17695  3.79338  1.52024    66509.15594  46.48732  17.75225  58753.36601    50.59333       44.05927   18.25113   25.1113   27.5    0.51882  -20.75044   0.9011 
   -5.26251  0.03806   5.6417     14.51559  1.96508  1.32086   3.08345  0.12018     0.49351  12102.12238   7407.18878  0.32941         2326.44551      16.1925    1e-05  58725.14377  2.69393  0.11735   540542.73251  45.32658  17.75708   58752.1638    50.53452        43.9662   18.25113  27.00141   25.5    0.59552  -20.78456  0.98395 
    -5.2852  0.10506  7.26743     14.44107  1.72639  1.28377   3.38115  0.13626     0.49424  11631.94979   5319.33358  1.82528         3646.96382     17.06463    6e-05  58725.12108  2.72896  0.35524  1110657.51669  44.73764  17.79101  58753.36601    50.67499       44.16419   16.06513  22.61457   29.5    0.50791  -20.73757  0.90896 
   -4.79412  0.16944  7.70474     14.68585  1.72329  0.64084   4.03914  0.11869     0.10601  11832.01376   3929.48002  2.77389         3339.23091     17.20933    9e-05  58725.61216  3.37313   0.6844   403640.14365  45.12569   17.7238   58752.1638    50.59958       44.11249   17.13839  22.77057   31.0    0.49089  -20.70534  0.82147 
   -6.93043  0.10871  7.87756     14.38746  1.69441  0.76011   2.43306  0.19184     0.05611   13227.3217   6125.57808  4.53884         3174.56485      17.3559  0.00013  58723.47585  2.53936  0.26449  1639454.98882  44.49038  17.75729   58752.1638    50.65551       44.18456   16.43916  21.53631   29.0    0.51192  -20.75887  0.91595 
   -4.80747  0.02434  6.79932     14.62068  1.77528  0.72096   4.26093  0.09726     0.15627  10333.91097   6181.48647  2.50106         3215.16194     18.94094  0.00485  58725.59881  2.71432  0.10371    437178.9432  45.21252   17.6963  58750.25534    50.55322        43.9866    17.8771   25.1113   29.5    0.48778  -20.69886  0.97608 
   -5.37235  0.03049   8.1128     14.64953  1.90191  0.82781   4.80809   0.0878     0.32783   8032.99144   6510.39159  3.90097         4121.00502     16.70101    3e-05  58725.03393  1.85078  0.14662   583831.25155  44.96341   17.8347   58752.1638    50.49921       43.92326   19.74201  27.79429   30.0    0.46048   -20.7241  0.95738 
   -5.04815  0.04478  4.35132     14.47771  1.54862  0.91641   5.10398    0.074     0.41823   9770.09048   5216.81343  0.81455         3189.46625     19.77461  0.03306  58725.35813  2.90625  0.22853   301701.18334  45.70197  17.74916   58752.1638    50.54011       43.98447    19.2127  25.66581   29.0    0.51246  -20.72644  0.97379 
   -4.83021  0.08848  6.61036     14.48522  1.75029  1.17236   3.41672  0.13642     0.32033  11888.36703   6998.84186  2.90333         2840.02485     17.12203    7e-05  58725.57607  2.88059   0.3023   760219.83743  44.99057  17.70415  58751.31682    50.60924       44.10472   16.43916   22.7343   28.5    0.52556  -20.74247  0.93556 
   -5.16861  0.12445  4.85758     14.52732  1.53555  0.78419   3.73512  0.09262     0.06883  11094.59582   5472.42487  0.51481         3221.02538     19.41969   0.0146  58725.23767  2.74255  0.46485   296674.80139  45.60999  17.74059  58751.31682    50.59596        44.0939   17.13839  22.77057   29.0    0.55959  -20.74028  0.93521 
   -5.32468  0.02887  4.86812     14.65304  1.77382  0.69105   4.01498  0.10228     0.30082  11036.99152    6466.2173  1.73261          2064.0842     17.34404  0.00012   58725.0816  2.91751  0.11591   192919.20014  45.85766  17.74348  58753.36601    50.61778       44.07568   17.39305   25.1316   28.0     0.5302  -20.74408  0.98624 
   -5.36437  0.06551  4.54692     14.53016  1.64643  0.94619   4.02916  0.11128     0.46437  12534.50784   6010.75603  0.19574         2595.80216     17.31822  0.00012  58725.04191  3.77621  0.26395   275085.76926  45.73049  17.77382  58753.36601    50.58247       44.05339   18.25113   25.1113   26.0    0.60716  -20.79365  0.97001 
   -6.26288  0.16573  6.50625     14.73663  2.02653  0.64388   3.41739  0.11471     0.08451  12698.84425    6239.5019  0.18076         2580.11374     19.96409  0.05115   58724.1434  3.28738  0.56637    267904.6212  45.52096  17.73485   58752.1638    50.61023       44.12428   14.94471  22.51591   29.5    0.57909  -20.79334   0.9089 
   -5.75555  0.02873  4.81604     14.84993  1.91871  0.49966   4.14923  0.12562     0.11361  12389.35439   6698.18966  0.05687         3289.32164      19.5738  0.02082  58724.65073   3.7992  0.11923    82477.46546  46.27014  17.72754  58753.36601    50.60589       44.07869   15.80279  23.49583   25.0    0.59348  -20.80096  0.98772 
   -4.32744  0.08751  5.64611     14.75812  1.99769  0.74348   4.62414  0.08347     0.10524  10302.86052   6389.08649  1.06018         3396.83526     17.17822    8e-05  58726.07884  2.92802  0.40465     180138.485  45.81027  17.76248   58752.1638    50.55303       44.00421   18.25113  25.81901   28.0    0.52934  -20.74604  0.94812 
   -5.75912  0.08604  6.42776     14.48545  1.87501  1.28184   2.55001  0.16861     0.33184  12889.72028   7882.60443  2.64252         2124.47108     17.64648  0.00025  58724.64716   2.5273  0.21939   769190.06124   45.0397  17.72684   58752.1638    50.70251       44.26633   14.45643  19.44631   25.5    0.56041  -20.77891  0.95913 
   -4.48915  0.03794  6.07428     14.73585  1.96253  0.80836  10.18583  0.02806     0.16732   6928.83208    6680.8515  1.52079         4311.23727      18.9493  0.00494  58725.91713  2.91705  0.38647   226942.11609  45.63876  17.70749  58753.36601    50.66703       44.17014   16.43916  22.61457   30.0    0.48702  -20.66788  0.94145 
   -5.83335  0.05419  5.13547     14.71192  1.72668  0.61565    4.9186  0.11684     0.19229  11811.93166   6190.14498  0.91347         3036.20542     19.47606  0.01663  58724.57293  4.09365  0.26653   159350.00706  45.88254  17.76195  58751.31682    50.39691       43.79412   22.01124  31.85226   27.5    0.48383  -20.74749  0.96417 
   -6.32334  0.07008  7.93866     14.77023  2.01578  0.45721   2.56837  0.15184     0.15073  13409.41557    5124.6309  1.67488          2778.0409     17.01384    6e-05  58724.08294  2.75489  0.17998   339850.73666  45.24251  17.64729  58751.31682    50.60782       44.05933   14.69004  24.48341   31.0    0.52876   -20.7961  0.95395 
   -3.96475  0.06736  6.69897     14.46616  1.70908  1.07359    2.5496  0.14507     0.13764  11545.36008   6190.30531  4.93082         2721.71092     16.52702    2e-05  58726.44153  2.02729  0.17173   832278.29457  44.92932  17.74738   58752.1638     50.5906        44.0735   17.76366  25.18264   29.0    0.54377   -20.7837  0.95995 
   -5.90461  0.07347  6.78544     14.58616  1.72817  0.65477   2.41725  0.15747     0.32058  12711.76037   5528.73983  2.79419         2502.62828     18.55295  0.00198  58724.50167  2.33003   0.1776   496852.88013  45.14705  17.73798   58752.1638    50.55682        44.0132   18.25113  25.81901   30.5    0.55495  -20.76971  0.95819 
   -5.88349  0.01663  6.71057     14.57667  1.72188  0.66023   2.98328  0.12533     0.09332  11777.22889   5726.62662  1.44855         2926.35358     16.46363    2e-05  58724.52279  2.46835  0.04962   505814.13296  45.14734   17.7995  58751.31682    50.56535       44.02378   15.80279   25.1113   30.0    0.54845  -20.71494  0.98815 
   -6.07544  0.01129    6.018     14.42377  1.78246  1.27751   4.37084  0.09006     0.09386  11268.20903   7890.52031  0.73177         2754.43461     16.16139    1e-05  58724.33084  3.31056  0.04933   851537.83789  45.03076  17.69142  58751.31682    50.74719       44.31665   11.42806  19.62999   27.0    0.53479  -20.70674  0.99101 
   -4.04242  0.27628  6.60342     14.64166  1.88178  1.27513   2.74099  0.20863     0.20292  12539.69502   6820.15528  2.33222         3373.87936     16.67459    3e-05  58726.36386  2.57104  0.75729     396831.708  45.30527  17.74599   58752.1638    50.57725       44.02222    19.2127  24.48341   28.0    0.50333  -20.75995  0.86705 
   -5.83949   0.0542  7.57462     14.51916  1.65852  0.76973   3.94449  0.11778      0.0833  11698.04957   6230.96962  3.09963         3663.24985     16.11981    1e-05  58724.56679  3.21992  0.21377    808987.0162   44.8219  17.81249  58753.36601    50.51247       43.93892   19.58673  27.46954   30.0    0.52684  -20.76115  0.93475 
   -6.19097   0.0524  5.39309     14.57601  1.61725  0.75738    3.7018   0.1486     0.13779  11362.64195   7429.70304  1.32664         2723.55442     16.22707    1e-05  58724.21531  2.85101  0.19398   307786.34065   45.5257  17.73512   58752.1638    50.65638       44.16546   14.83046  23.14501   27.0    0.48728  -20.66159  0.96805 
   -5.85049  0.07096  7.48122     14.44549  1.87519  1.26451   2.28182  0.19889     0.44025   14182.3932   5990.77444  4.03657         2203.60953     18.12063  0.00073  58724.55579  2.73784  0.16192  1252628.97288  44.69612  17.76105  58754.89027    50.65302       44.14793   12.40521  24.27652   29.5    0.56241  -20.76288  0.95893 
   -6.94765   0.0334  6.70373     14.51666  1.81113  0.86079   3.46903  0.13552     0.20409   12951.0061   7898.54128  1.21807         2155.89085     18.20755   0.0009  58723.45863   3.4709  0.11585    699969.7346  45.02908  17.72973  58751.31682    50.51815       43.91584   19.69908  27.83721   26.5    0.52511  -20.72536  0.97477 
   -5.75577  0.02791  6.20506     14.23885   1.3545  1.00087   1.86549  0.13786     0.27078   9547.82163   4220.97638   2.1118         3485.31919     17.64234  0.00024  58724.65051  1.01444  0.05207   1612102.9181  44.60774  17.75464  58753.36601    50.65656       44.12392   17.76366   23.4698   35.0    0.50274  -20.68045  0.98473 
   -6.29865  0.03186  6.37153     14.46576  1.66613  0.76765    1.8634  0.14775     0.13805  12595.75846   6379.34672  0.37233         2939.72137     17.79189  0.00034  58724.10763  1.76352  0.05937   735331.09756  45.01558  17.75406  58751.31682    50.56912       44.02544   14.94471  24.35391   31.0    0.57913  -20.74176  0.98658 
   -4.13867  0.18701  4.73078     14.73322   1.7418  0.70312   4.13414  0.12176     0.08232  12127.70439   5290.34234  2.25623         2055.83806     17.48345  0.00017  58726.26761  3.62718  0.77314   123663.99385  46.06774  17.73598  58751.31682    50.48431       43.92224   17.13839  26.46564   28.0    0.52036  -20.73387  0.91781 
   -4.81826  0.07703  4.80814     14.45554  1.37233  0.87084   8.59987  0.03464     0.04785   8925.63869   4177.51041  1.44221         3378.01874     17.56144   0.0002  58725.58802  4.08693  0.66242   361523.63119  45.48421   17.9023  58753.36601    50.65424       44.13044   16.43916  24.16185   32.5     0.5303  -20.67803  0.89729 
   -5.17797  0.03822  7.56688     14.47212  1.83704  0.97176    3.3961  0.10172      0.1114  13052.01257   6173.68614  4.10796         2373.12772     19.01419  0.00574  58725.22831  3.45114  0.12979  1110531.35272   44.7296  17.79693   58752.1638    50.56204       44.02105   17.01902  25.96938   31.0    0.54724  -20.73891  0.96498 
   -5.50528  0.01495  8.48799     14.63299  1.97585  0.85973    6.5721   0.0621     0.07467   8718.00206   6371.68057  4.89643         3719.00138     18.44908  0.00156    58724.901  2.97965  0.09825   716472.21257  44.85179  17.76303  58751.31682    50.50339       43.91748   17.66769  27.79429   30.5    0.47658  -20.71029  0.97002 
   -5.74773  0.01899  4.45805      14.8989   2.0038  0.45465   2.96565   0.1474     0.13649  10849.38908   6584.90639   0.1724         4133.74799     20.02473  0.05881  58724.65855  2.08237  0.05632    58904.91029  46.50226  17.77705   58752.1638    50.56484       44.03881   18.25113  24.27352   26.0    0.56469    -20.809  0.99532 
   -4.50344  0.08856  5.62684     14.51302  1.72218  1.31123   3.70456  0.14102     0.11043  11360.86161   6737.57086  1.87537         3365.53546     16.18951    1e-05  58725.90284  2.85224  0.32806   476849.09944  45.32601  17.68638  58753.36601     50.7822       44.35096    12.2417  19.58673   27.0    0.52287  -20.77986  0.94771 
   -5.07955  0.07685  4.16753     14.61998  1.46463  0.61859   4.66702   0.0924     0.06187   9658.35489   5600.08384  0.73037         3775.52601     16.56584    2e-05  58725.32673  2.59701  0.35865   135934.93412  46.06148  17.71432  58753.36601    50.67974       44.19204   12.38212  23.14501   29.0    0.50949  -20.69808  0.95969 
   -5.31679  0.02468  6.17756     14.59973  1.65725  0.58221   3.00227  0.11422     0.09335  13072.15985   7515.23056  2.59302          2150.5737      19.8659   0.0408  58725.08949  3.06035   0.0741   371007.55403  45.33722  17.74071   58752.1638     50.4499       43.84582   22.76963  31.09387   27.0    0.57541  -20.79592   0.9842 
   -3.52052  0.08305  4.73609     14.58046  1.56781  0.81806   6.57299   0.0494     0.06325   8150.38485   3516.42589  1.70612         3379.72104     16.94665    5e-05  58726.88576  2.60463  0.54587   225439.92142  45.76027  17.70428  58753.36601    50.70465       44.23095   14.83046  23.14501   31.5    0.47446  -20.67504  0.93054 
   -4.11999  0.05557  6.36706     14.49205  2.00795  1.46043     5.876  0.06846     0.30864   9892.27242   6490.04956  3.96021         3409.00852     20.88332  0.42467  58726.28629  3.43006  0.32653   784061.40019  45.06937  17.74588  58750.25534    50.57447       44.07472   16.76436  23.46262   30.0    0.48403  -21.09794  0.94684 
    -5.4298  0.01443  6.28037     14.69271  1.74728  0.50976   4.39317  0.07885      0.1124  11417.49344   6730.95639  2.40201         2165.95079     18.63779  0.00241  58724.97648  3.41622  0.06339   263466.77588  45.49451   17.7874  58750.25534    50.51397       43.95182   18.25113  28.26735   30.5    0.51196  -20.69482  0.98707 
   -5.39844  0.18058  6.43822     14.66313  1.87798  0.90251   4.66558  0.08911     0.06245  11125.85796   6621.55654  1.02061          3503.4956     19.17603  0.00833  58725.00784  3.44508  0.84252    341017.0099  45.39223  17.82273  58753.36601    50.64682       44.16248   16.43916  21.57404   30.5    0.54003  -20.72728  0.85975 
   -6.59059  0.11507   7.7791     14.44626  1.78652  0.99869   2.86973  0.13936     0.16305  13164.83068   5069.18243  1.89872         2978.65277     18.36309  0.00128  58723.81569  2.96687  0.33022  1285789.54905  44.62982  17.76875  58751.31682    50.50968       43.93734    19.2127  26.46564   31.0    0.53473  -20.73554  0.90752 
   -4.78082  0.30063  4.71704      14.7367  1.96025  0.94697   2.41927  0.22341     0.16417  12912.30812   6654.23947  0.68744         2323.67295     17.99895  0.00055  58725.62546  2.40613  0.72731   136164.09667  46.07976  17.72237  58753.36601    50.77527       44.32513    13.8764  20.40038   25.5    0.57969  -20.76049  0.93503 
   -6.26087  0.01622   6.8616     14.54345  1.55926  0.60439   3.14337  0.16356     0.23218  14210.52807   7961.12943  2.77051         2922.97977     16.44617    2e-05  58724.14541  3.78655  0.05099   558059.72383  45.04223  17.73776  58751.31682    50.58537       44.08638   14.69004  22.77057   26.5    0.52562  -20.75436  0.98523 
    -6.4262  0.01602  6.76637     14.30066  1.63379  1.12605   1.70458  0.18516     0.11905  13116.62102   6532.17068  1.22451         3104.40851     19.54858  0.01965  58723.98008   1.7494  0.02731  1739446.13358  44.58092  17.84793  58751.31682    50.60225       44.04608   15.80279  23.49583   30.0    0.54794  -20.80169  0.99275 
   -5.75137  0.05348  5.50228     14.51332  1.62417  0.81236   3.77103  0.11985     0.12213  12692.79324   7240.70064  1.49759         2017.31353     16.76239    3e-05  58724.65491  3.62411  0.20169    429437.4797  45.36549  17.72159  58753.36601    50.63548        44.1423   13.99081   22.7343   26.5    0.55121  -20.76721  0.96565 
   -3.57594  0.24056  6.45543     14.72885  2.00308  1.22381   2.78034  0.25815      0.2238  13235.21801   8550.62906  3.07581         3522.35158     16.13035    1e-05  58726.83034  2.90527  0.66885   270183.38963  45.51903  17.74299  58753.36601    50.63059       44.09898   16.76436  24.60857   26.0    0.50331  -20.78227  0.89507 
   -6.10801  0.03043  5.95247     14.51438  1.62243  0.69187   2.12515  0.14189     0.15283  13579.16812   6401.75759  0.04485         2425.43752     18.22799  0.00094  58724.29827  2.33756  0.06467   499584.82489  45.23101  17.81697  58753.36601    50.59672       44.03729   18.46289  26.22404   29.0    0.63508  -20.78667  0.98675 
    -5.0334  0.14381  8.38968     14.50637   1.7716  0.94622    2.5331  0.17427     0.36698  11517.09054   4836.69055  3.99893         3480.81739     16.76477    3e-05  58725.37288  2.00431  0.36429  1124426.04108  44.61879  17.85238  58754.89027    50.54957       43.97663    19.2127  26.55151   30.5     0.5146  -20.71487  0.88317 
   -6.86359  0.22934  7.52273     14.48218  1.88534  0.94692   1.19633  0.29428     0.30818  10574.75271      3733.17  3.35611         2814.17483     19.92238  0.04646  58723.54269  0.79803  0.27437  1075466.51989  44.75989  17.76622  58751.31682    50.50976       43.93041   19.58673  26.46564   34.5    0.46049  -20.71794  0.93201 
   -7.44343  0.03936   7.3518     14.56624  1.71863   0.7028   2.72526  0.22372      0.3417  12109.02117    5538.5847  2.41866         3728.48764     17.70944  0.00028  58722.96285  2.38371  0.10728   635784.50331  44.96793  17.68637  58751.31682    50.60424       44.08271   14.94471  23.20795   30.0    0.45822  -20.72181   0.9697 
    -5.2646  0.04832  6.44794     14.45714   1.8193  1.54767   3.48143   0.1391      0.1756  12659.96342   6320.59784  3.30162          2299.9331      19.0594  0.00637  58725.14168  3.32851  0.16823   855616.15342  44.97763  17.78483  58753.36601    50.63143       44.10637   17.13839  24.48341   28.0    0.52054  -20.74535  0.96674 
   -5.49608  0.04238  4.97298      14.5245  1.65443  0.99256   5.18698  0.09627     0.27643  11144.47118   6531.02425  0.94763         3501.39457     16.99608    6e-05   58724.9102  3.84291  0.21984   339390.20897  45.56356  17.72568   58752.1638    50.61978       44.12008   16.06513   23.4698   27.0     0.5379  -20.77005  0.97027 
   -4.89696  0.10097  6.74746     14.56157  1.63969  0.81764   3.51392  0.13301     0.14638  11855.38634   5983.46452   2.3276         3293.86663     16.41422    1e-05  58725.50932  2.94612   0.3548   522069.17105   45.1076  17.82871  58751.31682     50.5052       43.93856   18.25113  28.80514   28.5    0.52669  -20.72522  0.91496 
