 texplosion  fnickel    Pspin  log(Bfield)      Mns  thetaPB   mejecta    kappa  kappagamma     vejecta  temperature    alpha  cutoff_wavelength  log(nhhost)      A_V         MJD0  kenergy  mnickel             TSD   log(L0)  Peak_mag     Peak_MJD  log(E_rad)  log(Peak_lum)  Rise_Time    E_fold  tau_1  delta_m15     r_peak     frac 
  -39.87392  0.00131  2.10618     13.46126  1.49697  0.86993   5.34984  0.28839     0.01379  4662.64356   8380.26181  1.47106         3451.99885     17.41313  0.00014  57002.15608   0.6938    0.007   7370606.97032  44.92956  16.65297     57097.21    51.39228       44.39427   68.92897  73.09626   78.0    0.06762  -21.67774  0.99978 
  -41.18515  0.15813  2.28284     13.88593  1.60966  0.36995  10.46133  0.17866     0.01005  5164.45328   8046.37644  2.01318         2768.87292     18.80089  0.00351  57000.84485  1.66442  1.65428   1317159.65554  45.63899  16.63707     57097.21    51.40374       44.41336    68.1989  71.94055   78.0    0.06151  -21.67846   0.9482 
  -39.64593  0.00188  2.13738      13.9839  1.61604  0.23535   8.26871  0.22736     0.01035  5518.53927   8154.88802  1.82185         2724.68194     18.83519   0.0038  57002.38407  1.50215  0.01558    738288.94789  45.94931  16.64038     57097.21    51.41286       44.40575   71.00569  74.88326   75.0    0.07049    -21.707  0.99954 
  -40.00965  0.00205  2.35117     13.44217  1.82257  1.52025   8.89074  0.21431     0.01002  5438.43547   8406.85678  2.08345         2717.32122     18.81887  0.00366  57002.02035   1.5686  0.01822  12210281.55787  44.70023  16.64159     57098.61    51.38414       44.40471   66.51101  70.10596   75.0     0.0675  -21.71479  0.99946 
  -37.47546   0.0022  2.17379     13.36754  1.61087  1.43857   7.81055  0.24467     0.01188  5618.15431   8451.73758  2.03345         2755.05394     16.61569    2e-05  57004.55454  1.47061  0.01716  13008351.27287  44.68725  16.64141     57094.87    51.45503       44.47427   66.80074   71.6954   73.5     0.0702   -21.7179  0.99947 
   -40.2727  0.02049  2.06619     13.62371  1.48496  0.52136   8.85819  0.19437     0.01067   5360.2043    8077.6004  2.21898         2628.67011     18.00204  0.00056   57001.7573  1.51822  0.18154   3329983.49232  45.28778  16.61585    57098.987    51.43949       44.46092   65.88242  69.87249   77.5    0.06816  -21.69168  0.99438 
  -37.76851   0.0436  2.18553     13.55713  1.53129  0.75023  10.18141  0.16382     0.01068  5354.12458   8174.05726  2.21245         2690.08485     17.83384  0.00038  57004.26149  1.74105  0.44396   5220678.38585  45.05706  16.64796     57098.61    51.39915       44.39848   69.54695  73.41067   76.0    0.06506  -21.69349  0.98564 
  -43.08698  0.00131  2.02961     13.90223  1.44107  0.30278  10.58425  0.18634     0.01005  5084.23013   8017.52559  2.09429         2731.42319     18.40281   0.0014  56998.94302  1.63207  0.01387    864692.02504  45.87584  16.62973     57098.61     51.4024       44.40839   69.54695  72.47829   77.0     0.0606  -21.67435  0.99958 
  -38.02613  0.00114  2.73852     13.72214  2.14554  0.79738   8.71818  0.20194     0.01081  5409.69394   8273.01681  1.92269         2851.89496     17.61934  0.00023  57004.00387  1.52194  0.00995   5371632.22588  44.99524     16.65     57097.21    51.43944       44.44419    68.1989   72.9014   74.5    0.06996  -21.71146  0.99969 
   -40.6739  0.06713  2.37028     13.52543  1.83578  1.19191   9.94224  0.18982     0.01012  5376.29211   8252.04503  2.53196         2513.30642     19.84289  0.03869   57001.3561  1.71426  0.66745   8518688.49264   44.8527  16.63835     57097.21    51.40966       44.40285   71.00569  74.88326   75.0    0.06515  -21.73605   0.9808 
  -33.93709  0.01349   2.4165     13.72021  1.83908   0.5756   8.03163  0.22293     0.01149   5705.6332   8255.03629  2.54371         2651.47552     19.23572  0.00956  57008.09291  1.55969  0.10834   3617232.21197  45.20869   16.6247     57099.25    51.40154       44.40434   69.74614  72.43175   72.5     0.0724  -21.73256  0.99666 
  -39.66295   0.0072  2.11426     13.50144  1.53325  0.88129   9.70643  0.19903     0.01004  5295.19436    8197.4259  1.54774         2967.36552     18.39461  0.00138  57002.36705  1.62349  0.06989   6322239.18089  45.00327  16.66571     57099.25    51.40838       44.39409   72.06262  74.75871   74.0    0.06753  -21.70567  0.99787 
  -42.02376  0.00962  2.23205     13.46052  1.68344  1.12609   8.92404  0.23163     0.01121  5434.69537   8237.15325  2.85088         2438.97325      17.6841  0.00027  57000.00624  1.57231  0.08581   9340733.12438  44.82725  16.66221     57097.21    51.40806        44.3961   70.66445  75.37716   76.0    0.06292  -21.69757  0.99744 
  -41.28084  0.07276  2.38541     13.78186  1.77972  0.57183   8.72409  0.24665     0.01302  5415.45213   7988.95335  1.80466         2710.02631     17.75341  0.00031  57000.74916  1.52622  0.63473   2567873.35735   45.3545  16.64814     57099.25    51.41768       44.42175   70.37473  72.58288   75.0    0.06305  -21.69747  0.98081 
  -39.52976  0.00349  2.10428     13.47221  1.61395  0.90255   9.33456  0.22342      0.0104  5526.64927   8311.31207  1.47344         2949.66987     19.81091  0.03594  57002.50024  1.70077  0.03256   7542234.99259  44.95303  16.63856     57095.93    51.40959       44.40476    71.6702  74.21875   74.0    0.06687  -21.75993  0.99908 
  -42.30186  0.05833  2.28354     13.45636  1.74431  1.55994   9.89539  0.21461     0.01039  5482.24428   8177.58722  1.63322         2870.05532     19.21359  0.00908  56999.72814   1.7741  0.57722  10325948.10518  44.77932  16.65854     57099.25    51.38088       44.38566    67.6784   71.4155   75.0    0.06423  -21.74456   0.9833 
  -37.87822  0.00481  2.41374     13.57438  1.79035  0.92244   8.32678  0.21408     0.01327  5614.14182    8149.8028  1.87249         2749.29552     17.86726  0.00041  57004.15178  1.56556  0.04009   6876643.39047  44.91903  16.66256     57098.21    51.40341       44.40656    68.1989   72.9014   74.0    0.06729  -21.72243  0.99873 
   -31.4961  0.00246  2.11212     13.56612  1.64625  0.76865   9.77341  0.14957     0.01132  5629.97446   8748.09003  2.64567         2621.94664     20.48221  0.16863   57010.5339  1.84793  0.02405   5029301.25475   45.1344  16.64984    57098.987    51.40267       44.40231   69.08163  73.09626   73.5    0.07062  -21.87151  0.99934 
  -35.43868  0.01125  2.37729     13.61184  1.71555  0.73199   9.13179  0.17112     0.01128  5561.39907   8323.52191  2.07774         2767.98744     17.60539  0.00022  57006.59132  1.68481  0.10272   5379127.85724  45.02037  16.64909     57098.61     51.4004       44.40104   69.54695  73.41067   74.5    0.06969  -21.70825  0.99661 
  -35.19788  0.00114  2.29924     13.44769  1.69864   1.2761   8.55455  0.21086     0.01013  5398.07019   8097.89654  1.60147         3046.31557      16.6732    3e-05  57006.83212  1.48697  0.00975  10609956.45556  44.75006   16.6414    57100.984     51.4142       44.41742   69.74614  73.21147   74.5    0.06946  -21.70521  0.99969 
  -35.94822   0.0061  1.96376     13.26913  1.40427  1.56799   8.97993   0.1984     0.01004  5600.40438   8213.47195  2.01009         2744.33604     19.03606  0.00604  57006.08178  1.68012  0.05475  14560664.10372  44.66694  16.64624    57100.984    51.39338       44.39476   71.54211   71.4155   73.0    0.07143  -21.71528  0.99832 
  -37.95819  0.02704  2.00681     13.55819  1.50419  0.57899   8.76378  0.22949     0.01024   5735.3135   7981.51396  2.50118         2468.43862      19.2007  0.00882  57004.07181  1.71962    0.237   4302755.86717  45.20739  16.64076     57097.21    51.42428       44.42458   67.80648  73.29382   75.0    0.06784  -21.72274  0.99317 
  -38.59973  0.01452  2.36594     14.07668  1.74299  0.27837  12.22976  0.16679     0.01026    5580.121    8149.8718  2.47089          2515.1685      19.1999   0.0088  57003.43027   2.2716  0.17763    636455.08799  45.95836  16.65363     57099.25    51.38413       44.39462   66.51101  71.80316   73.0    0.06265  -21.70942  0.99449 
  -38.71678  0.09449  2.28694     13.97348  1.65246  0.29088   8.74029  0.20341     0.01066  5217.22617   8294.62785  2.03517         2772.02591     16.59293    2e-05  57003.31322  1.41916  0.82584     906758.8955  45.81098   16.6362    57100.984    51.39056       44.39844   67.76999   71.3239   76.0    0.06785  -21.68178  0.97417 
  -39.44626  0.02173  2.16489     13.40496  1.56027  1.28703   9.00388   0.2052     0.01092  5286.35884   8324.36769  1.19566         3274.71146     17.71463  0.00029  57002.58374  1.50096  0.19563   10519023.7034   44.7692  16.65576     57098.21    51.41197       44.40872   67.14197  73.95833   75.5    0.06717  -21.70946   0.9939 
   -38.9385  0.00344  2.23451     13.75212  1.64064  0.49813   9.38747  0.19656      0.0104  5245.20716   8197.03442  2.00426         2816.71962     17.20155    9e-05   57003.0915  1.54064  0.03233    2382027.5569  45.40855   16.6314     57098.21    51.39605        44.3973    68.1989  73.82633   76.0    0.06795  -21.70429    0.999 
  -42.74416  0.00612  2.12226     13.49845  1.54593  1.01035  10.57404  0.19568     0.01061  5207.91755   8069.70413  2.87728         2506.18755     18.43269   0.0015  56999.28584  1.71079  0.06473   6511885.86716  44.99073  16.64673     57099.25    51.39364        44.3976   70.37473  72.58288   76.5    0.06228  -21.68781  0.99806 
  -36.11497  0.02474  2.07386     13.32916  1.47825  1.50987   8.78872  0.20129     0.01046   5461.4005   8241.66706  1.98827         2740.26662     17.20548    9e-05  57005.91503  1.56373  0.21743  12965615.19948  44.69224  16.65428     57098.61    51.39892       44.39576   67.14197  75.03592   74.5    0.07137  -21.69517   0.9932 
  -38.33507  0.00998  2.13688     13.44169  1.49906  1.06542   9.43155  0.17078     0.01003  5062.20438   8268.13342   2.0555         2779.72608     16.71612    3e-05  57003.69493  1.44175  0.09411   8314105.72711  44.86529   16.6377     57098.61     51.4147       44.41202   72.06262  73.82633   77.0    0.06586  -21.66313  0.99697 
  -37.67088  0.00202  2.60851     13.61917  2.01896  0.95198   8.79844  0.21271     0.01065  5388.58261   8196.29623  1.74865         2840.23962       18.488  0.00171  57004.35912  1.52399   0.0178   7368561.14241   44.8738  16.64208     57097.21    51.41008       44.40878    71.6702  73.29382   76.0    0.06578   -21.6888  0.99945 
  -39.43974  0.00522  2.51684     13.58128  1.89868  1.23955   8.81124  0.22866     0.01285  5380.30411   8151.28924  2.37478         2658.80369     17.31636  0.00012  57002.59026  1.52152  0.04599   7680982.80605  44.86017  16.65636     57098.61    51.40354       44.40179   68.92897  74.02864   75.5    0.06509  -21.70112  0.99857 
  -43.02183  0.00137  2.09997     13.74469  1.50689  0.48862  11.80334  0.16503     0.01022  5148.76425   8390.16484  1.91895         2732.50874     19.48401  0.01693  56999.00817  1.86654  0.01617   1999578.52034  45.50156   16.6304     57099.25    51.39606       44.41135    67.6784  70.63578   76.5    0.06118  -21.68633  0.99951 
   -45.4677  0.00198  2.03677     13.38302  1.51723  1.26705   9.88316   0.2265      0.0102  5282.68066   8184.16369  2.27078         2599.41254     18.13477  0.00076   56996.5623  1.64525  0.01953  10016208.84266  44.83131  16.63684     57098.61    51.41333       44.40228   72.06262  74.75871   77.0    0.06128  -21.69977  0.99944 
  -40.21948  0.01486  2.29808     13.44446  1.75887  1.54386   8.95623  0.22634     0.01089  5498.85472   8190.31731  2.31668         2562.26711     19.33973  0.01215  57001.81052  1.61546  0.13308  11139468.74111  44.74449  16.64681    57098.987    51.40496       44.40258   69.74614  73.21147   73.5    0.06432  -21.71536  0.99607 
  -43.99831  0.03823   2.0079     13.52225  1.48188   0.7308   9.63083  0.23462     0.01029  5411.84427   8121.89842  1.71425         2727.73395      16.6744    3e-05  56998.03169   1.6826  0.36821   5007464.16576  45.13456  16.63874     57099.25    51.39493       44.39713   69.54695  72.63094   74.5     0.0617  -21.70753  0.98941 
  -41.71441  0.00118    2.131     13.45965  1.57722  1.04039   6.94964  0.29585     0.01142  4847.51037   8440.42877  1.20722         3574.79764     17.98051  0.00053  57000.31559  0.97415  0.00817   8009009.27496  44.90599  16.65225     57097.21    51.42808        44.4086   73.17221  76.73312   75.5    0.06197  -21.69121  0.99976 
  -40.52619  0.03675   2.2963       13.607  1.72282  0.76876   9.48774  0.19577      0.0104  5300.26002   8305.74331  1.69882         2867.45257     19.46747   0.0163  57001.50381  1.58995  0.34868   5153558.94677  45.07092  16.67296    57098.987    51.40484        44.3998   69.08163  73.87599   74.5    0.06486  -21.71874  0.98952 
   -37.5072  0.00245  2.05612     13.46283  1.53371  0.76379   8.47947  0.20816     0.01013  5535.78026   8257.45799  1.81957         2718.26286     18.80069  0.00351   57004.5228  1.55008  0.02077   7144938.35421   44.9745  16.64073    57098.987    51.38667       44.39485   66.51101  72.58288   75.5    0.06972   -21.7081  0.99938 
  -37.18584  0.00524  2.33894     13.64296  1.65237  0.77013  10.55373  0.15294     0.01037  4970.14814   8525.87178   1.6314         3182.11377     19.07921  0.00667  57004.84416  1.55515  0.05533   4345539.56573  45.11087  16.64342    57100.984    51.39087       44.38978   71.54211  73.73653   75.5     0.0637  -21.68569  0.99817 
   -39.6924  0.00183  2.31882     13.55558  1.69447  0.92036  10.06161  0.17846     0.01043   5227.0292    8316.0133  1.24313         3292.11052     17.27938  0.00011   57002.3376  1.63985   0.0184   6549605.47093  44.95113  16.64948    57100.984    51.38403       44.38126   71.63371  74.15409   75.5    0.06557  -21.71233  0.99942 
  -34.48189  0.30503  2.62917     14.22995  1.84363  0.18229   9.17796  0.15506     0.01042  5328.52496   8297.89119  1.78384         2979.50055      18.1903  0.00086  57007.54811  1.55449  2.79952    410409.06287  46.08167  16.65105     57099.25    51.39629       44.39327   70.37473  74.90392   77.5    0.06734  -21.69446  0.90711 
  -40.83827  0.01459  2.26457     13.45739  1.63122  1.26364   9.86264  0.17389     0.01023  5098.78571   8231.22494   1.2775         3318.79432     19.04129  0.00611  57001.19173  1.52952  0.14388   9451733.14997  44.79588  16.65133     57098.21    51.42503       44.39627   73.41067  79.59542   77.5    0.06574  -21.70355  0.99542 
  -37.36685  0.03053  2.07162     13.42731  1.57938  0.92594    8.5092  0.22622     0.01021  5575.66272   8162.38591  2.47799         2521.25673      19.6904  0.02724  57004.66315  1.57801  0.25981   8796319.71312  44.89041  16.66627    57098.987    51.39282       44.39528   70.37473  72.58288   74.5    0.06708  -21.72912   0.9926 
   -43.6704  0.01557  2.22376     13.58773  1.65914  0.83783   9.77412  0.21589     0.01138  5223.43427   8293.23289  2.33633         2626.89851     16.96298    5e-05   56998.3596  1.59081  0.15222   5086419.18667  45.08814  16.65183     57098.21    51.41253       44.41749   68.92897  72.17134   76.5    0.06145  -21.70056  0.99549 
   -38.2633  0.06891  2.33847     13.47048  1.67413  1.55488  10.13402  0.17375     0.01074  5279.71039   8293.76076   1.9202         2803.07931     16.44944    2e-05   57003.7667  1.68511  0.69833   9739006.63121  44.76626  16.68308     57098.21    51.39983       44.39764   68.92897  74.02864   75.5    0.06583  -21.69176  0.97772 
   -43.8486   0.0023  2.03031     13.38803  1.51832  1.55307   9.79778  0.24094     0.01026   5248.7058   8236.80032  1.64772         2925.85851     16.40138    1e-05   56998.1814  1.61012  0.02249   9733087.70021  44.84684  16.65306     57094.29    51.43115       44.41508   69.96639  76.85494   76.0    0.06272  -21.71773  0.99936 
  -38.17442  0.00576  2.26566     13.60094  1.67943  0.72193   9.81688  0.18595     0.01016    5455.532   8108.59125  2.12763         2707.22582     19.33164  0.01192  57003.85558  1.74291  0.05656   5029167.92366  45.08212  16.64651     57097.21    51.39682       44.40038    68.1989   72.9014   75.5     0.0666  -21.71594  0.99826 
   -41.4846   0.0046   2.0018      13.3203  1.48775  1.47336   9.03502  0.21798     0.01003  5414.92437   8116.10192  2.01398         2684.69378     17.60999  0.00023   57000.5454   1.5803  0.04159  12664332.30539  44.73595  16.63677     57099.25    51.39486       44.40428   66.51101  71.80316   75.5    0.06747  -21.72001  0.99879 
  -38.43886   0.0647  2.38561     13.50645  1.73445  1.44022   9.86175   0.1931     0.01123  5371.11143    8129.1231  2.26442         2653.57703     17.46299  0.00016  57003.59114  1.69711  0.63801   8897581.95562  44.80354  16.63169     57098.61    51.39573       44.39537   69.08163  73.09626   75.5     0.0648   -21.6924  0.97994 
  -44.18833  0.01054  2.26864     13.48258  1.69648  1.24174  10.86229  0.17735     0.01017  5250.69711   8307.45453  2.21748         2620.83725     18.87232  0.00414  56997.84167  1.78642  0.11448   8784944.25484  44.84312  16.62731    57098.987    51.40798       44.41288   69.08163  72.94361   76.0    0.06281  -21.70438  0.99656 
  -37.14605  0.00233  2.34405     13.43539  1.78466  1.52364   8.68765  0.21013     0.01086  5550.03228   8291.86252  2.34843         2629.46024      19.4089  0.01424  57004.88395  1.59632   0.0202  12260984.28301  44.69194  16.65459     57099.25    51.39942       44.39293   69.74614  75.53251   75.0    0.06774  -21.71926  0.99938 
  -42.35512  0.00309  2.31075     13.51874  1.75482  1.19312   9.96425  0.21086     0.01074  5299.81944    8270.0447  1.74181         2809.23458     18.60483  0.00224  56999.67488  1.66953  0.03083   7981256.91618   44.8835  16.66368     57098.61    51.41088       44.40504    68.1989  74.75871   74.0    0.06144  -21.71124  0.99909 
  -36.69257  0.30135  2.12691     13.34701  1.43856  1.35653    8.4188   0.1976     0.01247  5511.56721   8175.62467  2.06283         2736.09168     19.44942  0.01564  57005.33743  1.52555  2.53699   12224378.1418  44.68405  16.63482     57099.25    51.39158        44.4039    67.6784  70.63578   75.5    0.06931  -21.71839  0.91968 
   -37.3674  0.00332  2.31433     13.67562    1.736  0.59882   8.52333  0.22501     0.01039  5430.59388   8235.70245  2.13481         2722.98746     17.53899  0.00019   57004.6626  1.49945  0.02828   3845724.52609  45.19457  16.62432     57098.61    51.40989       44.42135   65.68323  71.55336   74.5    0.06722  -21.68821  0.99913 
  -47.37704  0.01835  2.09109      13.7022  1.57943  0.60313  11.44196  0.20828     0.01055  5170.41886    8308.7246  1.92696         2687.31537     19.17478  0.00831  56994.65296  1.82465  0.20992   2527326.03861  45.42394  16.63597     57098.21    51.40965       44.40325   72.79269  74.02864   75.0     0.0571  -21.70013  0.99415 
  -38.29355  0.09646  2.39694     13.45729  1.80869  1.16708   8.65759  0.20814     0.01101  5714.01969   8159.64595  3.03484         2413.74306     16.95268    5e-05  57003.73645  1.68619  0.83507  11746749.03613  44.69698  16.61596     57098.21    51.40552       44.41362   69.54695  71.55336   74.0    0.07005  -21.70124   0.9743 
  -38.28368  0.00603  2.06817     13.54399   1.5105  0.63183   8.84471  0.19629     0.01041  5465.34647   8178.41398  2.52261         2584.45754     18.54769  0.00196  57003.74632  1.57596  0.05334   4899328.52501  45.12666  16.63657     57098.61    51.42232       44.41704   72.06262  74.75871   76.5    0.06816  -21.70863  0.99837 
  -38.09023  0.01806   2.1471      13.9605  1.58459  0.26168   9.18475  0.20824     0.01059  5532.84729    8184.6538  2.37772         2609.50974     19.36284  0.01281  57003.93977  1.67723   0.1659    813653.54654  45.89462  16.64648    57098.987    51.40648       44.39283   72.06262  74.75871   75.5    0.06856  -21.72053  0.99499 
