 texplosion  fnickel    Pspin  log(Bfield)      Mns  thetaPB  mejecta    kappa  kappagamma     vejecta  temperature    alpha  cutoff_wavelength  log(nhhost)      A_V         MJD0  kenergy  mnickel            TSD   log(L0)  Peak_mag     Peak_MJD  log(E_rad)  log(Peak_lum)  Rise_Time    E_fold  tau_1  delta_m15     r_peak     frac 
   -7.00039  0.00176  5.76957     14.31125  1.76463  0.97843  1.86734  0.15354     0.01652  7782.25801   4270.13411  0.05167         4527.08032     20.11714  0.07276  56261.59961  0.67462  0.00329  1300946.25942  44.87895  20.28478      56300.6    50.64428       44.14747   21.13636  23.32853   29.5    0.46518  -20.48121  0.99943 
   -7.35128  0.00511  5.11531      14.1449  1.62758   0.7755  1.27139  0.19496      0.0108  7502.69745    6186.5436  0.04204         5531.87553     19.04768   0.0062  56261.24872  0.42691   0.0065  2029125.91817  44.75534  20.22415  56300.49132    50.59574       44.10378   20.62743  22.50266   30.0    0.46485  -20.43574  0.99899 
    -6.6529  0.03183  6.48992     14.51688  1.79996  0.49071  2.12634  0.15091     0.01135  7738.66091   6067.24583  1.68532         2166.21491     16.80864    4e-05   56261.9471  0.75961  0.06768   651314.83898  45.08584  20.25641      56300.6    50.62296       44.13714   17.92634  23.32853   30.0    0.43906  -20.41837   0.9857 
   -6.63747   0.2375  6.99043     14.44029  2.05808  0.89199  1.79127  0.16459     0.01295  7687.46262   3130.44313  0.31247         2245.39255     17.38443  0.00013  56261.96253  0.63147  0.42542  1229444.91537  44.80359  20.29779      56302.4    50.49198       43.96185   20.95664  25.60606   29.5    0.48513  -20.40018  0.92081 
   -6.54569    0.004  5.04665     14.30594  1.71574  1.56956  1.87305  0.22084     0.01317  7507.21751   5454.61207  0.06619         4737.44249     16.76126    3e-05  56262.05431   0.6297   0.0075   991742.01864  45.10089  20.27673      56300.6    50.57166       44.05598   16.87699   26.2531   26.5    0.48334  -20.42919  0.99897 
   -6.63248  0.00348   6.5849     14.39918  2.02577   1.5425  1.37261  0.20162     0.02912  7434.72252   4182.79188  0.10983         5334.34809     16.28542    1e-05  56261.96752  0.45259  0.00478  1297580.16164   44.8252  20.27378      56300.6    50.58638       44.08197   20.62743  24.37788   30.0    0.43213  -20.41033  0.99913 
    -7.5056  0.00718  5.52522     14.24492  1.58712  1.06894  1.08951  0.29849     0.03246  7633.23829   4315.31386  0.21915         2393.62583     19.62355  0.02335   56261.0944  0.37868  0.00782  1456425.56929  44.82147  20.25917      56300.6    50.58377       44.07585   20.62743  24.37788   30.0    0.44126  -20.42113  0.99855 
   -4.67412  0.17315  4.50155     14.43619  1.68706   1.3304  2.63747  0.18241     0.01126  7712.06466   7617.63193  0.33138         3489.76062     19.20335  0.00887  56263.92588  0.93574  0.45667   425875.13911  45.55997  20.24125  56300.49132    50.47484        43.9447   24.34702  24.40874   25.0    0.48859   -20.4377  0.95182 
   -7.01374  0.00577  6.45623     14.26057  1.99997  1.47444  1.45822  0.17392     0.01459  7334.58552   8102.52496  0.03935         3967.41213     18.44587  0.00155  56261.58626  0.46795  0.00842  2331561.50054  44.58226  20.26368  56300.49132     50.6237       44.11069   16.33543  24.91944   27.5    0.45861  -20.39405  0.99848 
    -4.0063  0.00433  4.89624     14.42566   1.6368  1.10052    1.907  0.30325     0.01646  7984.76456   6042.93962   3.5959          2006.9594     16.33898    1e-05   56264.5937  0.72527  0.00825   513114.98315   45.3929   20.2377  56300.49132    50.54682       44.03983   22.50266  23.05648   26.5    0.44241  -20.38826  0.99886 
   -8.26134  0.03605  5.34937     14.01284   1.7789   1.3428   1.0007  0.31655     0.01209  7623.64074   4855.82351  0.54118           2118.974     16.99394    5e-05  56260.33866  0.34694  0.03608  4455526.22236  44.41349  20.26276  56300.49132    50.58933       44.08989   19.80156  23.32853   30.0    0.45501  -20.41061  0.99461 
   -6.95591   0.0053  6.28982     14.18955   1.8491  1.48624  0.96876  0.27019      0.0238  7757.43575   5604.25829   0.2319          2012.7033     16.92192    5e-05  56261.64409  0.34776  0.00513  2837627.14513  44.48557  20.28031      56300.6    50.52388       43.99427   22.50266  24.57163   30.0    0.48026   -20.4127  0.99901 
   -6.38518  0.19635   7.4504     14.35729  2.18495  1.31046  2.07778  0.17976     0.01028  7868.00951   6043.94352  1.51304         2416.39956     18.81651  0.00364  56262.21482  0.76728  0.40796    2172859.548   44.5269  20.24995      56300.6    50.52854       44.02097   22.50266  23.81406   29.0     0.4704   -20.4564  0.92088 
   -6.72595  0.00123  5.50279     14.25213  1.71395  1.46259  1.13687  0.32512     0.01949   7374.0246   7375.99978  0.22464         3156.28578     17.63144  0.00024  56261.87405  0.36876   0.0014  1509127.82936  44.84295  20.26324      56300.6    50.46073       43.92771   24.34702  24.92424   26.5    0.48715   -20.4089  0.99977 
   -5.90013  0.23829  5.62844     14.38653  1.69633  0.88412  1.75068  0.15912     0.01537   7654.5654   3813.30931  0.09474         3941.59911      16.4636    2e-05  56262.69987  0.61189  0.41716   841480.63573  45.07254  20.27066      56300.6    50.58462       44.07506   19.80156  25.20375   28.5    0.50994  -20.44005  0.93235 
   -5.62487  0.00797  5.84903     14.46292  1.62874  0.63928  2.77883  0.09025     0.01528  7930.87152   5529.85913  0.32487         2251.06923     17.06509    6e-05  56262.97513  1.04263  0.02214   613742.53135  45.15854  20.26812  56300.49132    50.53104       44.01663   22.50266  23.05648   30.5    0.44434  -20.40481  0.99559 
   -5.75226  0.01649   5.9431      14.4746  1.86145  0.90571  1.43579  0.19676     0.03027   7981.3692   3510.59021  0.01633         4258.24071     16.47738    2e-05  56262.84774   0.5456  0.02368   686271.84839  45.15417  20.27452  56300.49132    50.59331       44.07965   16.33543  24.91944   28.5    0.47014  -20.42251  0.99603 
   -5.84134  0.00109  5.04184     14.50863  1.64223  0.53516  1.29971  0.33585     0.01106  6947.24001    4233.9383  0.94201         2666.94241     18.05647  0.00063  56262.75866  0.37419  0.00142   372536.04878  45.50793  20.24924  56300.49132    50.60295       44.10873   20.62743  22.50266   28.0    0.46591  -20.39147  0.99979 
   -3.92801  0.24167  5.15152     14.76145  1.82781  0.63716  2.61954  0.13615     0.01836  7139.52171   4987.10315  0.54989         3927.79161     17.61422  0.00023  56264.67199  0.79651  0.63306   135118.11663  45.97619  20.25496      56300.6      50.659       44.17147   15.00177  24.37788   30.0    0.43296   -20.3935  0.92479 
   -6.36338  0.00629  5.40336     14.73218  1.73553  0.44017  3.96326  0.09373      0.0105  7686.60734   5364.93812  0.19315         4119.97921     17.52828  0.00019  56262.23662  1.39685  0.02492   161518.19644  45.83473  20.25468  56300.49132    50.55808       44.04284   18.75221   24.9317   27.5    0.47066  -20.43863  0.99617 
   -5.81056  0.25514  6.64469     14.53117  2.05793  1.09438  2.19004   0.1302     0.01731  7419.44675   4712.51335  0.19168          4436.0899     18.90106  0.00442  56262.78944  0.71915  0.55878   730888.60944  45.07347  20.23563  56300.49132    50.57474       44.07573   21.96224  24.37788   30.5    0.44695  -20.40724  0.90825 
   -4.40854  0.00952  5.33334     14.62164  1.91818  0.75374  3.38369  0.10109     0.01626  7872.13736   5844.76727  0.44804         2420.40516     19.93019  0.04731  56264.19146  1.25084  0.03223     289351.485  45.63631  20.25093      56300.6    50.56291       44.06056   22.50266  23.05648   28.5    0.43817  -20.45448  0.99587 
   -7.25918  0.00649  5.38963     14.13055  1.56114  1.08072  1.06413  0.29144     0.01613  7289.61527   6605.69334  0.47542         2889.04636     17.30524  0.00011  56261.34082  0.33731   0.0069  2308161.76128   44.6359  20.25544  56300.49132    50.56601       44.05708   18.75221   24.9317   29.0    0.47681  -20.40767  0.99874 
   -5.12449  0.01474  5.32361     14.49632  1.92723  1.54356  2.15355  0.20603     0.02185  7807.11008   6975.61539  0.17347         3806.15177     17.52587  0.00019  56263.47551    0.783  0.03175   515839.99609  45.38885  20.25324      56302.4    50.63222       44.14561   19.04399   24.0861   26.0    0.45865  -20.40007  0.99598 
   -5.24415  0.21775  5.88374     14.48903  1.69193  0.65958  1.85517  0.30972     0.01185  8035.60139   4389.27354  4.22937         2152.99378     17.91866  0.00046  56263.35585  0.71457  0.40396     572064.512  45.20048  20.28044      56302.4    50.69915       44.20542   16.87699  24.37788   28.5    0.43344    -20.416  0.92837 
   -6.16268  0.00153  6.10279     14.20445  1.83626  1.48371  1.29211   0.2989     0.01378  7498.20055   3047.66936  2.27491         2068.84163     18.85585  0.00399  56262.43732  0.43335  0.00197  2476936.67218  44.56781  20.29197      56300.6    50.58238       44.07143   19.04399  25.96132   29.5    0.45184  -20.41434  0.99964 
   -5.89764  0.00374  5.41424     14.20613  1.58001  1.38969  0.85982  0.28172     0.03468  7433.65186   4844.67436  0.07625         5463.27479     17.95564   0.0005  56262.70236  0.28343  0.00321  1664516.75358  44.77914  20.26902      56302.4    50.72981        44.2499   18.21065  23.04422   29.5    0.47641  -20.41496  0.99942 
   -6.13898  0.06739  6.35313     14.26013  1.80653  1.37243  2.95247  0.07674     0.01029  7812.83199   6902.72515   0.1003         3153.78274     18.74159  0.00306  56262.46102  1.07505  0.19896  2043481.87265  44.60934  20.27622  56300.49132    50.64658       44.14342   18.21065  24.91944   30.0    0.46604  -20.41651  0.96119 
   -6.06748  0.10086   5.6916     14.31508  1.59462  1.15626  2.32386  0.15554     0.01563  7816.24815   7565.71525  0.43975         2964.37171     18.69138  0.00273  56262.53252   0.8469  0.23439  1124061.63068  44.91024  20.28282  56300.49132    50.62207       44.13643   18.21065  23.04422   27.0    0.45901  -20.41549   0.9563 
   -5.78109   0.0425  5.24294     14.22297  1.46048   1.4889  2.23912  0.16382     0.01792  7940.09887     5380.068  0.82679         2243.43129     16.75232    3e-05  56262.81891  0.84209  0.09517  1335124.75593  44.86867  20.27743      56300.6    50.63067       44.13602   18.75221  24.37788   28.0    0.44569  -20.41077  0.98236 
   -6.25922  0.01468  5.37314     14.26693  1.54569  1.24204  1.97978  0.14673     0.02333  7867.42666   3572.66268  0.09434         3384.12611     17.86192   0.0004  56262.34078  0.73099  0.02907  1212113.53324  44.91397  20.26475  56300.49132    50.61605       44.12947   19.80156  23.32853   29.5    0.45257  -20.40791  0.99474 
   -5.58846  0.02001   6.9005     14.38657  1.91395  1.01242  2.26685  0.13622     0.01382  7515.42618   6259.11079  2.22926         2251.90038     19.47743  0.01668  56263.01154  0.76376  0.04537  1426825.09346  44.71864  20.26308      56300.6    50.50586       43.97983   22.83187  24.92424   30.5    0.41735  -20.41631  0.99015 
   -4.23276  0.01526  4.95888     14.49078  1.70223   1.0279  2.71149  0.21916     0.01364  8279.81977   3348.72022   1.8262         2118.02307     18.80013  0.00351  56264.36724  1.10886  0.04139   405541.04536  45.50106   20.2565      56300.6     50.5959       44.10278   20.62743  24.37788   26.0    0.44766  -20.39165  0.99453 
    -6.0354  0.00759  5.53559     14.32269  1.74462  1.46317  1.97753  0.16057     0.01514  7312.47726    4306.3185  0.19517         4525.55278       19.357  0.01264   56262.5646  0.63078  0.01502  1123208.43982  44.97376  20.27377  56300.49132    50.64347       44.16334   18.21065  23.04422   27.5    0.47337   -20.4356  0.99759 
   -6.44222  0.00621  6.09885      14.2184  1.59577  0.95284  1.14428  0.33105     0.01878   7412.3486   7064.19056  1.50684         2973.05169     17.08768    7e-05  56262.15778  0.37503   0.0071  2015966.05693  44.59684  20.27746      56300.6    50.58493       44.08075   19.80156  25.20375   29.0    0.46804  -20.42659  0.99839 
   -4.95946  0.02472  5.54914     14.77803  1.73901  0.42599  3.13464  0.14075     0.01281  7935.65232   4235.52357  0.85685         2708.90472     16.46433    2e-05  56263.64054  1.17755   0.0775   138201.53272  45.88018  20.23949  56300.49132      50.494       43.97999   22.83187  24.92424   27.0    0.46652   -20.4269  0.98761 
   -6.52768  0.00145  5.54086     14.41814  1.64289   0.7201   1.8452  0.15609     0.01789  7676.10781   4352.68115  0.09767         4193.47379     19.61378  0.02283  56262.07232  0.64856  0.00267   682817.20414    45.163  20.30081  56300.49132     50.5666       44.04824   19.80156  25.20375   29.0    0.48768  -20.43782  0.99953 
   -5.35761  0.05008  6.31432     14.21833  1.76375  1.50865  1.78666  0.11136     0.01485  7564.59604   3056.38403  0.42374         3001.51458     18.08067  0.00067  56263.24239  0.60987  0.08948  2389138.95979  44.53639  20.26889      56300.6    50.62123       44.12775   17.16877   24.0861   31.5    0.46477  -20.42065  0.98171 
   -6.70296  0.00546  6.28397     14.77662    1.944  0.37556   2.6186  0.12096     0.01025  7402.85427   7053.31055  0.17676          4121.1737     16.42951    1e-05  56261.89704  0.85604  0.01429   199402.90481  45.66134  20.26684  56300.49132     50.6059       44.11639   19.80156  23.32853   27.5    0.47635  -20.42445  0.99748 
   -5.91157  0.05652  5.47464     14.22781   1.5459  1.23132  2.34203  0.13504     0.01105  7357.23563   4589.32716  0.40778          3417.7862      16.7749    3e-05  56262.68843  0.75622  0.13237  1506913.97085  44.80323   20.2204  56300.49132    50.61941       44.14667   19.80156  21.45331   28.5    0.46939  -20.42342  0.97553 
   -4.77752  0.00704  5.50637     14.32807  1.43787  0.72659  2.39634  0.16738      0.0116  7877.66201   6890.20574  4.89304         2122.99802     17.16395    8e-05  56263.82248   0.8871  0.01688   893568.77436  44.99371  20.25574      56300.6    50.49034       43.97018    22.4718  24.09091   27.5    0.45325  -20.43477   0.9964 
    -6.0236  0.00374  5.25929      14.2826  1.48367    1.056   2.4472  0.15123     0.01438   7768.6646   7129.35505  0.31511         3361.87834     16.90091    4e-05   56262.5764  0.88103  0.00914  1037067.17069  44.98252   20.2733      56300.6    50.57965       44.07057   20.62743  24.37788   26.5    0.48644  -20.41373  0.99831 
   -5.58087  0.00962   4.7229     14.24565  1.46837  1.42154    3.561  0.08687     0.01123  7654.10042   8063.97673  0.18793         2442.82334     16.18916    1e-05  56263.01913  1.24448  0.03424   981239.24848  45.09549  20.26512      56300.6    50.63033       44.14517   18.21065  23.04422   26.0     0.4698  -20.40455  0.99484 
   -4.32027    0.075  3.50403     14.55566  1.83475  1.42334  1.78907  0.23921     0.05483   7976.5528   6130.64064  0.01952         4089.79135     18.08967  0.00068  56264.27973  0.67902  0.13419   161881.75103  46.23409  20.28366  56300.49132    50.79553       44.33533   15.00177  23.30336   27.5    0.46714  -20.41588  0.99235 
   -5.47908  0.06011  6.66368     14.82882  2.11096  0.45086  2.48883  0.12273     0.01799  8005.96463    3769.3659  0.08747          3567.3362     18.90267  0.00444  56263.12092  0.95159   0.1496   191458.09479  45.66382  20.27913      56300.6     50.4921       43.96192   24.34702  24.09091   29.0    0.47003  -20.42629  0.97446 
   -5.85997  0.00595  5.12404     14.35588  1.67613  1.17845  2.28556  0.16799     0.01091   7007.7183   4827.00735  0.35982         4022.50485      16.2447    1e-05  56262.74003  0.66954  0.01361   793565.35171  45.17435  20.27535      56300.6    50.58247       44.07571   21.96224  24.37788   27.0    0.47126  -20.42018  0.99802 
   -5.85511  0.00239  5.76288     14.53383  1.55816  0.40739  2.33459  0.10584      0.0137  8186.97758   7614.38927  0.54636         2051.17373     16.53926    2e-05  56262.74489  0.93344  0.00557   411185.84334  45.32614  20.26785      56300.6    50.51128        43.9951   22.83187  24.92424   28.0    0.47063  -20.44388  0.99884 
   -5.45442  0.02217  4.93871     14.41506  1.48398  0.78577  1.79403  0.22694      0.0234  7897.71297   6694.88761  0.30167         2964.47557     17.29071  0.00011  56263.14558  0.66751  0.03977   497001.86873  45.35669  20.26751      56300.6    50.56368       44.06745   22.50266  22.50266   27.0    0.46793  -20.41542  0.99356 
   -6.24768  0.05024  7.12931     14.46053  1.88348  1.09266  1.67723  0.19409     0.07811  8462.61438   6847.69732  0.19581         3896.17435     17.19988    9e-05  56262.35232  0.71652  0.08426  1066151.97229  44.80989  20.25267      56300.6    50.73598        44.2679    14.9718  23.33333   33.5    0.42739  -20.37757  0.98029 
   -6.94452  0.00293  4.63956     14.00714  1.48326  1.37112  1.47116  0.16486     0.01034  7233.77058   6815.95635  0.17209         2687.09111      20.0919  0.06865  56261.65548  0.45922  0.00431  2868801.84742  44.64941  20.24507      56300.6    50.57441       44.07431   20.62743  24.37788   30.0    0.47707  -20.46577  0.99937 
   -5.68843  0.00234  5.99492     14.49962  2.05635  1.27702  1.71293  0.19908     0.02856  7753.11624   3625.93951  0.07692         4016.30147     16.75695    3e-05  56262.91157  0.61421    0.004   687437.99387  45.18914  20.24566  56300.49132      50.609       44.11272   19.80156  23.32853   28.5     0.4728   -20.4131  0.99941 
    -4.8827  0.05135  5.11978     14.52079  1.72527  0.87906    2.941  0.10668     0.02337  7867.44984   7604.34292  0.08647         4011.58797     17.76163  0.00032   56263.7173   1.0859  0.15101   381591.75372   45.5056  20.27702  56300.49132    50.55997       44.03745   17.92634  25.75758   28.0    0.44297  -20.40432  0.97941 
   -5.92618  0.09853  5.80513     14.30602  1.82365  1.46059  1.99972  0.22449     0.01028  7597.76251   6669.80366  1.46619         2005.01722     16.02859    1e-05  56262.67382   0.6886  0.19703  1394245.12438  44.85782  20.25893      56300.6    50.59335       44.08936   19.80156  25.20375   27.5    0.46178  -20.40457  0.96831 
   -5.83603  0.00356  7.01046     14.32044  1.95417  1.44265  2.11549  0.13319     0.01265  7364.85178   5469.74241  0.75151         2984.58694     17.02317    6e-05  56262.76397  0.68449  0.00753  2038902.07246  44.55892  20.23573  56300.49132    50.55896       44.06388   22.50266  22.50266   29.5     0.4504  -20.39817  0.99835 
   -5.40007  0.00432  5.37405     14.47151  1.65652   0.8653  4.59609  0.07562     0.01132  7416.46431   6024.82881   0.3037         4387.73266     18.60553  0.00224  56263.19993  1.50803  0.01986   506528.60512  45.32283  20.26136      56302.4    50.53699       44.02482   18.75221  25.61352   29.0    0.42335  -20.41817  0.99676 
   -4.94501   0.0023  6.36282     14.52501  1.99346  1.11505   1.4267  0.28207      0.0223  7038.70013    6270.1181  0.93127         3496.18344     16.66386    3e-05  56263.65499  0.42164  0.00328   667899.02252  45.13644  20.25389  56300.49132    50.69369       44.23321   16.87699  22.54578   27.5    0.43366  -20.40969  0.99943 
    -5.5696  0.00493  5.87395     14.54873  1.66291  0.67098  2.94506  0.12354     0.01386  7264.16977   7295.39725  0.61204          3921.5275     16.14365    1e-05   56263.0304  0.92703  0.01452   425672.09979  45.32278  20.28926      56300.6    50.53282       44.01412   20.62743  25.61352   28.0    0.44204  -20.40848  0.99718 
   -5.54262  0.01863  7.34135     14.42678  2.19505  1.20679  1.23716  0.21488      0.0231  7602.69313   3065.61945  0.75443         2263.63801     16.81114    4e-05  56263.05738  0.42657  0.02305  1539056.38913  44.69148   20.2555      56300.6    50.55263       44.03751   22.50266   23.7383   30.0    0.47222  -20.39914  0.99537 
   -5.51947  0.00328  5.89055     14.30658  1.52337  1.13275   3.0774  0.11483      0.0181  7955.91669    3766.7838   0.7828         3228.73775     16.78642    3e-05  56263.08053  1.16196  0.01011   1196094.4917  44.83357  20.29546      56300.6    50.58103       44.06048   18.75221  24.37788   30.0    0.43678  -20.41672  0.99775 
