 texplosion  fnickel     Pspin  log(Bfield)      Mns  thetaPB  mejecta    kappa  kappagamma      vejecta  temperature    alpha  cutoff_wavelength  log(nhhost)      A_V         MJD0  kenergy  mnickel             TSD   log(L0)  Peak_mag     Peak_MJD  log(E_rad)  log(Peak_lum)  Rise_Time    E_fold  tau_1  delta_m15     r_peak     frac 
   -6.78138  0.00121  15.08476       14.716  1.79875  0.49568  0.95743  0.01073     0.35553   1534.34916   4258.36258  4.34221         5802.22011     17.94953  0.00049  55338.69062  0.01345  0.00116   1405629.70393  44.01887   18.2902  55355.65414    50.13502       43.41837   11.16146  37.94898   38.5    0.50989  -20.24252  0.99862 
     -5.428  0.00108  14.43785     14.62861   1.7953  0.58702  0.35417  0.02344     0.04981   2290.81152   8833.73555   3.2021         5949.29769     16.96591    5e-05    55340.044  0.01109  0.00038    1921976.6206  43.92023    18.287  55355.65414     50.2413       43.70167   11.16146  24.55522   44.5    0.48783  -20.13706  0.99958 
     -9.456  0.00104  12.23686     14.45062  1.86795  1.46038  2.69424  0.01117     0.20514   3706.46257   8004.04885  1.66891         5986.25704      18.4155  0.00145    55336.016  0.22079  0.00279   3260451.18711  43.85159  18.44169  55356.43996    50.19758        43.4184   17.85834  49.11044   45.0    0.46294  -20.03903  0.99798 
  -12.19378  0.00144  11.66544     14.41201  1.82327  1.32887  4.04184  0.02026     0.03351   4982.90424   9474.57222  1.62585         5963.85706     20.21426  0.09099  55333.27822  0.59865   0.0058   3454978.35136  43.85745  18.51051  55355.65414    50.15607       43.34546   17.85834  51.34273   38.5     0.4588  -20.14414  0.99604 
  -15.48042  0.02003   13.3447     14.44781    1.909  1.36584  8.92506  0.01044     0.14742   4173.20884     5370.891  1.70452         5503.88508     17.10531    7e-05  55329.99158  0.92721  0.17881    4014382.8532  43.69541  18.48772  55355.65414    50.25286       43.53638   16.18551  37.38952   49.5    0.38577  -19.84886  0.86958 
  -11.91572  0.00348    9.0642     14.88261  1.38012  0.21073  5.05991  0.01578     0.15847   6373.80087   6373.20264  2.60549         3483.14023     19.63714  0.02409  55333.55628  1.22622  0.01761    180792.12563  45.23692  18.36989  55353.17853    50.19114       43.58314    9.48863  30.69264   46.0    0.48032  -19.96779  0.98909 
   -7.09602  0.00371  14.35186     14.55494  1.74474  0.67038  1.15303  0.01247     0.05571   2431.30987   6522.25241  3.53897         5950.69261     16.68194    3e-05  55338.37598  0.04066  0.00427   2591060.63026  43.78328  18.37156  55353.17853    50.20483       43.55474    9.48863  32.92493   42.0    0.49761  -20.15299  0.99519 
  -10.82801  0.00148  14.19819     14.38321  1.75881  1.15655  2.03442  0.02485     0.06745   3197.77372   9717.16267  4.11236         5858.22196     16.67541    3e-05  55334.64399   0.1241  0.00302   5637326.26782  43.45852  18.49479  55353.17853    50.03986       43.33116    13.4351  51.34273   41.0    0.46622  -20.15073  0.99672 
   -6.62308  0.00287  12.49288     14.34021  1.66243   1.4769  1.23238  0.01213     0.46942   2892.05903   6133.00704  2.57864         5916.76338     20.04191  0.06118  55338.84892  0.06149  0.00354   5028836.93957   43.5948  18.40161  55353.17853    50.18009       43.48018   11.76227  39.62181   43.5    0.49277  -20.17376   0.9968 
   -9.70888  0.00454  10.05647     15.16473  1.49592  0.12598  2.60882  0.01353     0.38081   3681.07518   8424.49927  1.87779         5988.83666     20.42005  0.14614  55335.76312  0.21087  0.01184     65789.00853  45.62071  18.43922  55355.65414    50.20451       43.45045   15.62605  42.41356   44.5    0.45525  -20.18296  0.99196 
   -4.91083  0.00304  13.72365     14.96956   1.6385  0.21267  0.39374  0.01097     0.03838   1469.57752   4314.63636  3.78049          5866.7483     19.10672   0.0071  55340.56117  0.00507   0.0012    329662.66057  44.69028  18.43938  55356.43996    50.20184       43.42491   20.09063  44.64586   44.5     0.4723  -20.17635  0.99864 
   -8.96588  0.00117  10.11866     14.44976  1.47229  0.65474  3.46257  0.01174     0.05176   3824.07938   8532.36916  2.65576         5438.05031     20.68462  0.26875  55336.50612  0.30205  0.00404   1764126.87922  44.18006  18.37309  55356.43996    50.22999       43.54893   15.62605   31.2521   40.0    0.50392  -20.34671  0.99712 
  -10.67564  0.00227   9.85149     14.68884  1.89565  0.62116   0.8252  0.03734     0.19165   2798.26765   8572.17776  1.45869         5625.94294     20.14113  0.07689  55334.79636  0.03854  0.00188    715988.66383  44.70469  18.43337  55355.65414    50.19438       43.54453   15.62605  35.71668   49.0    0.42248  -20.03287  0.99915 
   -6.81846  0.00564   12.3408     14.40493  1.59122  0.98478  1.47258  0.01128     0.08974   2811.71476   7030.20953  2.64006         5984.42053     19.45223  0.01574  55338.65354  0.06945   0.0083   3486403.48372  43.74551   18.3564  55355.65414    50.14696       43.51947    13.4351  33.41369   41.5    0.50095  -20.17527  0.99221 
   -7.01562  0.00292  15.21758     14.70926   2.0987  0.68859  0.73564  0.01833     0.12705   2226.42973   6998.81982  2.69503         5926.32691     16.10545    1e-05  55338.45638  0.02175  0.00215   1721594.74095  43.99017  18.37101  55353.17853    50.23202        43.7063    9.48863  26.22805   42.0    0.48697  -20.12331  0.99797 
    -7.0473  0.00264  14.85801     14.50077  2.09448  1.56886  0.88946  0.01357     0.05939   2324.47219   8614.21408  2.50231         5821.77323     17.00986    6e-05   55338.4247  0.02867  0.00235    4278368.1712  43.61472  18.46662  55356.43996    50.13127       43.42081   17.85834  41.08581   46.0    0.45589  -20.06181  0.99787 
   -6.99726   0.0023  12.80592     14.43467  1.75463  0.97206  1.49035  0.01133     0.04121    3033.8821   8138.61467  2.73413         5900.51579     20.38543  0.13494  55338.47474  0.08183  0.00343   3609706.19637  43.74074  18.44114  55353.17853    50.18429       43.58351    9.48863  35.15722   43.0    0.49877  -20.25035  0.99698 
    -7.5573  0.00174  12.82005     14.59038  1.96002  0.66557  1.36942   0.0192     0.09229   3978.14372   7222.06827  2.74711         5812.62665      20.7676  0.32533   55337.9147  0.12928  0.00238   1972846.61868  44.05023  18.40499  55356.43996     50.2418       43.33501   18.56692  64.02791   42.0    0.49888  -20.43373  0.99821 
   -7.73775  0.00103    9.9487     14.25846  1.57951  1.02559  1.10994   0.0178     0.03691   2884.07138   9042.37586  3.43807          5603.2587     21.06379  0.64346  55337.73425  0.05507  0.00114   4415229.84508  43.82688  18.37416  55355.65414    50.12431       43.47229    13.4351  35.71668   42.0    0.49821  -20.69647  0.99928 
    -8.2271  0.00213   9.95556     14.43497  1.82377  0.85419  1.36271  0.02546     0.20031   4326.95819   8636.08955  2.35239         5456.94414     21.04359  0.61421   55337.2449  0.15219   0.0029   2264511.63938  44.17871   18.4057  55356.43996    50.32511       43.66677   16.18551  30.69264   42.0    0.50266  -20.64777  0.99855 
   -9.45558  0.00195  14.41182     15.03885  1.91158  0.23527  1.80441  0.01644     0.24352   4077.21206   7253.61048  2.44836         5753.94167     16.76952    3e-05  55336.01642  0.17893  0.00353    308276.78411  44.74386  18.38173  55355.65414    50.05389       43.33539   17.85834  46.87815   45.5     0.4614  -20.01242  0.99653 
   -8.59776  0.00179  11.83878     14.30514  1.37388  0.80549  1.45667  0.01792     0.30347   2598.11199   8910.43571  4.83963         5721.43593     20.27262  0.10407  55336.87424  0.05865  0.00261   4386343.69125  43.61808  18.45551  55355.65414    50.25645        43.6269   13.39376   31.2521   40.0    0.47357  -20.25882  0.99712 
   -7.89888  0.00161   15.4075     14.70116  1.89852  0.50736  2.56055   0.0143     0.47411   4730.14993    7333.3074  4.00229           5875.254     16.73528    3e-05  55337.57312  0.34175  0.00412   1657175.27839  43.95243  18.40628  55355.65414    50.15458       43.47525    13.4351  37.94898   36.5    0.57195  -20.22257  0.99527 
   -8.26753  0.03401  15.65873     14.50526  2.02697  1.07098  2.45823  0.02125     0.06998    5367.2114   6322.53991  3.20608         5318.11124     17.07623    7e-05  55337.20447  0.42242  0.08361   4504499.69609  43.53253  18.36093  55355.65414    50.21829       43.58544    13.4351  29.01981   39.5    0.53619  -20.10259  0.91777 
    -9.0653  0.00139  14.68942     14.48257  1.86398  0.88227  2.80746  0.01526     0.20647   4365.27016   7227.27286   3.4506         5622.15627     18.16546  0.00081   55336.4067  0.31913   0.0039   4046975.71284  43.59815   18.3728  55355.65414    50.29013       43.68269    13.4351  26.78751   41.5      0.497  -20.09645  0.99582 
   -5.14639  0.04035  13.70602     14.61924  1.79302   0.6602  0.44772  0.01626     0.21478   2195.15378   4449.46726  2.66392         5937.78795     17.95899  0.00051  55340.32561  0.01287  0.01806   1806094.24277  43.99187  18.40261  55356.43996    50.20337       43.51709   17.85834  37.94898   44.5    0.48824  -20.12415  0.98267 
  -13.20699  0.04007   12.4913     14.51427  1.73318  0.73001  3.27099  0.04048      0.3842   7057.18926   5985.75201  2.13032         4634.76776      18.7675  0.00325  55332.26501  0.97178  0.13107   2351436.20884  43.94314  18.35253  55353.17853    50.14841       43.41031   11.16146  42.41356   44.0    0.45578  -19.94686  0.89916 
  -11.32914  0.00104   9.91846     14.13242  1.19394  0.92555  3.32384   0.0229     0.14666   5918.66157     6385.666   3.0978         5616.14514     18.07362  0.00066  55334.14286  0.69457  0.00347   5927222.09513  43.58009  18.47208  55355.65414    50.17403       43.33436    13.4351  53.33469   42.0    0.49105  -20.09644  0.99669 
   -8.65744  0.00267  12.61359     14.27302  1.58429   1.2985  3.97196  0.01182     0.15115   5289.07599   6410.60821  3.16578         5286.46782      18.3955  0.00138  55336.81456  0.66281   0.0106   6657022.04007  43.44372  18.43649  55358.12976    50.20399        43.4725   20.79922   37.2404   42.0    0.50682  -20.05073   0.9894 
   -9.47439  0.00151  12.73407     14.24966  1.56578  1.29461  0.82009  0.06333     0.16921   4696.71034   6491.34125  4.28399         5445.70893     19.47792   0.0167  55335.99761  0.10791  0.00124   7467352.16086  43.38048  18.39287  55356.43996    50.19851       43.51506   17.85834  33.48439   40.0    0.51497  -20.14361   0.9987 
   -8.36484   0.0011  13.18242     14.48057  1.69842  0.77214  0.83001  0.03142     0.21633   3523.02382   5507.79863   3.5061         4986.80356     16.69683    3e-05  55337.10716  0.06145  0.00092   2997224.52205  43.78218  18.51536  55358.12976    50.28021       43.54972   20.45765  38.80768   44.5    0.49539  -20.01228   0.9991 
  -13.47745  0.00101  14.19961     14.39563  2.00733  1.26119  2.00967  0.06809     0.10451   7289.46656   5959.87032   2.8471         5761.07241     16.76111    3e-05  55331.99455  0.63701  0.00203   6077470.81299  43.48319  18.37032  55353.17853    50.17271       43.42226   11.16146  42.41356   38.5    0.50188   -20.1297  0.99818 
  -10.16662   0.0132  12.85854     14.74574  1.69298  0.41993  6.48479  0.01192     0.07426   6064.54158    5961.5034  2.00905         5890.28814     19.22984  0.00943  55335.30538  1.42272  0.08559    838255.37815  44.35574  18.34251  55356.43996    50.25836       43.59154   17.85834   31.2521   38.5    0.51915  -20.11976  0.92575 
   -8.51027  0.00155  12.68582     14.37215   1.6786  0.96271  2.56092  0.01467     0.02376   4751.44463   9694.32626   2.4616         5948.14147      16.3439    1e-05  55336.96173  0.34489  0.00397   4519574.03886  43.63206  18.37703  55356.43996     50.2739       43.53527   17.85834  36.57539   44.0    0.47213  -20.10402   0.9963 
  -11.04663  0.04703  13.82407     14.22412  1.74143  1.45549  3.00022  0.02098     0.33657   5096.84548   3913.08136  4.17863         5789.23667     16.79876    3e-05  55334.42537  0.46493  0.14109  11008974.92483  43.18673  18.39953  55355.65414    50.46791       43.89737   11.76227  26.22805   46.0    0.47643  -20.13585  0.86692 
   -8.26172  0.00261   11.1153     14.39303   1.6871  1.09018  1.12588  0.02198     0.04194   3075.54802   9566.59052  2.18638         5715.90153     20.53145  0.18888  55337.21028  0.06353  0.00294   3167597.83589  43.90341  18.49589  55358.12976    50.15184       43.33856   24.55522  43.50608   43.5    0.46005  -20.21395  0.99795 
    -8.0128  0.00167   14.6084     15.14128  1.96378  0.19129  0.45188  0.05142      0.4708   3508.97793   3652.13383  2.65395         5863.49917     17.80515  0.00035   55337.4592  0.03319  0.00075    203026.24117  44.92518  18.43766  55356.43996    50.10344        43.3855   17.85834  49.11044   45.5    0.47257  -20.08834  0.99926 
   -7.11158  0.00121  12.35909      14.9889  1.71382   0.2425  0.68509  0.02375      0.1125   3139.83565   3884.73216  2.18299         5990.43909     17.05319    6e-05  55338.36042  0.04029  0.00083    255828.27518  44.91089   18.3737  55353.17853    50.16911        43.6036    9.48863  30.69264   45.0    0.45945  -20.10512   0.9993 
  -11.76673  0.00431  13.07968     14.64352  1.65466   0.4262  1.70847  0.03392      0.2517   3441.62955   4522.80058  4.12625         5793.80366     17.60289  0.00022  55333.70527  0.12072  0.00736    1357316.5296  44.12168  18.42163  55355.65414    50.24283       43.56377    13.4351  33.48439   43.0    0.42883  -20.13848  0.99251 
   -7.20158  0.00156    8.5203     14.51179  1.24921  0.38446  1.79371  0.01088      0.0962   3298.31836   6037.11223   2.7164         5505.16611     20.90951  0.45106  55338.27042   0.1164  0.00279    797591.52921  44.60279  18.39886  55356.43996    50.14345       43.36275   17.85834  44.64586   43.5     0.4962  -20.47409  0.99819 
   -7.11403  0.00104   9.64453     14.39566  1.64214  0.65961  1.57696  0.01621       0.343   4213.31896   6415.96658  2.97596         5604.29586     21.11154  0.71824  55338.35797  0.16699  0.00165   2293291.64438  44.15523  18.39572  55356.43996    50.17549       43.41355   17.85834  41.08581   44.0    0.47583  -20.73508  0.99909 
   -7.33729  0.00187  12.42121      14.5267  1.65304  0.68344  0.94617  0.02334     0.43763   3673.97387   7986.23527  2.33213         5980.05331     17.34134  0.00012  55338.13471  0.07618  0.00177    2094271.1094  43.97777  18.45769  55355.65414    50.45327       43.82497   13.95322  29.67608   44.0    0.47436  -20.11991   0.9984 
  -11.72758  0.00194   12.1338      14.4557  1.58952  0.63151  5.98875  0.01345     0.05478   5870.65596   5395.61411   2.7064         5387.37561     17.39895  0.00014  55333.74442  1.23122  0.01164   2664900.67486  43.87644  18.42703  55355.65414    50.44122       43.78856   15.62605   31.2521   43.0    0.46471  -19.99633  0.98927 
   -7.68886  0.00259  16.20334     14.56459  2.11099   0.7877  2.02528   0.0119     0.25492   3876.97921   6589.15325  3.71372         5692.11035     16.03998    1e-05  55337.78314  0.18159  0.00525    3822293.2738   43.5918  18.45303  55358.12976    50.18275       43.44472   22.68994  37.94898   45.0    0.49718  -20.10852  0.99428 
   -8.91695  0.00109  11.27303     14.23576  1.40013  0.88025   2.4915  0.01918     0.04624   5720.05828   6343.63079  3.12321         5710.62067     19.56237  0.02028  55336.55505  0.48628  0.00272   5578932.84116  43.56438  18.38116  55355.65414    50.18872       43.58872   11.76227  30.69264   43.0    0.51058  -20.11572  0.99734 
  -10.96353  0.11842  15.70141     14.63417  2.05199   0.6818  2.74832  0.03819     0.29709   7901.26828   4944.57263  2.87051         4524.75845     18.65832  0.00253  55334.50847   1.0235  0.32547   2532406.34756  43.78561   18.3824  55353.17853    50.06096       43.42228   11.16146  38.80768   44.0    0.51014  -19.99524  0.74299 
   -6.56773  0.00141  11.10048      14.3003  1.93705  1.44926  0.63017  0.02278     0.40125   2857.90437   9911.09849  3.50677         5439.52028     21.13682  0.76128  55338.90427   0.0307  0.00089   5559645.98281  43.72026  18.37735  55355.65414    50.24201       43.62284    13.4351  28.00325   43.0    0.48978  -20.75892  0.99949 
   -7.66845  0.00301  12.45202     14.45791  1.59588  0.66228  0.74015  0.03341     0.03486   3930.64844   7706.95011  2.79448         5965.01777     16.78724    3e-05  55337.80355  0.06821  0.00223   2789189.84952  43.83589  18.42678  55356.43996    50.13359       43.35851   18.56692  46.16957   44.0    0.46021  -20.11732  0.99783 
  -14.52759  0.00949  10.40728     14.36354  1.47651  0.62567   3.5791  0.05015     0.03718   8618.69697    8329.7132  2.34159         5654.67518     20.47513   0.1659  55330.94441  1.58593  0.03397   2783792.90982  43.95877  18.45708  55355.65414    50.31071       43.70471   13.39376  29.01981   41.5      0.442  -20.18762  0.97457 
   -9.70164  0.00159  12.10733     14.71005  1.53299  0.33231  1.50346  0.03359     0.03789   5623.93733   8617.33164  2.74825         5859.71149     16.39995    1e-05  55335.77036  0.28366  0.00239     793159.3124  44.38893  18.43642  55356.43996    50.11916       43.33087   17.85834  45.72936   41.5    0.53017  -20.13781  0.99766 
  -12.94045  0.01838  12.17466     14.32534  1.75213   1.2304  1.62977  0.07411     0.12942   8799.29866   6718.12427  1.57734         4856.75045      16.2623    1e-05  55332.53155  0.75275  0.02996   5390228.71901  43.60989  18.42171  55355.65414     50.3232       43.81092   11.76227  21.76347   44.5    0.50228  -19.97002  0.97646 
   -9.89516  0.00428  12.43784     14.34874  1.62246  1.03618  6.38914  0.01087     0.05705   6792.78905   7502.57106  2.10696         5570.82416     19.31723  0.01153  55335.57684   1.7586  0.02734   4677382.89492  43.61953  18.39379  55353.17853    50.14282       43.49192    13.4351  35.71668   43.0    0.52055   -20.0466  0.97487 
  -12.34887  0.01132  13.55169     14.41973  1.90295  1.36335  8.06192  0.01354     0.03906   5926.79913   8114.21104  2.55532         4984.68864      19.9899  0.05428  55333.12313   1.6893  0.09125   4696476.69246  43.61251  18.40577  55355.65414    50.11744       43.44007    13.4351   43.3181   42.0    0.48432   -20.0326   0.9261 
   -7.50834  0.00236  15.07927     15.14247  1.91955  0.19298  1.04828  0.02991     0.11046   4557.12515    7358.5386   2.9544         5668.37278     17.09961    7e-05  55337.96366  0.12986  0.00248    210294.93653  44.87246  18.32746  55353.17853    50.26578       43.71399    9.48863  26.22805   39.5    0.53741  -20.11366  0.99735 
   -9.33868  0.00181  10.42487     14.33453  1.89173  1.14041  3.55971   0.0126     0.30646   4290.10135   9720.70193  2.60544          5982.8513     21.08894  0.68181  55336.13332  0.39082  0.00644   4090358.97512   43.8978  18.29143  55356.43996    50.19532       43.46966   16.37598  41.70498   41.5    0.47558  -20.74499  0.99665 
    -5.0672  0.00147  14.38248      15.1013  1.84965  0.21174   0.3701  0.02967     0.13846   2801.81744   8806.62724  2.84591         5973.49256     18.05942  0.00064   55340.4048  0.01733  0.00054     222826.7444   44.8723  18.40653  55355.65414    50.23108        43.4334    13.4351  47.97067   41.0    0.52747  -20.18936  0.99944 
    -8.9203  0.00266  13.27645     14.60533  1.68456  0.52163  0.87304  0.04216     0.40235   3327.82958   6408.87365  3.56366          5884.6004      16.8377    4e-05   55336.5517  0.05767  0.00233   1697507.89095  44.01936  18.43511  55355.65414    50.22843       43.53092   15.62605  35.71668   41.0    0.47876  -20.19925  0.99764 
  -10.21082  0.00192  11.51346     15.15529   1.8904  0.20314  2.34058  0.02018     0.09956   3884.75752   8364.39915  1.53605         5683.77776     19.90829  0.04498  55335.26118  0.21071  0.00449    113816.68103  45.36678  18.38841  55355.65414    50.15366       43.42811    13.4351  38.80768   43.0    0.46096  -20.04727  0.99719 
