 log(Bfield)      Mns    Pspin  cutoff_power  cutoff_wavelength  fnickel    kappa  kappagamma  mejecta  log(nhhost)  temperature  texplosion  thetaPB     vejecta      A_V        MJD_0   log(KE)      M_Ni  Peak_mag     Peak_MJD 
    14.37618  1.65877  1.89552        1.7402         2756.41395  0.00868  0.30782     0.01855  4.63564     17.18764   7726.36345     -9.2829  0.50854  6985.10859    9e-05  59280.16402   52.2089   0.48243  18.21733  59330.14844 
    14.04888  1.63861  2.81222       0.65153         3880.15503  0.02608  0.25868     0.01556  3.53949     16.36301   6937.87861   -16.08515  0.65155   6481.5547    1e-05  59273.36177  52.11231   1.34784  18.21857  59330.13672 
    14.35797  1.72579  2.58478        1.9085          2768.0407  0.04824  0.32239     0.01491  4.11931     17.18737   7297.07797   -12.92736  0.42547  6777.50261    9e-05  59276.51957  52.16914   2.59872  18.22891  59330.13672 
    14.39763  1.74538  2.61879       2.83855         3117.83735  0.05278  0.24476     0.01029  5.66143     17.26633   8127.87486    -9.10166  0.44507  6633.55882   0.0001  59280.34526  52.18607   3.08615  18.15474  59330.13672 
    13.85053  1.57121  2.36627        0.1416         5002.89988  0.09045  0.22647     0.01463  4.73381     16.23938   7601.80539   -16.35863  1.54333  6997.77776    1e-05   59273.0883  52.21284   5.05493  18.21482  59331.31114 
     13.9811  1.53094  2.33408        0.6094         3054.19715  0.00106  0.20579     0.02078  4.62877     18.57128   7632.17662     -12.081   0.9838    6884.033  0.00207  59277.36593  52.19608   0.05895  18.21339  59329.17006 
    13.84974   1.4513  2.44487       0.69848         3373.37747  0.00768  0.18638     0.01152  5.50519     16.85943   6894.51605    -13.8143  1.07086  6842.30253    4e-05  59275.63262  52.20997   0.44584  18.20176  59330.14844 
    14.25695  1.87207   2.8349       1.06758         3676.52849   0.0075  0.29733     0.01834  3.62746     19.37005   7494.71444   -11.73663  0.65189  6417.66128  0.01302   59277.7103  52.10667   0.39007  18.19951  59329.17006 
    14.12483  1.56201  2.49248       0.30529         4971.20908  0.00733  0.19634     0.01441  4.20692     16.00388   7113.92263   -14.50925  0.54339  6429.21432    1e-05  59274.93768  52.12577   0.39739  18.19766  59331.31114 
    13.98079  1.63173  2.36506       0.07481         4610.86453  0.00104  0.21755     0.01675  4.41763     18.54251   7278.12746   -15.54355  0.92148  6924.68917  0.00194  59273.90338  52.19588     0.057  18.21081  59331.31114 
    14.03221  1.73433  2.79859       1.13517         2420.94784  0.01847  0.26235     0.01353  3.28521     19.82386   7657.16524   -15.20699  0.55459  7056.08412  0.03703  59274.23993  52.17692   0.93462  18.19019   59329.2105 
    13.92301   1.6802  2.50878       0.15805         2422.68365  0.00281  0.09719     0.01101  7.83943     18.38338   7877.33159   -12.92441  1.24158  7266.63153  0.00134  59276.52251  52.29887   0.17743  18.22161  59330.13672 
    14.16144   1.9959  2.34221       0.40442            4291.15  0.01767  0.16352     0.01046  5.45155     18.21729   7285.44511   -12.30043  1.05953  5794.70938  0.00092  59277.14649  52.06456    1.0233  18.21284  59331.34897 
    14.18802  1.73875  2.03738       0.05384         4901.15826  0.00124  0.19891     0.01236  5.24572     17.33099   7191.16801    -15.7289  0.65021  6355.54535  0.00012  59273.71802  52.14061   0.07092  18.19059  59330.14844 
    13.86769  1.69003  2.62148       0.49541         2821.55141  0.00255    0.241     0.01431  4.45977     18.71373   6999.41737   -14.84228  1.47143  7178.88701  0.00287  59274.60464  52.22828   0.14042  18.22395  59330.14844 
     13.9942  2.00729  3.34098       1.82473         2762.97132  0.00298  0.32463     0.02255  2.84538     16.92336   6861.73904   -12.51557   1.3033  6932.98405    5e-05  59276.93136  52.14341   0.14453  18.21306  59331.31114 
    14.04591  1.80289  2.59025       0.52693         3822.32972  0.00114  0.19481     0.01413  4.89191      19.6408   7832.78608    -12.2003  1.06778  6575.92394   0.0243  59277.24663  52.16251   0.06452  18.18392  59330.14844 
    13.87948  1.36391  1.75861       0.07394         5630.88239  0.00465  0.11739     0.01825  6.10711     16.94007   9249.93982   -10.37357  1.23442  6759.36076    5e-05  59279.07335  52.21045   0.27684  18.23751  59330.14844 
    14.20043  1.85827  1.34566       0.23377         5132.61646  0.00131  0.19709     0.10946   5.3199     16.54071   6454.78182    -9.82508  1.36876  6403.33376    2e-05  59279.62184  52.14866   0.07521  18.21276  59331.31114 
    13.91299  1.36974  1.78413        0.9625         2836.23613  0.01789   0.2798     0.01012  4.45465     16.28147   7962.96443   -11.31869  1.02611  6299.53259    1e-05  59278.12824  52.11465   0.98378  18.22643   59329.2105 
    14.31802  1.78579  2.74175       0.89217         3594.10869  0.01803  0.25815     0.01359  4.15876     17.10399   7469.36673   -12.03126  0.47165  6491.96063    7e-05  59277.41566  52.13287   0.97402  18.21428   59329.2105 
    14.05935  1.90767  2.93964       0.78803         3121.44859  0.01963  0.23143     0.01155  3.83921     20.10664   7210.35398   -17.86208  0.64246  6513.26378  0.07102  59271.58484  52.12631    1.0373  18.19158  59330.13672 
    14.01396  1.84363   2.5606       0.55724         3585.12709  0.00138   0.2336     0.01097  4.78463     18.16488   7585.52174   -12.23189  1.33595  6548.86985  0.00081  59277.21504  52.15645   0.07726  18.19708  59330.14844 
    14.09324  1.62331   2.4789       1.57017         2393.82207  0.06787  0.23883     0.01725  3.92144      17.1155   7136.57504   -12.77419  0.70269  6540.24439    7e-05  59276.67274  52.13241   3.60783  18.21381  59331.31114 
    13.88871  1.67786  2.70872       0.58977         3586.90407  0.00116  0.21214     0.01451    4.335     18.97974   7366.39566   -14.70153  1.52651  6563.82145   0.0053  59274.74539  52.14723   0.06325  18.21461  59330.13672 
    13.96346  1.44454  2.38409       0.10198         2704.53739  0.02983  0.18016     0.01464  4.26698     16.10999   7740.96846   -13.79363  0.61046  7366.53004    1e-05   59275.6533  52.24562   1.62211  18.22033   59329.2105 
    14.32217   1.5152  1.54833       0.11491         5186.68267  0.00235  0.12985     0.02301  7.55417     16.40207   6645.44371    -10.0746  0.49482  6879.85523    1e-05  59279.37233  52.24766   0.14737   18.1883  59330.13672 
      13.848  1.45574  2.24099       0.08512         4427.69968  0.00421  0.15377     0.01134  5.58007     19.41743   7174.28922   -15.91029  0.95627  6823.27211  0.01453  59273.53663  52.20901   0.24543  18.21569  59330.13672 
    13.80585  1.51423  2.40363       0.91018         2496.08875    0.003  0.21741     0.01035  4.54905     17.38755   7505.31112   -13.03339  1.20634  6857.75585  0.00014  59276.41353  52.19079   0.16615   18.2235  59331.31114 
    13.96157  1.61908  2.43956       0.92449         3378.77179  0.00659  0.25499      0.0206   4.3768     16.95334   7541.06206    -12.6682  1.44758  6773.75262    5e-05  59276.77872  52.17567   0.36085  18.19763  59330.13672 
    13.81941  1.62019  2.49797       0.16368         4604.82112  0.00861  0.21591     0.01241  4.21656     18.05055   7606.45907   -17.34721  1.38271  6416.19813  0.00062  59272.09972  52.12427   0.46656  18.22404  59330.14844 
     14.0284  1.93721  2.80662       0.37964          3128.9277  0.03897  0.18118     0.01371  5.29958     17.55705   7909.90443   -13.88347  1.22389  6954.38598   0.0002  59275.56345  52.21994   2.24139  18.20766  59331.34897 
    14.29327  2.04716  1.06558        0.1966         5667.11149   0.0093  0.22957     0.02212   5.1092     17.22199   7246.64018    -9.07767   1.3828  6283.60801    9e-05  59280.36925  52.12783   0.52973  18.18076   59329.2105 
    14.27637  1.92822  1.45509       0.18296         5810.55566  0.00116  0.13766     0.02922  6.20721     17.97429   7403.07698    -8.32258  0.97134  6144.70822  0.00052  59281.12434  52.12936   0.06921  18.19487  59331.31114 
    14.10488  1.24265  1.76488       0.17153         5239.69933  0.00157  0.21097     0.01228  4.69972     16.99826   7353.28103   -15.56605  0.44243  6261.61788    6e-05  59273.88087  52.11548   0.08747  18.19986  59330.14844 
    13.93394   1.5829   2.4259       0.72464         4131.91778  0.00219  0.25855     0.01277  3.98606     16.16768    8029.1003   -13.28524  1.26883  5943.07427    1e-05  59276.16168  52.05118   0.11717  18.22588  59331.31114 
    14.34825  2.08384   1.0942       0.03979         4828.43762  0.32752  0.14724     0.01843  8.71002      16.5331   7418.03596   -10.80262  1.42729  7381.46968    2e-05  59278.64431  52.32283  21.19144  18.21716  59330.14844 
    14.40824  1.97381     2.86       1.90596         3122.14111  0.01735  0.28923     0.01295  4.74928     17.58119   8090.45621   -11.22559  0.48753  6856.59013  0.00021  59278.22133   52.1955   0.97027  18.15245  59327.29468 
    14.12132  1.46693  1.64069       0.15103         5006.17087   0.0026  0.14329     0.01275   6.4259     16.30364   8347.78185   -12.07641  0.69921  6226.57941    1e-05  59277.37052  52.14447   0.15673   18.2271  59330.14844 
    13.96869  1.47596  2.37544       1.57116         2959.41223  0.00552  0.28274      0.0264  3.49548     16.02142   8000.05699   -11.16073  1.02042   6657.6435    1e-05  59278.28619  52.13407   0.28451  18.18486  59330.14844 
    13.83463  1.60532   2.3623        0.2874         3083.44816  0.00878   0.2501     0.01105  4.23744     18.16334   6308.23483   -17.81765  1.28255  6435.23906  0.00081  59271.62927  52.12742   0.47638  18.22164  59330.13672 
    14.31102  1.76361  0.85776       0.01905         5617.27384  0.23261  0.13355     0.01999  7.68155     18.18833   7106.48463    -9.51024  0.90661  6800.87248  0.00086  59279.93668  52.23931  14.62783  18.22213  59331.31114 
    14.02443  1.60945  2.47339       0.57794          3379.0838  0.00183  0.23699     0.02103  3.73079     20.19723   7157.25749   -13.07434  0.77906  6849.38554  0.08749  59276.37259   52.1666   0.09571  18.22139  59330.14844 
    14.02464  1.55653  2.19159       0.39594         2109.71724  0.01105  0.31421     0.04772  3.20598     16.67087   8531.77275   -12.51043  0.95031  7561.95384    3e-05   59276.9365  52.23402   0.55526  18.23555  59331.34897 
    13.99871  2.02411  2.77858       0.14703          5321.5821  0.00138  0.16835      0.0104  5.16282     17.38761   7506.35695   -15.44583   1.5176  6437.55184  0.00014  59274.00109     52.15   0.07905  18.22118   59329.2105 
    13.97511  1.82215  3.22902       1.95633         3050.49784  0.00355   0.2367     0.01879  4.06365     16.61148   6925.12154   -13.62716  1.15847  6745.20649    2e-05  59275.81976  52.16341   0.19056  18.21177  59330.14844 
    14.15854  1.99688  1.96263       0.17565         4343.50132  0.00165  0.18849     0.01463  5.67966     16.35836   8278.43998   -11.19182  1.47898  6560.19272    1e-05   59278.2551  52.17676   0.09629   18.1864  59328.33113 
    14.13982  2.05924  2.60453       0.73042         3260.17652  0.00114   0.2207     0.01348  4.51035     18.15074   7520.62285   -12.10401  1.30896  6148.51271  0.00079  59277.34292  52.09499   0.06279  18.23007  59331.34897 
    14.39236  1.99538  2.44319       1.11555         3572.16235  0.00196   0.3136     0.01431  4.42553     18.29558    7947.0068   -10.94828  0.60802  6449.74881   0.0011  59278.49865  52.13437   0.10748  18.21891  59330.14844 
     13.9491  1.69216   2.3051       0.13531         5521.88203  0.01767  0.18631     0.01038  5.19027     17.18776    7011.9005   -15.60423  1.14876  6279.54922    9e-05   59273.8427    52.129   1.01089  18.20697  59330.14844 
     14.2109    1.776  2.74063       0.88355         2745.80593  0.00298  0.27891     0.01819  3.55886     17.92059   7404.31114   -12.86247  0.55852  6828.92438  0.00046  59276.58445  52.15831   0.15438  18.23137  59331.31114 
    13.94407  1.19484  1.98065       0.36464         3572.86789   0.0013   0.2302     0.01899  3.99337     18.88341   7177.14307   -14.93433   0.5838  6676.74845  0.00425  59274.51259   52.1525   0.06969  18.18967  59330.13672 
    14.15437  1.74144  2.48577       0.56763         3463.89989  0.03465   0.2129     0.01289  4.42114      20.5706   7057.60943   -17.10141  0.43387  7034.39784   0.2067  59272.34551  52.20962    1.9024   18.1989  59330.14844 
     14.2986  1.98631   0.8111       0.18018         4708.49354  0.13149  0.20133     0.01082  7.28341     18.42929   7722.23245   -11.07674  1.47293  6497.57274  0.00149  59278.37019  52.19433    8.1673  18.22446  59331.31114 
    14.07205  1.86005   2.6571       0.11754         5121.12542  0.00143  0.09836     0.01067  6.98455      17.7448   7913.49304    -11.6634  0.93758  6760.33068  0.00031  59277.78353  52.22451   0.08776  18.19716  59330.13672 
     14.0685  1.94947  2.62136        0.5809         3875.78194  0.00182  0.23029     0.01281   4.3132     17.81464    7535.6395   -11.90149  1.44996  6120.14644  0.00036  59277.54543  52.08586     0.099  18.19888  59330.14844 
     14.0263  1.74518  2.29219       0.30564         4245.55285  0.00165  0.20942     0.01421  4.46453     16.56317   7475.48732   -13.69522  1.13451  6204.20642    2e-05   59275.7517  52.10166   0.09093  18.21024  59330.14844 
    14.00609  1.37851  1.67651       0.14817         4935.44447  0.00585  0.15559     0.01391  6.50681     19.81904   7178.20944   -10.90373  0.84503  6976.23742  0.03662   59278.5432  52.24452   0.35362  18.22125  59331.31114 
    14.02199  1.62235  2.24634         1.389          3075.0098  0.10427  0.23133     0.01165  5.43978     17.48698   7400.98847   -11.01982   1.2153  6630.16872  0.00017  59278.42711  52.18132    6.0367  18.15598  59330.13672 
     14.0255  1.73622  2.84709        1.4153         2841.77545  0.01339  0.26422     0.01289  3.73571     18.22112   7538.89998   -15.25858  0.76324   6402.4483  0.00092  59274.18835  52.10815   0.70236  18.19246  59330.14844 
    14.12329  1.88023  2.61954       0.62716         3278.74039  0.01356  0.18126     0.02217   5.3299      19.4372   7522.38735   -10.50596  1.10433  6923.65163   0.0152  59278.94096  52.21672   0.78093  18.22638  59331.31114 
    13.97972  1.78194  2.78022       0.54544         3384.28983  0.06457  0.19102     0.01398  4.70861     17.25212   6831.63743   -14.14971  1.17626  6562.51207   0.0001  59275.29721  52.15646   3.60324  18.19337  59331.34897 
    13.88648  1.41648  1.97188       0.17582         2390.13625   0.0232  0.33632     0.01644  3.47026     16.94194   7728.51417   -13.99886   0.9469  7095.14588    5e-05  59275.44806  52.18846   1.19218  18.24215  59330.13672 
     14.0194  1.48687  2.14956       0.00449          3467.9914  0.01102  0.29374     0.01742  3.85693     18.72496   7252.64682   -14.75938  0.68176  7331.05612  0.00295  59274.68754   52.2296   0.58317  18.19983  59330.13672 
    14.02997  1.42643  1.89387       0.17318         3814.45298  0.03141  0.15315     0.02193  6.58367     19.02292   6050.40206   -10.08896  0.90622  7539.19438  0.00586  59279.35797  52.31314   1.90488  18.20222  59330.14844 
    13.91532  1.69988  2.36523       0.08275         4545.37979  0.03619  0.21829     0.01361  4.39941      19.3534   7185.23855   -14.10125  1.33459  6795.34136  0.01254  59275.34567  52.17903   1.98393  18.21051  59331.31114 
    14.02945  1.78622  2.40904       0.14063         2288.15129  0.10764  0.15476     0.02411  6.01471     19.20664   8073.20815   -12.28617  1.37162  7705.58716  0.00894  59277.16076  52.32264   6.38831  18.19453  59330.13672 
    14.14789  1.47276  1.72787       0.09402         5344.76258   0.0018  0.25188     0.02356  4.46242     16.11986   7366.97983    -11.3838  0.67355  7089.71355    1e-05  59278.06312  52.21749    0.0992  18.22839  59331.31114 
     14.0744  1.51596  2.01478       0.32931         4027.13363  0.00517  0.16473     0.01489   5.8633      19.7442   7207.83729   -11.27371  0.81477  6700.42673  0.03083  59278.17321  52.19853   0.30488  18.17877  59331.34897 
    14.08898    2.058   2.6388       1.44229         2883.73016  0.00106  0.30518     0.01101   4.4713     18.95436    7819.3351    -12.6888  1.52795  6511.85956    0.005  59276.75812  52.14387   0.05819  18.21999  59331.31114 
     14.0271  1.76173  2.38298       0.33177         4261.73908  0.00598  0.18255     0.01016  4.98289     17.29575   7839.45167   -14.31691  1.04426  5872.69024  0.00011  59275.13002  52.06632   0.33857  18.21065  59331.31114 
    14.02395  1.91626  2.73875       1.27298         2776.89229  0.00611  0.21866     0.01617  5.11878     20.11057   6991.35468   -12.46193  1.34235   7149.5546  0.07166    59276.985  52.24018   0.34863  18.20266  59330.14844 
     13.9681  1.80541  2.43547        0.0661         5655.93543  0.00733  0.16495     0.01206  5.41278     16.43208   6641.31265   -16.24481  1.29467  6474.00182    2e-05  59273.20211  52.16007   0.42372  18.20225  59331.31114 
    14.17193  1.55857  0.74516        0.2251         4039.97785  0.00179   0.2095     0.01061  5.97795     17.99477   7785.53184   -10.56366  1.00942  5952.69335  0.00055  59278.88327  52.09781   0.10616  18.19835   59329.2105 
    14.35755  1.64234  2.58761        1.0982           3484.984    0.009  0.31949     0.02483  3.63879     16.81934   7465.44367   -10.98765     0.43  6972.82337    4e-05  59278.45928  52.17911   0.46876  18.21705  59331.31114 
    14.17755  1.70926  3.03436       1.37498         2460.42308  0.18519  0.14872     0.01431  6.46223     16.84798   7019.33963   -14.49282  0.53707  7774.71318    4e-05  59274.95411  52.33793  11.18305  18.22958  59332.30604 
    14.00745   2.1499  3.17155       0.05974         4781.60774  0.00188  0.13513     0.01093   5.6344     18.46475   6617.74435   -15.83789  1.19358  7000.67856  0.00162  59273.60904  52.23234   0.10992  18.19966  59331.31114 
    14.44795  2.03948  0.70151       0.01464         5426.14731  0.34914  0.19555     0.02736  5.77011     16.90717   7503.34459    -10.0416   0.9362   7040.8308    4e-05  59279.40532  52.23986  20.51084  18.21972  59328.33113 
    13.81662  1.31314  2.32735        1.5051         3433.54805  0.00879  0.23212     0.01563  4.04175      16.5578   7272.52225   -11.32704  1.29844  6148.65553    2e-05  59278.11989  52.08234   0.47092  18.20736  59331.34897 
    13.91268  1.88262  3.09217        0.5402         3334.92647  0.00843  0.16506     0.01097  5.06058     16.92913   7080.02776   -15.14896  1.13745  6941.21685    5e-05  59274.29797  52.21323   0.47926  18.22147  59330.13672 
    13.74775  1.30205  2.00401       0.78615         2388.25154  0.00125  0.22344      0.0114  4.53758     17.25911    6945.2434   -13.79008  1.20703  6749.17979   0.0001  59275.65684  52.17664   0.06927  18.21737  59330.13672 
    14.01767  1.44349   2.3311       0.61918         3621.92258  0.06983  0.16474     0.01095  5.75111     18.07359   7337.39108    -12.7344  0.71987  6519.37415  0.00066  59276.71252  52.17268   4.09919  18.19049  59330.14844 
    14.02717  1.52245   2.1354       1.08956         3644.89676  0.25952  0.20793      0.0153  6.34287     17.15118   7339.04325    -9.40996   1.4864  7159.01498    8e-05  59280.03696  52.26432  15.60156  18.20315  59331.31114 
    14.00244   1.6891  2.73819       1.55814         2783.86586  0.00324  0.27193     0.02065  3.38609     17.30582   7378.20228    -12.0704  1.02874   6613.6151  0.00011  59277.37652  52.12441   0.16533  18.20311  59330.14844 
    13.88919  1.48811  2.34171       0.69231         4298.14066  0.00213  0.25781     0.01444  2.71409     19.10999   7362.77628    -13.0477  1.03858  5302.08519  0.00716  59276.39922  51.90431   0.10193  18.20076  59331.31114 
    14.13966  1.87961  2.57821       0.52757         4022.47107  0.04221  0.19907     0.01618  4.22472     17.89806    6964.7377   -11.27404  0.98533  6152.96886  0.00044  59278.17288  52.08811   2.28937  18.21272  59330.13672 
