 texplosion  fnickel    Pspin  log(Bfield)      Mns  thetaPB   mejecta    kappa  kappagamma     vejecta  temperature    alpha  cutoff_wavelength  log(nhhost)      A_V         MJD0  kenergy  mnickel            TSD   log(L0)  Peak_mag     Peak_MJD  log(E_rad)  log(Peak_lum)  Rise_Time    E_fold  tau_1  delta_m15     r_peak     frac 
  -11.55209  0.28851  1.10481     14.52359  1.90867  0.51562   4.55315  0.28666     0.01591  6822.53797   7861.74556  0.60718         4683.71128     19.74687  0.03102  59277.89484  1.26424  1.31365    19405.98743  48.17507  18.18906  59331.75583    51.31189       44.61279    22.3745  42.93295   40.5    0.17418   -21.6284  0.99356 
  -16.25209  0.05283  1.59054     14.02346  1.69837  1.23295   6.62469  0.21803     0.01098  7606.10014   7373.37095  0.28448         4758.86093      19.5609  0.02021  59273.19483  2.28621  0.34998   358108.20224  46.54178  18.19172  59330.14844     51.1552       44.41607   38.20751  40.45501   40.0    0.19463   -21.6428  0.99524 
  -15.22126   0.0701   2.3789     14.47003  1.83983  0.33941   5.21288  0.24443     0.01388  7625.71163   6910.39682   0.9602         2890.99186     16.21276    1e-05  59274.22567  1.80828   0.3654   110987.80557  46.73559  18.19055  59332.30604     51.3214       44.62017   22.47501  42.70251   43.0    0.18194  -21.58323  0.99008 
  -12.73067  0.07647  2.38575     14.16665  1.74031  0.76774   6.90771  0.21332     0.01139  7846.25969   7259.70277    1.473         3244.35364     17.53113  0.00019  59276.71626   2.5368  0.52824   426973.53052  46.12382  18.19815  59331.34897     51.2248        44.5128   34.34792  38.97769   42.0     0.1862  -21.60268  0.98444 
  -17.12515  0.39544  2.03113     13.89515    1.602  1.53335   4.56318  0.30486     0.01383  7714.76403   6977.16953  0.32774         4493.94175     16.97807    5e-05  59272.32178  1.62009  1.80446   994621.98576  45.86038  18.17409  59330.13672    51.22831       44.52425   28.83652  40.43268   42.5    0.18554  -21.62582  0.95753 
  -16.02665  0.00478  2.10018     13.99018  1.64056   1.1142   4.37585  0.24531     0.02175  7235.81068   7453.19755  0.43658         4725.66228     18.74922  0.00312  59273.42028  1.36667  0.02093   703008.37987  45.99236  18.18151  59331.34897     51.2172       44.49638   34.34792  38.98735   42.5    0.17201  -21.61522  0.99947 
  -14.87364  0.12579  3.04375     14.25752   1.9872  0.57849   3.87259  0.25346     0.01249  6497.21581   7484.65761   1.1266         4165.28936     18.98319  0.00534  59274.57328  0.97518  0.48715   522208.14734  45.88243  18.20263  59331.34897    51.22047       44.48681   31.46501  42.70251   43.5    0.19092  -21.62493  0.98076 
   -15.6999  0.09089  2.15379     14.19043  1.64573  0.58542   4.00547  0.27237     0.02453   7647.8949   6848.47652  0.31218         4457.07769     17.93683  0.00048  59273.74703  1.39754  0.36407   294925.13863  46.34909  18.17475  59331.34897    51.27477       44.56668   28.77686  41.15699   42.5    0.18296  -21.60614  0.99043 
  -15.80902  0.07812  1.89969     14.50311  1.99899  0.41627   6.66478  0.14881      0.0145  7003.68725   7566.67725  0.23548         5776.02471     19.23068  0.00945  59273.63791  1.95014  0.52062    66033.99002  47.19252  18.21565  59331.75583    51.20224       44.47004   31.11702  42.11902   42.0     0.1813    -21.603   0.9921 
  -15.26759  0.00217  1.28011     14.32276  1.55507  0.48349   5.96573  0.24852     0.01671  7763.59689   7296.62507  0.24482         4676.33146     17.90203  0.00044  59274.17934  2.14495  0.01295    53523.54887  47.51756  18.16073  59331.34897    51.27771       44.58476   28.77686  39.31281   40.0    0.17834  -21.62914  0.99987 
  -11.59538  0.01783  2.00972     14.10825  1.95692  1.48157   6.44346  0.16377     0.01622  6976.06818   7470.72872  0.82671         4297.09547     20.36511  0.12878  59277.85154  1.87054  0.11488   445815.90463  46.30499  18.18141  59331.75583     51.3162       44.60889   32.60721  38.01948   43.5    0.16228  -21.73037  0.99797 
  -14.32933   0.0013    2.139     14.30206  1.95683  0.65954   7.41247  0.14643     0.01126  6953.64508   7210.94584  0.46904         4967.22129     16.84523    4e-05   59275.1176  2.13804  0.00966   206856.07826  46.58431  18.19411  59331.34897    51.20194       44.47067   33.71251  41.10638   42.0    0.17447  -21.62233  0.99981 
  -16.25554  0.19051  1.97692     14.08634  1.60289  0.78691   6.29022  0.20569     0.01089  7387.57262   7256.85596  0.51262         3984.66116     17.08442    7e-05  59273.19139  2.04784  1.19832   390855.28829  46.28976   18.1915  59331.34897     51.1735       44.45012   26.97001  43.35388   42.0     0.1893  -21.59443  0.97294 
  -13.73514  0.00531  1.39234     13.82677  1.22414  1.23468    3.8212  0.26327     0.03315  7458.18533   6487.12046  0.29307         4489.19254     18.54168  0.00193  59275.71178  1.26792   0.0203   489322.73634  46.37959  18.23211  59331.75583    51.19323       44.46746   30.45237  42.11902   43.0    0.17513  -21.59071  0.99965 
   -16.1795  0.03189  1.62605      14.1344  1.99367  1.40111   5.81324  0.18621     0.01458  6638.63736   7440.97467  0.26637         5532.42131     16.15764    1e-05  59273.26743  1.52828  0.18538   263599.09077  46.72529  18.17357  59331.75583    51.31908       44.62471    29.4175     38.83   42.0    0.17138  -21.57031  0.99793 
  -17.99983  0.00106  2.49763     13.92009  1.88513  1.46796   4.59591  0.27785     0.01078  7146.58176   7457.80605  0.46818         4421.40638     16.56654    2e-05   59271.4471  1.40022  0.00489  1577750.93249  45.55109  18.19136  59331.75583    51.39565       44.71091   27.08411  38.09341   43.0    0.18724  -21.60748  0.99986 
  -17.19601  0.00561  1.83371     14.12849  1.57949  0.64955   7.04075  0.17812     0.01022  7153.96482   7342.18328  0.37682         4495.90125     17.60398  0.00022  59272.25091  2.14951   0.0395   272903.28125  46.50469  18.21402  59331.75583    51.18246       44.45683   31.27617   42.0671   41.5    0.18686   -21.5945  0.99919 
  -16.48609  0.00996   2.0711     14.17729  1.82085  0.72628   5.05292  0.24485     0.01483  7308.00505   7080.96156  0.33435         4391.95167      16.7508    3e-05  59272.96083  1.60978  0.05031   320556.68516  46.39081  18.18799  59331.75583    51.20531       44.47914   34.65755  40.16134   41.5    0.18867  -21.59822  0.99894 
  -12.02821  0.00517  1.05742     14.16339  1.79608  1.41547   6.29717  0.16334     0.36952  6979.61309   6758.53738  0.33985          5147.2748     17.65162  0.00025  59277.41872  1.82993  0.03257    87874.96858  47.53081  18.20264  59331.75583    51.31502       44.60941     31.665   38.9617   43.5    0.17196  -21.59115  0.99984 
   -9.78195  0.29788  2.11305     14.12488  1.72181  1.13496   4.49495  0.33091     0.01417  7198.05238   7224.91887  1.60775         3760.54236     18.91283  0.00455  59279.66497  1.38926  1.33893   401663.82663  46.25115  18.16513  59330.14844    51.30864       44.61199   19.95943  43.79308   43.0    0.16994  -21.60578  0.96923 
  -13.64623  0.00152  1.84593     14.25126  1.49886  0.46582   5.30324  0.21049     0.01433  7152.13296   7084.96529  0.49947         4751.10337     17.64337  0.00024  59275.80069  1.61823  0.00806   149103.81104  46.73869  18.18987  59331.34897    51.20739       44.49873   32.08694  39.65582   41.0    0.18632   -21.6287  0.99982 
  -16.29749  0.06698  2.04089     14.22433  1.70019   0.5733   8.99499   0.1226     0.01129  7669.43587   7032.29302  0.33067         4241.29696     19.93335  0.04765  59273.14944  3.15613  0.60252   234041.73153  46.51041  18.22344  59332.30604    51.41332       44.71083   27.69375  39.73127   43.0    0.17462  -21.64546  0.98653 
  -15.04325  0.00122   1.3877     14.03626  1.65957  1.21085   5.74678  0.17231     0.01971  6619.26148   7120.29425   0.3437         5706.75646     19.91119  0.04528  59274.40367    1.502  0.00703   251125.46546  46.80436  18.19538  59332.30604    51.32097       44.60656     30.068  41.85202   43.5    0.16916   -21.6536  0.99992 
  -15.57369  0.02561  2.94863     14.42254  2.00729  0.43522    6.5752  0.22847     0.01156  7570.80116   6996.17856  1.52231         3434.05595     18.08575  0.00068  59273.87324  2.24812  0.16839    231519.0218  46.26763   18.1681  59331.34897    51.24559       44.53204   31.11702  39.22015   44.0    0.17046  -21.59203  0.99379 
  -13.27462  0.00258  1.84852     13.92496  1.43873  1.56185   7.50341  0.22885     0.01239  7876.87665   7260.02074  1.17495         3765.75228     19.11683  0.00727  59276.17231  2.77711  0.01936   644936.56614  46.08366  18.20931  59330.14844    51.12025       44.38065   34.24085  42.17417   42.0    0.16509   -21.6152  0.99954 
  -14.13104  0.08078  1.83841     14.28292  1.70715  0.59055   6.01782  0.21547      0.0148  7506.99326   7251.26623  0.48152         4365.78163     17.86452  0.00041  59275.31588  2.02301  0.48613   145588.70956  46.80911  18.20997  59331.34897    51.34291        44.6565    23.8634  41.14744   41.0    0.17564  -21.61512  0.99124 
  -17.06516  0.01232  1.72789     13.93944  1.60263  1.46539   6.90181  0.24686      0.0118  8166.25134   7151.44361   0.2444         4113.88732     17.25165   0.0001  59272.38177  2.74559  0.08502   587216.71516  46.22985  18.19407  59331.75583    51.34104       44.63013   29.21751  39.16169   40.5    0.18309  -21.60929   0.9985 
  -16.14387  0.01213  1.91187     13.82366  1.33805  1.08054   3.87866  0.26576     0.02146  7149.43772   6928.76083  0.48438         4361.77243     19.38047  0.01334  59273.30305  1.18264  0.04705  1023023.95003  45.82251   18.2038  59331.75583    51.34236       44.63865   29.33161  40.34091   44.0     0.1844  -21.61908  0.99866 
  -16.29392  0.06367  1.82776     13.91298  1.57413  1.28526   4.50977  0.27042     0.02005  8033.72025   7097.39593  0.32817         2404.03479     19.46915  0.01636  59273.15301  1.73626  0.28712   729012.28102  46.07931  18.20937  59331.75583    51.33602       44.64302   25.38716  40.45501   41.0    0.18653   -21.6141  0.99418 
  -17.71684  0.00117  1.51806     13.77005  1.23173  1.06123   5.49254  0.33802     0.01339  8414.47895   6766.09467  0.44559          2763.6685     16.28539    1e-05  59271.73009  2.31982  0.00644   760001.87089  46.11597  18.19874  59331.34897    51.32493       44.63097    27.8205  39.60452   41.5    0.18556  -21.61882  0.99987 
  -12.30539  0.03287  1.68099     14.23992  1.81659  0.87362    6.5011  0.15717     0.01917  6817.53796   7441.78725  0.55226         5172.88224     17.67213  0.00026  59277.14153  1.80247  0.21367   157896.57413   46.8786  18.18934  59332.30604    51.21873       44.50569   32.80105  39.78361   43.0    0.17241  -21.61552  0.99708 
  -16.13406  0.00578  2.23734     13.89458  1.57241  1.34714   6.60363   0.1823     0.01127  7347.14746   6940.30613  0.60988         4242.92208     18.87011  0.00412  59273.31287  2.12641  0.03815  1187656.39635  45.69126  18.18865  59332.30604    51.30066       44.58945    29.4175  40.45123   42.5    0.18468  -21.61149  0.99883 
  -15.01754  0.03587  1.67484     14.12273  1.93433  1.43506   3.88761  0.29765     0.03758  7772.67985   7281.02185  0.14851           4669.534     17.05048    6e-05  59274.42938  1.40104  0.13946   286302.09738   46.6506  18.18597  59331.75583    51.34096        44.6472   29.21751  38.20751   41.0    0.16987  -21.59962  0.99827 
  -16.76296  0.45553  1.18881     13.95676  1.47734  1.42554   5.30775  0.25819     0.01207  7122.08952   6737.93594  0.20722         5467.65718     17.04768    6e-05  59272.68396  1.60603  2.41786   236590.14648   46.9141  18.19557  59331.75583    51.29594       44.60196   27.63466  39.16169   42.5    0.17492  -21.57071  0.97805 
  -15.43818  0.20655  1.54838     14.38378  1.58717  0.41322   4.70984  0.23131      0.0218  7204.76221   7137.12347  0.23571         5339.19306     17.50831  0.00018  59274.00875  1.45839  0.97281    60343.18222  47.30908  18.19374  59332.30604     51.4462        44.7617   25.44625  39.47893   42.5    0.18091  -21.58449  0.98626 
  -14.98497  0.00209  2.07367     14.17478  1.92424  0.92455   4.89241  0.23782     0.01654  7077.81822   7672.58148  0.42491          4582.9008     16.87035    4e-05  59274.46196    1.462  0.01024   343560.58316  46.38362  18.22463  59331.34897    51.18143       44.45015   32.12966  42.70251   40.5    0.18475  -21.59022   0.9998 
  -14.26003   0.2353  1.94854     14.13514  1.87965  1.25378   7.93378  0.13646     0.02363  8386.78538   6990.18666  0.14337         4763.24576     16.46492    2e-05  59275.18689  3.32888  1.86685    355659.5708  46.41247  18.18633  59331.75583    51.36115       44.67313    27.8205  38.92278   44.5    0.18112  -21.61924  0.96812 
  -14.46437  0.07109  1.97251     14.24187  1.63535  0.53968   4.54741  0.33077     0.01962  8335.73688    6721.7928  0.82075         3040.44973     19.63284  0.02385  59274.98255  1.88486  0.32327   193961.63981   46.6047  18.23157  59332.30604    51.51152       44.82378   25.08709  40.43445   41.5    0.18323   -21.6521  0.99281 
  -18.15807    0.001  1.27436     14.05816  1.64313  1.15254   8.84259  0.17183     0.01435  7927.15286   7291.93237  0.04269         3939.94296     17.44979  0.00016  59271.28886  3.31467  0.00885   189567.03703  46.99617  18.19093  59332.30604    51.28131       44.57662   27.83465  40.45123   40.0    0.16575  -21.51333  0.99992 
   -14.8036  0.03437  2.50083     14.06666  1.61823  0.75846   3.84936  0.29277     0.03279  8380.63749   6792.13753  1.24053         2699.98826     19.32273  0.01168  59274.64332  1.61276  0.13231   691371.89413  45.84201  18.17923  59331.34897    51.29168       44.58345   25.38716  42.70251   44.0    0.17532  -21.60637  0.99515 
  -16.86065  0.01931  2.07946     14.13018   1.9962  0.90123    4.7774  0.23824     0.01375  6949.95729   7347.24992  0.37732         4484.87324     20.15677  0.07971  59272.58627  1.37652  0.09226   440100.09091   46.2896    18.191  59332.30604    51.38355       44.69391   26.97001  39.62368   43.0    0.18663  -21.66741   0.9983 
  -16.36011  0.24057  1.85202     14.28579  1.76428  0.57438   6.81176  0.16606     0.01797  8078.53331   7021.75289  0.13418         4388.04121     19.64695  0.02464  59273.08682  2.65186  1.63871   150691.95972  46.80203  18.21465  59331.75583    51.28472       44.56174    29.4175  42.09921   43.0    0.17546  -21.64049  0.97201 
  -13.37921  0.05581  2.17991     14.17105  1.77328  0.79207   6.24187  0.15904     0.01476  7027.82709   6991.72092  0.58829         4194.96922      18.5596  0.00202  59276.06771  1.83901  0.34833   355942.55887  46.28936  18.20053  59331.75583    51.35685       44.65376   24.45443  42.28885   43.5    0.17801  -21.58647  0.99163 
  -13.34545  0.03492  1.99988     14.10133  1.81159  1.35498   8.74633  0.16125     0.01335  7882.16238   7176.83128  0.64517         4163.63408     19.35459  0.01257  59276.10148  3.24148  0.30544   421924.32705  46.29966  18.22068  59331.75583    51.36597       44.65547   26.70193  42.13926   41.5    0.16541  -21.62549  0.99403 
  -14.69696  0.17629  1.64315     14.01609  1.64832  1.17811   7.71468  0.14781      0.0118  7456.90998   7371.90603  0.31179         4733.23952     20.06609  0.06469  59274.74996  2.55896  1.36001   383733.15352   46.4705  18.22777  59331.34897    51.28912       44.57696   35.61438  38.55314   42.0    0.18437  -21.67311  0.97963 
   -17.2506  0.04841  2.13484     14.22504  1.99831  0.74511   5.21925  0.25504     0.01698  8141.21657   6591.44264  0.33047         2245.14413     16.53635    2e-05  59272.19632  2.06354  0.25265   300000.83723  46.43365  18.21457  59331.75583    51.24988       44.52823   32.69987  39.22015   41.5     0.1856  -21.60378  0.99511 
  -16.65074  0.00578   1.6656     14.14109  1.80492  0.92934   4.18536   0.3078     0.02416      7560.2   6937.20011  0.19484         4818.06069      16.6383    2e-05  59272.79618  1.42701  0.02419   242796.25854  46.69692  18.20732  59331.75583    51.45405       44.77138   19.73716  41.95403   41.5    0.17718   -21.6048  0.99967 
  -16.33544  0.00444  2.23524       14.108  2.07827   1.4063   6.95591  0.15749     0.01046  6793.00248   7303.90092  0.42958         4562.81022     19.01898   0.0058  59273.11149  1.91472  0.03086   586357.40542  46.11974  18.22059  59333.34604    51.29982       44.57621   27.08411  42.78463   42.5    0.18493  -21.58528  0.99938 
  -12.52369  0.01745  1.70055     14.20865  1.75187  0.82358   4.99344  0.29438     0.01774   7643.6335    7447.6882  0.66281         3684.24557     17.41167  0.00014  59276.92324  1.74031  0.08715    179969.4144  46.79597  18.18638  59332.30604    51.25051       44.53932   28.11221  41.56031   40.0    0.17903  -21.58906  0.99871 
  -15.70312  0.04328  1.59085      13.9553  1.54653  1.53757   9.70238  0.11314     0.01145  7323.51255   7553.04025  0.26806          4865.8186     16.02894    1e-05  59273.74381  3.10416  0.41995    446521.0663   46.4051  18.20363  59332.30604    51.35566        44.6496   28.40179  41.27073   41.5    0.16761  -21.59799  0.99343 
  -17.20442  0.02455  2.19529     14.18506  1.63804  0.52061   5.94771  0.18453     0.01196  7261.15379   6732.03007  0.39091         4199.69061     18.80139  0.00352   59272.2425  1.87063  0.14599   312608.33173  46.30518  18.17681  59331.75583    51.30875       44.60993   25.30871  41.88533   43.5    0.18118  -21.59835  0.99595 
  -14.09006  0.06875   1.4281     14.19431  1.85001  1.09526   5.03459  0.24966     0.01867  6860.51693   7411.03029  0.49521         4581.98695     19.40511  0.01412  59275.35686  1.41353  0.34615   143179.29187  47.07062  18.18754  59332.30604     51.2973       44.58065   25.50126   44.4326   41.5    0.16988  -21.57383  0.99673 
  -16.14062  0.01276  1.47529     14.22168  1.47648  0.39154   5.79289  0.17365      0.0154  7627.89531   7095.55101  0.22858         5140.49578     20.56166  0.20248  59273.30631  2.01063  0.07392   107507.38184  47.06888  18.15308  59331.34897    51.19658       44.48208   31.46501  40.45501   43.0    0.18558  -21.83642  0.99892 
  -15.46415  0.06488  2.01728      14.0327  1.77656  1.37595   6.22794  0.21048     0.01254  7295.09959   7229.09655  0.51031         4382.81353     18.70944  0.00285  59273.98277  1.97712  0.40406   577469.80331  46.14736  18.18959  59331.34897    51.26297       44.54298   31.08402  40.43268   42.0    0.18072  -21.61063  0.99172 
  -14.62513  0.00135  1.65098     14.11009   1.9705  1.42384   5.49783  0.21563     0.01071  6502.76372   7559.06617  0.43822         4943.14101     19.70331  0.02806   59274.8218   1.3868  0.00744   300402.55581  46.65024  18.19961  59331.75583      51.317       44.60458   31.46501  40.45501   41.5    0.18208  -21.62078  0.99991 
  -16.78798  0.00125  1.08657     14.21055  1.41274  0.59842   7.56107  0.21416     0.02287  8242.86869    6958.3664  0.21386         3429.45901     16.99306    5e-05  59272.65894  3.06455  0.00942     58735.1644  47.57789  18.17845  59332.30604    51.31677       44.61575   33.33152  37.29517   41.5    0.16636  -21.55572  0.99992 
  -15.45847  0.00136  1.76087     13.83564  1.39369  1.43809   4.76789  0.23998     0.01522   7112.2582    7052.1399  0.41559         4689.61694     17.38866  0.00014  59273.98845   1.4387  0.00647   855377.49074   45.9894  18.16826  59331.75583    51.26816       44.56067   31.11938  40.39733   42.0    0.19078   -21.6081  0.99985 
  -14.18041  0.00529  1.24533     14.29722  1.51853  0.52339   3.97877  0.32659      0.0381  7829.28989   7040.37389  0.25341         4880.35037     19.57466  0.02086  59275.26652  1.45486  0.02104    55637.48099  47.51433  18.21174  59331.34897    51.36039       44.66664   26.15429  39.02323   41.5    0.17624  -21.63479  0.99979 
  -13.65311   0.0319  2.01982     14.18006  1.83921  0.96717  10.12104  0.15181     0.01613  8679.56004   7060.74318  1.07274         2723.70427     19.22479  0.00932  59275.79381  4.54829  0.32283   304054.70591   46.4399  18.19081  59332.30604    51.29566        44.5925   32.69987  38.81684   42.5    0.15854  -21.62015  0.99371 
