 texplosion  fnickel    Pspin  log(Bfield)      Mns  thetaPB   mejecta    kappa  kappagamma     vejecta  temperature    alpha  cutoff_wavelength  log(nhhost)      A_V         MJD0  kenergy  mnickel            TSD   log(L0)  Peak_mag     Peak_MJD  log(E_rad)  log(Peak_lum)  Rise_Time    E_fold  tau_1  delta_m15     r_peak     frac 
  -41.53785  0.07168  1.01812     14.42754  1.75492  0.77001  39.79029  0.03105     0.02183  3055.28652   6926.93224  2.55733         2961.16186     17.02738    6e-05  54087.89215  2.21569  2.85199    23582.62474  48.12492  17.92591  54153.52543    51.15678        44.2111   31.39627  72.21142   96.5    0.05617  -20.41663  0.98857 
  -43.25369  0.11014  0.78122     14.18895  1.43353  1.23876  30.71358  0.04095     0.01038  3096.65693   7219.62778  2.97665         2962.85603      17.6856  0.00027  54086.17631  1.75689  3.38271    34029.77325  48.10785  17.85526  54149.98424    51.13868       44.21418    34.5359  69.07179   99.5    0.05237  -20.37905  0.99082 
  -19.30442  0.09604  1.01436     14.39602  1.59135  1.52088  28.35045  0.04128     0.01356  3474.84382   7027.28993  4.18453         3639.25871     17.84339  0.00039  54110.12558  2.04201  2.72291    24543.43872  48.06829   17.9249  54157.06661    51.12517       44.20774    34.5359  62.79254   78.5    0.06522  -20.92642  0.99165 
  -37.71138  0.15556  1.69618     14.53293  1.79083  0.71879  16.14386  0.07857     0.01276  2565.65761   7302.18434  4.62319         3756.15943     16.87766    4e-05  54091.71862  0.63392  2.51126    41111.24699    47.449  17.94705  54149.98424    51.05782       44.05827   40.81515   81.6303   95.0    0.05238  -20.61886  0.96807 
  -46.98094  0.06698  1.91753     14.23564  1.88827  0.99145    23.679  0.04783     0.01073  2808.00922   7153.73004  2.65133         2761.80789     16.15459    1e-05  54082.44906  1.11375  1.58591   217811.77178  46.64134  17.89165     54159.45    51.01452       44.07162    34.5359  69.41052   92.5     0.0572  -20.48864  0.97391 
  -26.57999  0.15653  1.73678     14.30023  1.72664  1.32248  16.37164  0.07284      0.0305  3559.72876   6848.73661  4.37355         2950.24178     17.49955  0.00018  54102.85001  1.23752  2.56269   121354.93053   46.9425  17.87647  54153.52543    51.16988        44.2932   28.25664  59.65291   81.0    0.07441  -20.79578  0.96271 
  -60.76944  0.07088  1.45163     14.02764  1.65796  1.37811  23.27611  0.05515     0.01218  3018.54428   7616.66217  2.58005         2335.75462      18.4795  0.00168  54068.66056  1.26512  1.64983   285645.07384  46.70888  17.93862  54157.06661    51.16143       44.21185    34.5359  75.35105   90.0    0.05577  -20.40655  0.98101 
  -41.08322  0.17777   1.2927     14.25122  1.75958  1.43997  17.58002  0.06371     0.01645  3113.09462   7344.71552  2.98394         2767.17691     18.31065  0.00114  54088.34678  1.01632  3.12513    85857.36855  47.35748  17.88155  54153.52543    50.94434       43.95254    34.5359  78.49068   94.0    0.05724  -20.51247  0.97648 
  -44.56345  0.08545  3.65086     14.01701  1.75963  1.32606  13.66542  0.07101     0.01015  3135.98149   7016.69585  4.29535         2910.96425     16.34989    1e-05  54084.86655  0.80167  1.16771  2013708.09575  45.08548  17.89939  54153.52543     51.1995       44.28677    34.5359  62.79254   89.5    0.06949  -20.71801  0.92473 
  -27.48409  0.23028  1.82694     14.57235  1.86211  0.69318  13.52214  0.06566     0.02137  3058.06441   6562.79724  3.36099         3413.60229     18.77798  0.00333  54101.94591  0.75434  3.11381    41358.03861  47.39884  17.94721  54149.98424    51.04871       44.05064   35.16793  84.03227   84.0    0.07217  -20.83713  0.95663 
  -36.08893  0.12652  1.24559     14.26227  1.38402  0.68839  23.34979  0.04162     0.01574  3197.46932   8031.74112  4.40954         2312.00134     16.22152    1e-05  54093.34107  1.42404  2.95417    59589.45133  47.44407  17.92226  54153.52543    51.15647       44.24046   28.25664  67.40995   85.5    0.06678  -20.73617  0.96892 
  -41.16637  0.10958  1.72613     14.23744  1.80577   1.1665  23.82012  0.04382     0.01309  3159.36621    7059.6617  1.33318         3415.25323     18.23271  0.00095  54088.26363  1.41831  2.61021    167393.3292  46.82762  17.89433  54153.52543    51.00004       44.04307   28.25664  75.35105   87.5    0.06655  -20.62822  0.96374 
  -30.06301  0.13452  2.29672     14.67494  2.07659  0.47259  17.53368  0.05583     0.01303  3170.94995   7076.39596  4.29473         2858.35255     16.83572    4e-05  54099.36699  1.05167   2.3586    45446.41824  47.20648  17.92881  54149.98424    51.12892       44.15097   31.39627  81.07566   84.0    0.07089  -20.82875  0.95315 
  -35.88494  0.15843  2.34019      14.1722  1.51961  0.97857  13.54442  0.07484     0.01589   2992.2711   6988.83464  4.50031          3058.5776     18.75507  0.00316  54093.54506  0.72342  2.14582   349665.35486  46.16842  17.87978  54153.52543    51.08232       44.13066   47.09441  69.07179   86.0     0.0701  -20.80781  0.93002 
  -29.95922  0.13283  1.31092     14.37369  1.80623  1.34287  22.77292   0.0503     0.01363  3250.23726   6913.49264   4.4172         2991.76349     18.51917  0.00184  54099.47078  1.43508  3.02483    51565.89589  47.57811  17.90236  54149.98424    50.98592       43.98211   40.81515   81.6303   88.5    0.06841  -20.78445  0.98001 
  -34.86717  0.08498  1.50911     14.23523  1.58591  0.79935  28.81674  0.03391     0.01093  3075.07613   8140.58663  2.88705         2742.06359     20.22962  0.09426  54094.56283  1.62549  2.44885    113519.0011  47.05661  17.91017  54157.06661    51.10323       44.19492   28.25664  64.27033   81.5    0.07135  -20.88363  0.96819 
  -31.74669  0.06279  0.88918     14.16622  1.46848   1.0527  45.04578  0.02534     0.01211  3446.72696   7805.72595  4.55994         2244.58256     20.33911  0.12129  54097.68331  3.19224  2.82826    50146.06411  47.83749  17.85394  54149.98424     51.2414       44.34828   28.25664  63.17409   81.5    0.06991  -20.88508  0.98779 
  -35.53822  0.12816  1.47398     14.59907  1.99477  0.74943  20.74988  0.06709     0.01454  2974.96475   7224.12259  4.96624         3445.56649     16.90249    4e-05  54093.89178  1.09549  2.65928    25500.24068  47.82521  17.87023  54153.52543    51.05108       44.09718   31.39627  75.35105   91.0    0.05629  -20.79843  0.98045 
  -36.35667  0.09211  2.12969     14.44212  2.14566  1.06028  26.36258  0.03964     0.01154  2858.54958   7518.51827  2.23013         3704.66645     16.24633    1e-05  54093.07333  1.28501  2.42838   117969.08501    46.872  17.94089  54153.52543    51.01234       44.03623    34.5359  78.38505   84.0    0.06645  -20.77054  0.96081 
  -31.43853  0.19393  0.89017     14.27201  1.67019  1.07218  16.29593  0.06134     0.02159  3472.81668   7332.45111  4.86006         2219.37659     19.99873  0.05539  54097.99147  1.17238  3.16031    35116.69611  48.04715  17.83873  54149.98424     51.2197       44.33586   28.25664  62.79254   85.5    0.07646  -20.89551  0.98996 
  -29.89375   0.1247  1.09197     14.29216  1.74991  0.94957  25.06498  0.04049     0.01414  3336.39874   8043.78782  4.68789         2311.98867     20.45695   0.1591  54099.53625  1.66437  3.12559    50457.58892  47.73252   17.8481  54157.06661    51.24967       44.39098   28.88868  59.02088   84.0    0.06698  -20.94211  0.98344 
    -24.485  0.29104  0.74154     14.74844  1.64733  0.43796  10.68408  0.10393     0.02879  3335.34062   7014.86249    2.959         3376.20206     19.54157  0.01933    54104.945    0.709  3.10949     2679.07929  49.31737  17.90004  54149.98424    51.03009       44.06308   31.39627  77.03847   84.5    0.06336  -20.79498  0.99668 
  -37.19262  0.07747  1.44177     14.18686  1.84908  1.54905  24.09359  0.04139     0.01034  2951.25305   7094.14903  2.51082         2543.89203     19.49863  0.01751  54092.23738  1.25182  1.86646    150956.8371  47.03916  17.91819  54149.98424    51.21204       44.26521    34.5359  72.21142   87.0    0.06508  -20.71552  0.98247 
  -48.76549  0.09767   1.5288      14.4532  1.52531  0.50702  31.76181  0.04915       0.013   3423.7295   7902.27271  3.41375         2939.32035     19.52802  0.01874  54080.66451  2.22091  3.10228    41065.11329  47.47003  17.87312  54149.98424    51.10016       44.15566   40.81515  69.07179   92.0    0.05074  -20.41751  0.95727 
  -50.98099  0.06243  2.05669     14.03968  1.67345  1.08527  21.17055  0.05456     0.01369   3045.1203    7858.5334  2.92374          2693.0981     20.43053  0.14971  54078.44901  1.17103  1.32162   547525.41711  46.12772  17.85634  54153.52543    51.00454       44.03433   40.81515  73.97758   88.5    0.05936  -20.68245  0.96984 
  -51.98515  0.09818   1.8111     14.18384  1.65283  0.85653  19.10282  0.06104     0.01205  2862.71386    7310.2659  1.21364         3602.39594     18.79842  0.00349  54077.44485  0.93386  1.87551    215892.2115  46.63695  17.89513  54157.06661    51.07832       44.14693    34.5359  65.93217   90.5    0.05919   -20.4823  0.96656 
  -55.99028   0.1208  2.13615     14.18938  1.79923   1.0535  19.89531  0.06332       0.016  3031.45845   7454.09353  4.09439         2601.78799     18.87531  0.00417  54073.43972  1.09064  2.40338   318711.43342  46.36127  17.81208  54146.44306    51.10921       44.17633   28.25664  69.07179   96.0    0.05661  -20.42739  0.94838 
  -36.69386  0.10519  0.75418      14.8425  1.89978  0.37476  32.24252   0.0423     0.01499  3611.39543     7374.072  2.88138          2857.6998      18.3105  0.00114  54092.73614  2.50845  3.39164     2072.39843  49.47613   17.9137  54157.06661    50.93712       43.95787    34.5359  78.49068   89.5     0.0586  -20.61239  0.99669 
  -22.34118  0.18492  1.30392     14.63555  1.86979  0.79577  16.82021  0.06102     0.01819  3075.37752    6830.8843  4.04105         3617.75167     17.47004  0.00016  54107.08882  0.94898  3.11039    15813.12884  48.11112   17.8977  54153.52543    51.09142       44.14906   28.25664  72.21142   83.5    0.05289  -20.82776  0.98496 
  -36.19818  0.12896  0.82111     14.36893  1.59009  1.14393  24.25057  0.05223      0.0128  2978.89134   6845.30667  3.66457          3475.6273      19.1759  0.00833  54093.23182  1.28368  3.12731    18204.09578   48.3813   17.8665  54149.98424    51.02141       44.04392    34.5359  78.38505   92.5    0.04991  -20.70022   0.9942 
  -27.23113  0.13045  1.13795     14.50033  1.83229  1.03669  24.06845   0.0557     0.01582  3547.91461   6835.88298  4.62566         3158.77391     18.93291  0.00476  54102.19887  1.80726  3.13979    21998.46541   48.0772  17.94613  54157.06661     50.9824        43.9982   40.81515  76.37141   87.5     0.0643  -20.85643  0.98841 
  -24.66195  0.25305  1.35226     14.53797  1.90457  0.85433  10.59594  0.10552     0.03237  3247.34026   7555.26859  2.90646         3569.78287     19.62568  0.02346  54104.76805  0.66653  2.68133    27151.22392  47.85273  17.91019  54153.52543    51.05354       44.09624   40.81515  69.07179   81.0    0.06357  -20.80451  0.98319 
  -28.46274  0.11783  1.15146      14.3435  1.69074  1.20607  29.49228  0.03349     0.01458  3343.97038     8066.447  4.92281          2628.9734      17.2969  0.00011  54100.96726  1.96725  3.47493    42794.44593  47.74304  17.92047  54153.52543    51.00318       44.01258   37.67552  78.49068   84.5    0.06155  -20.78426  0.98139 
    -40.943  0.08283  2.81367      14.2885   2.0835  0.82741    25.362  0.03216     0.01044  3009.70432   8187.33736  3.98246         2569.60353     20.40818   0.1422    54088.487  1.37043   2.1007   405644.57844  46.08095  17.86406  54157.06661    51.09918       44.18425   37.67552  61.16616   88.5    0.07331  -20.85401  0.93746 
  -28.95103  0.16578  1.11708     14.30565  1.83634   1.5077  17.84757  0.05565     0.03012  2949.37488   8110.71166  3.90385         2728.34362     20.19984  0.08802  54100.47897  0.92612  2.95882    52076.93168  47.71998  17.83047  54149.98424    51.07963        44.1194    32.0283  74.71901   85.0    0.07305  -20.82241  0.98621 
  -43.73544  0.13437  0.97231     14.09865  1.48287   1.4454  20.61659   0.0532     0.01166  3036.97041   7286.65624  1.80523         2663.44633     16.20392    1e-05  54085.69456  1.13429  2.77019    82646.06799  47.54712  17.81448  54153.52543    50.97086       44.03123   31.39627  69.41052   93.0    0.05773   -20.4149  0.98502 
  -39.79079  0.18291  1.36997     14.19952  1.40797  1.01221   14.5771  0.08504     0.02061  2968.57878   6426.37412  2.85011         3535.03397     17.40059  0.00014  54089.63921  0.76629  2.66631    97902.19617  47.15323  17.93936  54157.06661    51.07032       44.14375   28.25664  69.07179   92.5    0.05722  -20.60071  0.96724 
  -37.86784  0.19338  0.71843     14.18255  1.43373  1.03848  17.30112  0.06047     0.03002  3385.66575   7531.21815  4.92771         2028.87136     19.66396  0.02563  54091.56216  1.18301  3.34573    29645.83658  48.24058  17.88908  54149.98424    51.03525       44.03945   43.95478  78.38505   91.0    0.05876  -20.59202  0.99211 
  -25.04072  0.15946  1.83879     14.31966  1.52025  0.70418  17.37918  0.05546     0.01834  3335.04965   7789.66566  4.33522         3102.47217     20.46493  0.16205  54104.38928  1.15308  2.77134   109518.28374  46.88221  17.91812  54157.06661    51.02382       44.07164    34.5359  72.21142   81.0    0.07908  -21.01213  0.94416 
  -28.20799  0.10994  1.32764     14.29611  1.74617  1.55915  30.48771  0.03125     0.01153  3649.02875   6421.04249  2.82535         2687.83845     17.29523  0.00011  54101.22201  2.42162  3.35181    73088.61842  47.40092  17.89274  54157.06661    51.12204       44.18936   28.87095  71.59712   88.0    0.07609  -20.79047  0.97419 
  -48.08982  0.13234  0.89849     14.26214   1.7718  1.53992   24.3022   0.0578     0.01295  2951.24302   7618.27429  4.54816         2678.62669     20.02981   0.0595  54081.34018  1.26265   3.2162    39716.64575  48.01126  17.89427  54149.98424    50.97193       43.97471   37.67552  79.65184  100.5    0.04669  -20.28056  0.99092 
  -41.24625  0.09685    1.063      14.7095  1.92717   0.4142  28.56919  0.03834     0.01502  2995.65046   7485.83197  1.40461         3545.22003     17.08928    7e-05  54088.18375  1.52935  2.76683     7705.60886  48.61389  17.87245  54149.98424     51.1261       44.20137   28.88868  68.43976   90.0    0.06333  -20.48222  0.98939 
  -34.36819  0.13004  0.78278      14.2344  1.36925   1.4083  23.28039  0.05659     0.01493  3076.40249   6751.43978  3.97926         3433.22146     17.21852    9e-05  54095.06181  1.31433  3.02727    26471.97757  48.19526  17.85206  54153.52543    51.45349       44.63349   25.11702  53.37366   92.0    0.05705  -20.84572  0.99294 
  -54.09509  0.17002   1.6954     14.33626  1.74335  0.87181  17.28816  0.08043     0.01723  2716.09548   7524.43153  3.32618         3357.77093     19.02022  0.00582  54075.33491  0.76079  2.93935    98905.51031  47.05647  17.80433  54153.52543    51.26899       44.43228   25.74905  55.88125  101.5    0.04957  -20.28657  0.95908 
  -36.20131  0.13243  1.45995     14.24266  1.76557  0.80396  26.17198  0.03681     0.01372  3366.70096   8450.92113   4.7575         2204.62135     20.72087  0.29215  54093.22869  1.76959  3.46608   114302.58819    47.129  17.91226  54153.52543    51.19946        44.3314   25.11702   60.0522   87.0     0.0711  -21.04571   0.9642 
  -32.05207  0.13229  1.81632     14.46039  1.44349  0.58013  17.21964  0.07878     0.01276  2935.49742   8338.53651  4.61078         3838.39618     18.40719  0.00142  54097.37793  0.88515  2.27801    53068.78458  47.18503  17.91171  54153.52543     51.1907       44.28869   28.25664  65.93217   85.5    0.06364  -20.79916  0.95219 
  -44.19127  0.10603  1.61729     14.04584  1.42668  1.42897  24.44573  0.04946     0.01403  3371.91663   7312.83923  1.82621         3099.79088     18.49972  0.00176  54085.23873    1.658  2.59196   280559.73043  46.55757  18.00379  54157.06661      51.217       44.27505   31.39627  72.21142   87.0    0.06322   -20.5851  0.95496 
  -42.61474  0.09153  1.78922     14.08188  1.72264  1.39408  20.83752  0.04224     0.01122  3060.00674   7646.35424  2.24715         2431.29213      19.2296  0.00943  54086.81526  1.16391  1.90732   351221.23185  46.45413  17.88311  54153.52543    51.08612       44.13859   37.67552  69.07179   89.0    0.06598  -20.65116  0.96875 
  -27.29636  0.16843  1.13563     14.57092  1.66756  0.58588  16.04616  0.06926     0.02682  3150.83625   7012.58525  4.07403         3106.51505     16.77942    3e-05  54102.13364  0.95028  2.70272      14405.866  48.22191  17.92634  54153.52543    50.99292       43.99973    34.5359  82.79147   85.0    0.06228  -20.83075  0.98584 
  -29.16672  0.23427  1.25535     14.47509  2.04684  1.32546  12.75602   0.1057     0.03792   3889.9681   7493.43148  4.06335         2844.87393     18.10509  0.00071  54100.26328  1.15142  2.98829    33593.09451  47.85615  17.87306  54153.52543    51.02106        44.0573   37.67552  72.55015   80.0    0.05453  -20.75838  0.98702 
  -33.12303  0.10264  1.69032     14.65609  1.82081  0.41873  26.14547  0.04053     0.01274  3468.93288   7376.71369  4.62279         2672.98147     19.34816  0.01238  54096.30697  1.87679  2.68369    23541.59613  47.70134  17.87275  54153.52543    51.01651       44.07303   28.25664  72.21142   84.0    0.07034  -20.87234  0.96536 
  -47.68309  0.12127  1.05448     14.30394  1.73093  1.07779  24.70801  0.05801     0.01172  3101.54463   7762.62678  4.82982         2649.51598     17.19401    9e-05  54081.74691  1.41782  2.99643    44084.48877  47.81676  17.84765  54153.52543    50.93031       43.94921   31.39627  78.49068   96.5    0.04723  -20.29284  0.98615 
  -47.44624   0.1166  1.25322     14.13212  1.62134  1.06757  21.00184  0.05377     0.01009  3158.51127   6900.69918  3.20338         2130.92797     19.79652  0.03477  54081.98376  1.24983  2.44878   128680.30742  47.17315  17.84427  54153.52543     51.0154       44.08566   37.67552  65.93217   93.5    0.05798  -20.49011  0.97886 
  -77.41276  0.05477  3.36874      14.1688  1.98928  0.84869  14.19221  0.19535     0.02509  4106.27998   7776.23641  1.63189         3254.76045     18.73048  0.00299  54052.01724  1.42749  0.77738   963491.33795  45.52876  17.86263  54149.98424     51.0704       44.11045    34.5359  72.21142   88.5     0.0565   -20.4097  0.96313 
  -30.58153  0.23451  1.85798     14.20154  1.54514  1.19511  11.21755  0.09656     0.02967  3482.54419   6794.08493  3.38597         3144.46931     19.03078  0.00596  54098.84847  0.81156  2.63063   195791.31351  46.62794  17.84795  54157.06661    51.13137        44.2163   31.39627  65.93217   81.0    0.07939  -20.86471  0.94728 
  -48.84498   0.1111  0.98409     14.26222  1.82753  1.29801  28.09779   0.0438     0.01743  3253.07985   7844.79998  1.28754         3048.79708     17.34918  0.00012  54080.58502  1.77374  3.12156    49125.20228  47.85334  17.97671  54149.98424    51.15011       44.18502    34.5359  75.35105   92.0    0.05793  -20.38274  0.98856 
  -49.70383  0.15599  1.45693     14.28492  1.62532  0.81162  20.21592  0.05392     0.01066  2807.20304   8023.68869  1.91952         3289.44682     19.27206  0.01039  54079.72617  0.95032  3.15344    86257.13002  47.21711  17.92585  54153.52543    51.21269       44.30469   28.25664  65.93217   97.0    0.05639  -20.41406  0.96396 
  -43.31034  0.14881  2.31398     14.24228  1.92188  1.38345   16.6752  0.06945     0.01408  3077.90667   7097.40895  2.01508         3554.37348     19.60895  0.02258  54086.11966  0.94234   2.4815   313105.59682  46.32816  17.87746  54157.06661    51.10443       44.17617   28.88868  69.91755   89.0    0.06174  -20.64006  0.94383 
   -34.8026  0.18807  2.85893     14.44964  2.12022  1.18083    15.366  0.07396     0.01336  2968.73935    6919.7197  3.39991         3642.19818     17.23726   0.0001   54094.6274  0.80785  2.88987   202918.65289   46.3755   17.9257  54149.98424     50.9731       43.95692   40.81515  85.71726   89.5    0.06065  -20.74237  0.91683 
