 log(Bfield)      Mns     Pspin  cutoff_power  cutoff_wavelength  fnickel    kappa  kappagamma   mejecta  log(nhhost)  temperature  texplosion  thetaPB     vejecta      A_V        MJD_0   log(KE)      M_Ni  Peak_mag     Peak_MJD 
    12.50783  1.91099  27.10928       0.06772         3682.38772  0.32767  0.09143      0.0114  46.67892     17.16904   4347.38903  -139.44513  0.81846  2116.18281    8e-05  56247.82587  51.37603  29.15675  21.10333  56465.00671 
    14.70585  1.57412   1.07926       0.45528         4277.23766  0.43387  0.20442     0.01214  97.08088     19.43055   6234.26124  -138.60327  0.20148  1793.00816  0.01497  56248.66773  51.28093  43.20142  20.96637  56473.29957 
    13.19649  1.53346  15.91329        2.1161         3165.95655  0.32111   0.0841     0.10893   31.7208     16.76941   5041.79847   -68.48539  0.04837  3399.60022    3e-05  56318.78561  51.75962  26.77867  20.99393  56484.35671 
    13.02107  1.65822  28.32118       1.68468         2829.88314  0.18952  0.05199     0.39625  58.00896     16.49312   3984.59019   -48.06245  1.34484   4691.1132    2e-05  56339.20855  52.08255  17.45916  20.97848  56459.47814 
    14.08067   1.6656  10.27164        4.2207         3163.99808  0.25545  0.07501     0.04739  64.60544     19.98408   4851.13079   -83.48714   0.3073  2829.10003  0.05356  56303.78386  51.65058  23.93117  20.93465  56514.76386 
    12.01546  1.86374  14.58421       0.73898         3298.26152  0.31839  0.10373     0.13388   71.9828     19.68329   3302.51821  -124.11705   0.3165  2376.34995  0.02679  56263.15395  51.50629  30.32563  20.95182  56495.41386 
    13.32606  1.27811    3.4389       1.48735          2367.4816  0.46837  0.16339     0.01097  21.96209     20.09217   9240.17183   -58.26017  0.50453  4330.58247  0.06869  56329.01083  51.94125  36.56949  20.75829  56528.58529 
    13.65751  1.38534  18.44075       0.29441         3712.36073  0.24036  0.07074     0.02658  70.45252     17.00582   6151.99162    -91.4739  1.30202  2897.36797    6e-05   56295.7971  51.67706  22.81809   20.9156  56495.41386 
    12.59931  1.51014   9.80535       1.28503         3367.72767  0.13736  0.02787     0.07543  93.39336     20.54649   3543.48494   -77.26608  1.01733  3113.86431  0.19553  56310.00492  51.75791  13.60018  20.99265    56487.121 
      14.664  1.65361   6.22422        4.2065         3473.92476  0.44363  0.10073     0.07108  14.62642      19.0533   4023.66489   -13.86008   1.5512  4065.07547  0.00628  56373.41092   51.8523     32.03  20.94502  56476.06386 
    14.96488  1.74863  12.45555       1.70499         2057.05128   0.3463  0.09825      0.0113  29.81332     17.86203   7855.76898   -62.38304  0.04407  4706.23457   0.0004  56324.88796  52.03742  28.56927  21.01163    56462.282 
    15.07786  1.64513   14.6973       4.95527         2551.63886  0.16313  0.04787     0.36386  67.27679     18.57314   6972.73682   -56.23346  1.22981  4660.21722  0.00208  56331.03754   52.0868  15.37756  20.99581    56471.196 
    12.75496  1.85721  23.70026       3.47923         2567.38871  0.28289  0.07335     0.25787  66.31514       19.557   7146.99589   -85.87569  0.74366   2462.4384  0.02003  56301.39531  51.53176  26.60886  20.96392    56470.235 
    13.85235  1.54327  18.40378       1.86376         3241.21257  0.42144  0.09632     0.03435  25.42762     17.39775   4178.71572   -52.67921  1.04868  3558.88731  0.00014  56334.59179  51.78241  33.79805  20.97563    56487.121 
    14.72387  1.70465  20.76593       0.14645         2853.00558    0.426  0.10496     0.37882   20.8144     17.08662    5732.1785   -36.88022  1.52742  5223.70252    7e-05  56350.39078  52.09977  32.93083  20.88627  56509.23529 
    12.45152  1.55903  14.95414       0.44331         4342.62835  0.33053  0.07911     0.02054  99.13063      16.8112   8576.36233  -192.55526  1.06031  1192.17038    4e-05  56194.71574  50.92776  33.01101  21.00586    56467.771 
    14.19366  1.65301   9.59113       0.15088         2200.35295  0.48548  0.15244      0.1894  40.76003     16.72978   9794.86529  -144.03032   1.4562    1859.904    3e-05  56243.24068  51.25423  42.24707  20.94649  56498.17814 
    14.49395   1.6287   7.74574       4.25463         3362.28489  0.38816  0.13293     0.03478  48.29112     19.25693   7577.39672   -72.36382  0.10495  3006.65274  0.01004  56314.90718  51.68348  34.73008  21.00627  56478.82814 
    14.61016  1.85162  28.41737       3.93065         3395.08356  0.38435  0.09632     0.01754   68.6313     20.38725   6181.96284   -84.70486  0.33077  2426.46602  0.13551  56302.56614  51.52127  36.34257  20.94145  56481.59243 
    13.02993  1.82242   3.24989       3.02859         2664.06233  0.47609   0.1707     0.06414  15.35644     17.48936   3066.91571   -64.74653  0.90074  4307.40144  0.00017  56322.52447  51.90681  34.70848  20.89822  56511.99957 
    12.60602  1.98729   1.60349       0.27919         3308.94969  0.19647  0.04331     0.15592    35.781     20.85296   7903.12878   -72.89196  0.97316  3592.66155    0.396  56314.37904  51.81658  16.72654  20.83252    56525.821 
    13.71672  1.82087  12.99498       0.47376         2142.51927  0.47828  0.11108     0.41293  18.31083     16.11324   6698.01803   -69.67096  1.07456  3876.83566    1e-05  56317.60004  51.83023  36.08537  21.01134    56467.771 
    14.15502  1.60599   7.88417       2.23084          2264.5005  0.49598  0.10018     0.08541   14.0747     20.01369   8316.86006   -65.55228  0.35201  3249.63298  0.05733  56321.71872  51.65447  35.53349   20.9149  56517.52814 
    13.85364  1.48452   8.07098       0.55279         3145.59038   0.3981  0.07007     0.06477  17.89424     17.66801    4271.8057   -37.65976  0.11847  4514.83608  0.00026  56349.61124  51.96064  29.90352  20.97044  56453.94957 
    14.47908  2.17958   8.13043       0.83168         2353.48072  0.42246  0.11679     0.23949  26.83732     20.30955   6493.86904    -65.3705  0.96101  3112.82601  0.11331   56321.9005   51.6703  34.20949    20.947  56473.29957 
    12.45528  1.64636     5.427       2.98048         2112.93024   0.4178  0.12469     0.42228  29.87642     16.48552   5546.23759   -77.67005   0.1006  3715.56357    2e-05  56309.60095  51.83228  34.48035     20.89    56525.821 
    13.24096  1.75562  12.30846       3.63896         2586.00702  0.49984  0.17488     0.49163    87.174     17.11097   9125.82054  -134.26893  1.01398  1988.27671    7e-05  56253.00207  51.36387  48.99197  20.86496    56545.171 
    13.85302  1.52509  17.80723       3.10337         2775.98601  0.44678  0.14852     0.05697  64.68432     19.58245   5633.50789  -117.75353  1.21839  2162.07329  0.02124  56269.51747  51.41711  41.86353  21.00429  56453.94957 
    14.52687  1.65731  22.62167       0.80261          2338.4818  0.47108   0.1614     0.02021  33.21423     20.09536   4911.24589   -88.33719  0.66753  3891.48687   0.0692  56298.93381  51.88045  39.59902  20.95501    56490.219 
    14.75957  1.80855  26.13243       3.71351         2327.27671  0.17699  0.03844     0.01987    51.395     18.95984   3086.97278   -54.17464  1.18391  3902.74592  0.00506  56333.09636  51.91441  15.99523  21.09549  56465.00671 
    14.15764  1.83673    1.5988       0.26563          2434.9402  0.35502  0.21463     0.01693  92.28568      16.1959   6429.57391  -108.70845  1.12936   2745.1437    1e-05  56278.56255  51.64769  35.08968  20.68122  56550.69957 
    12.60752  1.82926  13.69019       0.05078         5071.10213  0.40038  0.10296      0.1004  61.39762     18.10703   5344.54194  -156.53906  0.15176  1525.23485  0.00071  56230.73194  51.11053  37.21322  20.95425  56514.76386 
    12.63178  1.21732   6.21698       0.18732         2718.07482  0.45932  0.12107     0.04929  37.84243     16.71391   4867.26885  -100.06174  0.52788  2319.33297    3e-05  56287.20926  51.44058  39.47678  20.99207  56511.99957 
    12.74544  1.89282  28.88221       3.47238         2171.50713  0.49822  0.10637      0.2316  19.16521     17.05878   7965.95421   -56.78278   0.8077  3767.83375    6e-05  56330.48822  51.80924  37.91802  20.90843    56480.213 
    12.99359  1.50151  17.92376       4.96518         3366.81115   0.4051  0.10536     0.05623  32.37475     17.21537   6626.49112   -82.77602  1.21291  2273.44969    9e-05  56304.49498  51.41167   33.9028  20.96173  56459.47814 
    13.64899  1.82875   6.97757       3.15049         3034.65313  0.29194   0.0854     0.03678   33.4097     16.86126   6291.97895   -76.48033  0.72378  3077.71465    4e-05  56310.79067  51.67711  24.56525  20.93081  56509.23529 
     14.3276  1.62257   9.41005       2.98759          2657.9887  0.34739  0.11011     0.01092  44.12869     18.04646   5695.00822   -73.16534  0.16414  3476.37072  0.00062  56314.10566   51.8032  30.62919  20.97798  56492.64957 
    14.55331  1.81553   9.63027       1.07624         2927.62113   0.3471   0.1287     0.06247  22.57351     16.99554   4796.75748   -47.21062   0.4026  5135.02668    5e-05  56340.06038  52.09144  27.23875  20.91437  56534.11386 
    12.23659  1.95763  20.83694       3.09932         3174.54225  0.16837  0.04424     0.03877   66.6474     18.34939    6874.8374   -81.83726  1.24613  2981.26422  0.00124  56305.43374  51.69817   15.8486  20.96576  56470.53529 
    12.63473   1.9412   2.92224       1.38857         3216.78117  0.08507   0.0168     0.02789  93.92739     16.57893   5767.36489   -48.60236  0.52006  3664.72889    2e-05  56338.66864  51.89976   8.43021  21.04341  56495.41386 
    15.11767  1.58539    3.9824       0.88451         3364.27864  0.27826   0.0611     0.02939  39.66624     16.21381   6936.91314   -64.57122  0.88674  2706.07794    1e-05  56322.69978  51.57796  24.10486  21.06425  56456.71386 
    13.50991  1.71665   4.31655       4.64128         3426.08448  0.35722  0.12921     0.17818  22.81304     16.76911   4326.89957   -72.50812  0.53505  2918.07492    3e-05  56314.76288  51.60139  28.08766  20.95212  56484.35671 
    13.42521  2.00462  11.74618        0.1941         4045.86305   0.4809  0.13019     0.20374  22.76209     19.55777   9955.55139   -59.59246  0.04376  4221.47043  0.02007  56327.67854  51.92195  37.79678  20.82611  56567.28529 
    12.13668  1.56358   9.67448       0.65767         2305.43082  0.47517  0.20515      0.0242  83.18786     17.09883   7067.95212  -126.30243  0.35846  3090.36792    7e-05  56260.96857  51.74393  46.25171  20.98558  56478.82814 
    14.19982  1.61397  22.48367       2.56416          3429.2976  0.36367   0.1371     0.02038  70.50944     19.99701   6923.73426  -104.07642  0.63506  2835.26054  0.05517  56283.19458  51.65829  34.52949  21.00053  56478.82814 
     12.3075  1.69057  29.76206       0.34168          3493.8452  0.13981  0.03567     0.04142  84.11283     16.16091   4124.26765   -67.22755  1.19499  3578.45594    1e-05  56320.04345  51.87201   13.6315  21.03405  56465.00671 
    14.68195  1.59946  19.49977       3.24024         2588.89343  0.22169  0.05998     0.12501  55.40271     17.93206   6024.39633   -55.43011  0.23768   3656.4104  0.00048  56331.84089  51.86297  20.27594  20.84946  56503.70671 
    13.78111  1.68099   5.72343       3.88322         2221.28023  0.18438  0.07413     0.28739  93.62952     16.16793   3627.20344  -132.07389  0.48964  2474.93734    1e-05  56255.19711   51.5586  18.26206   20.9941  56503.70671 
    12.19573   1.8413  16.05365        0.5498         2164.05259  0.29814  0.09847     0.07548  62.00359     19.63333   3455.88016   -96.16465  0.18924   3115.0691  0.02388  56291.10635  51.73145  27.75268  21.03782  56492.64957 
    12.29246  1.57492  25.06254       0.66266         3083.65428  0.23936  0.06057     0.09698  61.65092     16.02678    4533.8649  -108.51111  1.19633  2412.22108    1e-05  56278.75989  51.50897  22.26162  21.01609  56498.17814 
    14.00998  1.69553   4.58072       2.42048         3332.09821  0.31084  0.13507     0.43439  94.43506     18.96141   7937.67723  -195.40032  0.94733  1544.53689  0.00508  56191.87068  51.14961  30.82709  20.86309  56498.17814 
    13.75104  1.92732   3.98206       0.92974         2841.46284  0.23723  0.16939     0.17642  45.85421     20.23853    9448.4524   -93.46619  0.63243  3712.59477  0.09622  56293.80481  51.86302  21.04787  20.97578  56459.47814 
    12.85938  1.55016  25.50877       0.47613         5658.66283  0.45494  0.07417     0.03444  21.71151     17.28015   8867.95041   -65.77895  1.06296  2650.78709  0.00011  56321.49205  51.51398  35.44512  20.90875    56487.121 
    14.65337  1.74776  23.15794       0.67423         3341.41871  0.49316  0.11343     0.03672  28.14366     19.59848    5816.1014   -97.16822  0.76385  2397.25437  0.02204  56290.10278  51.44709  40.27392  20.91111  56484.35671 
    13.55882  1.75713   4.01631       0.95926         2534.44675  0.32165  0.18742      0.0776  93.71795     16.28324   7477.36173  -132.94728   1.4403  2593.65251    1e-05  56254.32372  51.59936  31.86289  21.00107  56465.00671 
    14.64376  1.10852  27.39163       2.19576         3323.96006  0.33519  0.08628     0.05239    42.461     18.57385     6258.129   -76.73205  0.61485  2455.13404  0.00208  56310.53895  51.49834    29.367  21.05248  56484.35671 
    12.34735  1.38053   18.1575       1.27693          3545.0375  0.49673  0.13977     0.03224  38.02304     16.80972   8109.26406   -88.74315   0.2774  2475.25747    4e-05  56298.52785  51.49744  42.72668  20.87838  56478.82814 
    14.74414   1.2927  29.69898        0.9147         2559.37012  0.38391  0.11814     0.02005  42.10735     16.21237    5895.8909     -95.333  0.37253   2913.0721    1e-05    56291.938  51.64629  33.58894  20.82996  56534.11386 
    12.09625  1.56016  19.06242       4.82944         3206.91826  0.40386  0.11926     0.03193   42.4266     17.22457   9916.07993   -98.83551  0.96645  2436.53407    9e-05  56288.43549  51.49168  35.37869  20.94693  56489.88529 
    13.35279  1.91964  14.45614       0.84909         4695.67329   0.3077  0.07641     0.47651  62.34751     16.06856   6738.36211  -122.82407  0.96518  1722.81474    1e-05  56264.44693  51.21737  28.66804  20.99349  56492.64957 
    14.16897  1.52243   5.42383       4.22559         2477.55439  0.28416  0.07953     0.01139  65.31026     16.93652   7332.50384  -125.86064  0.64587  1533.95032    5e-05  56261.41036  51.11963   26.6653   20.9262  56495.41386 
    13.75572   1.8699  28.32857       0.26516         2985.23922  0.38209  0.11683     0.02683   60.6559      16.1167   4210.62507   -89.37947  0.36151  2646.19901    1e-05  56297.89153  51.58828  35.44637  20.95517    56467.771 
     13.0165  1.94828  26.36258       4.09525         2326.04711  0.27051  0.08256     0.01646  83.92351     19.79535   9976.57207  -117.54001  1.26442  2545.08238  0.03468  56269.73099  51.57588  26.36567  20.91296    56467.771 
    14.27009  1.94392  29.50339       4.77366         2273.74526   0.4863  0.15037     0.03083  45.92171     17.88467    7150.3458  -140.77487  0.46056  1995.25799  0.00043  56246.49613  51.32377  43.15643  21.06494  56492.64957 
     12.8486  1.59146  18.67234       0.53298         5938.47555  0.36643  0.06897     0.16668  99.03658     18.36217   3885.75053  -135.02683  1.07642  1178.81725  0.00128  56252.24417  50.91791   36.5919  20.92511  56500.94243 
    13.10958  1.96397  15.96407        0.0218         5259.07227  0.33802  0.10757     0.24804  51.32015     19.47422   8819.95405  -105.91063  0.97364  2882.54252  0.01656  56281.36037  51.65112  30.54133  20.94695  56470.53529 
    12.76407   1.7187  24.98967       4.18257          2910.0698  0.25683  0.07787     0.01376  48.45221      19.4082   4967.21752   -80.53394  0.06217  3575.20324  0.01422  56306.73706  51.83415  22.99175  20.81724  56556.22814 
     14.9926  1.60375   7.82263        0.1518         5175.75721  0.40776  0.11283     0.02981  70.47178     19.82144   7236.81994  -126.45834  1.44997  1948.27982  0.03683  56260.81266  51.33237  38.71187   20.5137  56600.45671 
       13.71  1.85557   7.49951       0.00702         5650.12568  0.19897  0.06375     0.03977  72.72799     19.03518   7696.42276  -100.16967  0.76725   2837.1989  0.00602  56287.10133  51.66093  18.98043  20.93892  56478.82814 
    14.40207  1.89924  14.49515       3.71354         2874.46923  0.43977  0.13732     0.16469  18.74098     19.69316   5995.95755   -46.72877  0.77012  4965.21866  0.02741  56340.54223  52.04708  33.32751  20.94464  56500.94243 
    12.21683  1.71677  12.61698       0.11048         4083.69334  0.45081  0.12177     0.12403  26.20478     17.92078   5707.78496   -71.52384   0.0924  3470.46027  0.00046  56315.74716  51.76291  36.34985  20.83918  56534.11386 
    13.64969  1.66035  26.61527       3.39859         2111.43764  0.32322  0.07597     0.16498  55.52212     20.76248   5126.07873    -90.9898  0.55358   4004.3245  0.32152   56296.2812  51.94206  29.57119  20.97689    56474.217 
    12.49707  1.83473  28.89405       4.51222         2873.17723  0.22014  0.05619     0.05698  48.15405      17.2439   7241.26771   -63.89442  0.34835  3434.71133   0.0001  56323.37658   51.7989  19.68788  21.05788  56478.82814 
    12.89139  1.58327  27.98201       1.62913         2272.57781  0.41203  0.08342     0.01871  19.93983     17.36676   3501.33367   -35.07183  0.85342  5306.89038  0.00013  56352.19917  52.10999   31.5947  20.99325  56478.82814 
    12.76599  1.64238    8.1867       2.21272         3202.01804  0.33851  0.08119     0.47159  29.13438     17.72036   7205.92077   -85.09943  1.24801  2626.62028  0.00029  56302.17157  51.52911  27.81328  21.10567  56462.24243 
    12.87882  1.68452   2.28661       0.59421          5769.0771  0.47057  0.11894     0.24501  13.47316     20.32348    7294.8712   -54.03049  0.72305  3473.22837  0.11701  56333.24051  51.70842  33.41547  20.97016    56456.201 
     12.0117  1.84947  15.75249       4.73156         2384.45154  0.13961  0.03091     0.01367  65.21641      17.5491   7585.95034   -46.49686  1.36529  4157.01947   0.0002  56340.77414  51.98548  13.09802  20.93642  56478.82814 
    12.91982  1.88377   6.11909       0.03461         2623.28912   0.3087  0.09612     0.35121   72.2375     19.53728   7612.26023  -103.72817  0.36881  2627.56859  0.01914  56283.54283  51.59381   29.4182  21.06147    56450.329 
    12.35479  1.44294  13.69069       0.79582         2282.19022  0.24437  0.07201     0.01351  98.43001     16.90582   8049.32389   -98.81394   0.7018  2444.64501    4e-05  56288.45706  51.55106  24.38103    21.085    56452.312 
    12.18007  2.03934  19.71723       1.49073         3083.92914  0.35083    0.064     0.08427  29.90876     20.40776   9485.63629   -49.10325  0.42768  3848.60022  0.14207  56338.16775  51.86292  28.95886   21.0521  56451.18529 
    14.33822  1.79753  17.57354       0.33656         5830.44226  0.28311  0.06794     0.07337  70.00336     16.56977   4454.93392  -102.98304  0.55888  1901.92161    2e-05  56284.28796  51.31102  26.85127  21.00079  56481.59243 
      13.378  1.75574  13.90901        4.0526         2496.43169  0.11113  0.02278      0.4731  71.00279     16.70781    4263.4123    -31.6641   0.5953  5434.45481    3e-05   56355.6069  52.22388  10.56306  21.01209    56471.196 
    14.27549  1.52561  29.12115       4.49535         2061.48127  0.17044  0.03769     0.44434  55.85582     16.59644   4225.47072   -36.30483  0.40915  4611.47927    2e-05  56350.96617   52.0651  15.60812   20.8246  56558.99243 
    13.92929  1.42221  21.94814        3.3228         3233.37958  0.46743  0.11783     0.01523   54.8689     19.79606   6045.41126  -130.48279   0.7579  1547.59206  0.03474  56256.78821   51.1155  42.68529   20.8966  56534.11386 
    14.09044  2.07463   2.55963       3.06106         2232.84416  0.28049  0.29806     0.01112  62.62969     20.65168   7302.83278  -125.23654  0.26834  3062.66024  0.24912  56262.03446  51.71739   26.1505    21.022  56476.06386 
