 log(Bfield)      Mns    Pspin  cutoff_power  cutoff_wavelength  fnickel    kappa  kappagamma   mejecta  log(nhhost)  temperature  texplosion  thetaPB      vejecta      A_V        MJD_0   log(KE)      M_Ni  Peak_mag     Peak_MJD 
     13.8353  1.75354  1.12294       0.86986         2457.64783  0.01294  0.12105     0.44763  24.03714     16.50059   6050.65112   -61.82435  1.18225   8654.57827    2e-05  58632.63565  52.54985   1.02696  19.27113  58708.10986 
    13.95367  1.82495  0.82875       0.46865          2757.4497  0.00792  0.05968     0.10512  53.05239     20.29124   6668.75461   -70.64588  0.80503   8060.40182  0.10864  58623.81412  52.54658   0.71951  19.38086     58714.48 
    14.00797  1.82097  0.71515       4.06065         2578.57089  0.45536   0.1911       0.048  19.19242     20.64214   3515.11875   -41.24309  1.09378  10943.83265  0.24371  58653.21691  52.73551  34.66583  19.33222  58715.54365 
    13.76195  1.48061  0.71391       1.66994         2284.81774  0.08465  0.14747     0.06488  17.76672     18.87639   4152.00174   -64.06169  1.40637   6683.02813  0.00418  58630.39831   52.3007   6.34953  19.36785  58715.54365 
     13.9215  1.77389  1.05049       0.02805         4401.87183  0.06131  0.05522     0.01789  60.98114     17.61856   3950.86104   -56.40817  1.05063   9898.07205  0.00023  58638.05183   52.7345   5.69231   19.3528  58715.54365 
    14.09355  1.59609  1.93331       0.38742         2080.42399  0.39767  0.02225     0.01032  70.85698      16.1431   3897.11902   -37.74873  1.40527  13530.47444    1e-05  58656.71127  53.01606  37.78585   19.3308  58702.58674 
    13.93379  1.96914  1.09445       1.89358         2553.95617  0.03663  0.13066     0.03915  22.76397     19.10235   4183.74623   -59.62395  1.55449   7401.28998  0.00703  58634.83605  52.40964   2.87936  19.33153  58715.54365 
    13.84834  1.83042  0.96903        3.6359         2101.02774  0.40796  0.26747     0.03147  12.67479     20.54005    3367.6861   -53.39153  1.53411   8821.52975  0.19265  58641.06847  52.51261  28.60966  19.32983  58708.10986 
    14.12852  1.92172  0.96716       0.63016          2725.1368  0.02202  0.04663     0.23993  71.14299     19.49737    9953.2813   -61.69237  0.64658   8670.61026  0.01746  58632.76763   52.6298   2.09318  19.30125     58711.42 
    14.09149  1.78726  0.77414       0.05098          5900.7698  0.00234  0.04984     0.02721  52.45321     16.84282   7085.74432   -64.97437  0.61067     7558.049    4e-05  58629.48563   52.4899   0.21245  19.30641     58714.42 
    13.83248  1.65565  1.01574       2.67968         2608.54095  0.07777  0.12884     0.49798  23.87433     18.39478   3208.48228   -57.42925  1.55135   7638.22755  0.00138  58637.03075   52.4408   6.16585  19.36914     58711.42 
    14.00504  1.95728  0.92002       1.71265         2308.66911   0.1849   0.1076     0.05931  24.45754     19.99335   3998.51074   -46.11026  1.46762   8722.54895  0.05471  58648.34974  52.55801  14.72443  19.34659     58711.42 
    14.31791  1.75065   0.9798        1.8562         2190.54242  0.16383  0.08869     0.01417  42.16495     18.72386   4028.82921   -64.46213  0.35585   9487.86192  0.00294  58629.99787  52.67203  14.33655  19.32013  58702.58674 
    14.00271  2.16442  1.33348       3.93446         2087.81617  0.01178   0.1206     0.15468  23.69273      16.2807   5860.49354   -47.78519  1.50458   8650.12119    1e-05  58646.67481  52.54826   0.93271  19.33022     58712.44 
    14.12847  2.02598  0.78209       0.04496         5435.42287  0.12241  0.10394     0.01561  28.14495      17.8765   8485.50057    -74.0566  0.68151   7188.32504  0.00042   58620.4034  52.40092   9.99652  19.35186  58717.63137 
    13.93202  2.06716  1.07224       0.03211           5935.844  0.02252  0.18912     0.45807  15.53338     16.16156   4582.81871   -62.61643  1.52036   8439.28203    1e-05  58631.84357  52.49197   1.64534  19.37869  58717.63137 
    14.03044  1.51477  3.24108       2.33735         2492.84997  0.38062   0.0168     0.01065  78.60839     17.68919   4512.75527   -41.60811  1.32252  12476.28301  0.00027  58652.85189  52.95241  36.73755  19.34754  58713.63298 
    13.92686  1.60012  0.94604       1.11025         2808.08126  0.00849  0.07446     0.18955  36.67796     16.17885   7075.85818   -58.86743  0.80773   7608.67939    1e-05  58635.59257  52.47018   0.72621  19.32746     58705.48 
    13.74981  1.44606  0.76742       0.04811         4442.15495    0.007  0.04103     0.41497  66.71963     17.80702   3119.97037   -70.03886  1.03374   7148.36262  0.00036  58624.42114  52.45785   0.65864  19.37972  58715.54365 
    13.77364  1.66192  1.07774       0.51082         2523.50091  0.03376  0.06263     0.02152  54.10721     18.76998   5361.43427   -62.89771  1.53389   8937.14827  0.00327  58631.56229  52.63763   3.07619  19.39984     58711.42 
    14.00696  1.75948  1.19626       2.03396         2271.47335  0.01365  0.15099      0.3384  22.72871     18.39016   6880.07003   -68.47083   0.6289   8996.63289  0.00136  58625.98917  52.57907   1.07251  19.33298      58713.5 
    13.84065  1.58421  0.88146        1.8578         2515.60727  0.06343  0.11639     0.25694  31.64738     19.40928   9638.34925   -51.98235    1.198   9316.91555  0.01426  58642.47765  52.63514   5.28771  19.37061     58714.48 
    14.20356  1.92555  0.80344       0.10974         2058.31744  0.00437  0.07035      0.0992  48.74402     19.59424    5421.6079   -72.24435  0.49588   8018.95125  0.02183  58622.21565  52.53621   0.39177  19.27154  58697.06363 
    13.97035   1.7859  0.95001       1.27483         2178.21839  0.00784  0.20485     0.11974  12.54229     17.14033   3169.21103   -72.57822  0.77268   6638.17508    8e-05  58621.88178  52.26467   0.54867  19.34423  58717.63137 
    13.93446  1.90566   0.7787       0.07363         4981.06705  0.00393  0.10842     0.15797  28.79197     18.26324   8496.96348   -68.68129  1.11985   7328.41013  0.00102  58625.77871  52.41943   0.32236  19.32706      58713.5 
    14.02021  1.91931  0.91526       2.78183         2668.60358  0.00719  0.05381     0.07857  71.49216     18.47702   4377.63486   -51.15738  1.04342   8515.47408  0.00167  58643.30262  52.61444   0.68417  19.32483  58708.10986 
     14.5133  1.65564  1.18741       4.42345          2354.5043   0.0245  0.25086       0.272    9.0885      19.7874   9671.47306   -39.38281  0.21296   7957.42165  0.03405  58655.07719   52.3922   1.59997  19.33738     58711.42 
    14.01335  1.97473  1.22705         1.677         2476.00708  0.36507  0.29857     0.07398    9.8006     17.11763   8940.24764   -62.28564  0.93364   7786.84332    7e-05  58632.17436  52.38058  24.24412  19.23956     58694.46 
    14.13425  1.95794  0.99947       1.83318         2797.17828   0.0042  0.07842     0.46002  36.97568     17.03798   9006.66866   -57.23188   0.7041   7151.18481    6e-05  58637.22812  52.41692   0.35969  19.31548      58713.5 
    13.73767  1.67321  1.44652       0.17228          5005.6842  0.10324  0.15523     0.02328  11.05895     18.10967   3598.69406   -69.46505  0.94646   7002.90755  0.00072  58624.99495  52.29969   7.03644  19.36959     58711.42 
    14.02959   1.8921  1.02336       0.69876         2496.30156  0.00142  0.14843     0.21651  16.32297     17.22817   4310.00853   -61.01034  0.78691   7189.27576    9e-05  58633.44966  52.35697   0.10511  19.29749  58715.54365 
    13.97452  2.15996  1.48207       2.97259         2057.32419  0.00222  0.09225     0.37842  25.51612     19.29381   3814.38451   -52.44266  1.19917   7839.96667  0.01093  58642.01734  52.46868   0.17777  19.31252     58711.42 
     13.7614  1.48031  0.88427       0.00154         4569.77644  0.03134  0.16691     0.07439  16.38959     18.29119   9288.33364   -65.13237  1.01534   7863.94379  0.00109  58629.32763  52.43523   2.31449   19.3742     58714.48 
    14.01389  1.97474  0.87684       2.39964         2134.99104  0.02857  0.07508     0.05237   46.4832      16.2473   3649.18181   -67.34375  0.95926   7975.60993    1e-05  58627.11625  52.52816   2.54073  19.33793     58711.42 
    14.54677  1.94391  1.10156       1.19698         2164.61695  0.34922  0.11262     0.01463  27.32528     20.20962   4987.53114    -62.6216  0.22177   8786.28402  0.09002   58631.8384  52.57299  28.36954  19.29987  58708.10986 
    14.25417  1.67641  0.80031       0.02175         3227.00833  0.00522  0.13003     0.04258  26.90357       18.666   6683.39577   -64.11431  0.35498   8065.94458  0.00257  58630.34569  52.49749   0.42314  19.30938     58712.44 
    13.94885  1.74956  0.86412       0.05142         4321.61068  0.01628    0.045     0.18473  68.68073     18.84829   6186.65813   -68.29293  0.86744   7476.23358  0.00392  58626.16707  52.49873    1.5395  19.33072     58711.42 
    13.61519  1.53201  1.51707        1.8367         2449.44768  0.00279  0.15833     0.02045  12.82741     18.16145   4671.56941   -64.35152  1.18542   7330.63846  0.00081  58630.10848  52.35287   0.19626  19.27694      58713.5 
    13.96858  2.01971  0.97116       0.22252         3572.01446  0.00726  0.06327      0.4306  42.97962     20.01125   4829.26633   -70.22719  0.98507   6979.86077  0.05701  58624.23281  52.40675   0.63769   19.2833  58705.55481 
    13.94578  1.87694  1.05156       3.09689         2019.40406  0.02773  0.04434     0.04936  74.54734     16.91843    8086.4672   -51.09835  1.29167   9035.16712    5e-05  58643.36165  52.66865   2.65551  19.32659     58712.44 
    13.74814  1.24187  0.85018       0.00618         5527.86578  0.03565  0.11388     0.01326  24.63674      17.6497   4772.15546   -71.19373  0.65808   7210.14783  0.00025  58623.26627  52.39319   2.84307  19.37193     58714.48 
    14.06798  1.61933  0.70941       2.17781         2234.69275  0.03231  0.11657     0.46036  33.25479       19.837    3138.7965   -47.42514  0.66752  10088.01085  0.03817  58647.03486  52.70792   2.71647  19.35382     58711.42 
    14.21254  1.81185  0.79847       0.11535         5731.35468  0.01604  0.07022      0.0212  42.23195     16.05858   5520.82035   -71.31649  0.45007   7430.71091    1e-05  58623.14351  52.45986   1.40417  19.31745  58702.58674 
    13.99367  1.88925  1.05352       2.83435          2343.5296  0.00516  0.19938     0.44307  14.45068     20.20464   5975.26459   -48.55691  0.94119   8237.89848    0.089  58645.90309  52.46474   0.37137  19.31612  58708.10986 
    13.93343  1.98286  1.05488        0.9924         2540.94442  0.20508  0.11223     0.01395  28.39715     19.83626   4686.78819   -78.16012  1.06826   7524.19444  0.03811  58616.29988  52.44127  16.77392   19.3677  58717.63137 
    14.03382   1.8547   1.1951        1.8355         2552.46279  0.00191  0.13439     0.08551  25.55319     18.61287   7668.48186   -51.11693  0.77147   9058.45582  0.00228  58643.34307  52.59428   0.15355  19.32407     58712.44 
     13.8955  1.86275  0.74595       0.32515         3179.51288  0.02404  0.04261     0.27043  72.66255     19.95195   3920.95881   -63.86445  1.56403   7890.16674  0.04974  58630.59555  52.54926   2.29262  19.29247      58698.5 
    13.79153  1.44957  0.92895       1.35894         2000.56045  0.01925  0.15468     0.34302  19.65514     19.88795    4293.7995   -52.89896  0.91721   8910.06439  0.04292  58641.56104   52.5589   1.47177  19.30696     58711.42 
    13.94331  2.03083  1.38226        1.5477         2333.59169  0.01832  0.12276      0.1666  18.38121     17.22204    6464.6358   -52.33629  1.27034   7892.59977    9e-05  58642.12371  52.44804   1.38321  19.27697  58708.10986 
    14.33244  1.78461  1.45714       3.32698         2003.39834  0.02631  0.25839     0.18747  10.65958     16.95264   4778.85024   -52.81576  0.29158    9457.2343    5e-05  58641.64424  52.55725   1.77886   19.3616     58714.42 
    14.22726  1.46651  1.17844       1.89378         2815.26092  0.04908  0.14613     0.03781  18.58905      19.9863   7612.48033   -51.24563  0.28959   8592.53057  0.05383  58643.21437  52.52277    3.7138  19.34827     58714.42 
    13.95022  1.73988  0.81357       0.48726         2750.37539  0.00206  0.08136     0.17676  50.18089      16.6154   5363.67303   -66.15809  0.85304   8599.75352    2e-05  58628.30191  52.59898   0.18536  19.33335  58713.63298 
    13.92779  1.54968  0.73008       0.23978         3463.04037  0.02835  0.03646     0.05772  83.84514     19.60601   3472.25964   -56.01914  0.86515   8665.75062  0.02243  58638.44086  52.64003   2.76323  19.32404  58713.63298 
    13.77147  1.57191  4.01047       0.61599         4070.19125  0.43642  0.01146      0.3113  47.49635     17.74263   5690.57609     -34.295  1.44415   9177.65277  0.00031    58660.165  52.65161  38.94328  19.27466     58712.44 
    14.08268  1.83486  0.78691       0.07639           3059.475  0.01332  0.03289     0.02268  88.79199     17.70886   9955.00161   -56.39978  0.73989   8089.91598  0.00028  58638.06022  52.58398   1.30914  19.32175  58717.63137 
    13.85032  1.52161  0.88813       1.57229         2223.77238  0.04243  0.17234     0.42515  20.12547     16.50899   5643.21585   -57.67393  0.93275    9032.9326    2e-05  58636.78607  52.57273   3.25926  19.37431     58711.42 
    14.24688  1.63974  1.21826       0.36634         2767.14855  0.03783  0.13032     0.31186  23.71762     19.61505   3732.82449   -54.72001  0.31752  10542.92093   0.0229  58639.73999  52.72022   2.99553  19.30148  58708.10986 
    13.63829  2.00242  2.25735       2.15139         2918.25931  0.03575  0.17004     0.01934   8.95422     18.16059   3084.53403   -57.69926  1.46715   7965.83811   0.0008  58636.76074  52.39169   2.32762  19.34434     58711.42 
    14.20561  1.86032  0.75865       1.13087         2837.27602   0.0216  0.17086     0.02014  19.22641     20.86718   8099.11714   -70.79896  0.32931   8063.66258  0.40917  58623.66104  52.47038   1.64467  19.32839     58705.48 
    14.02194  1.69422  1.19673       3.60687         2576.95566  0.02633  0.12555     0.08781  19.59934     19.61038   3145.74208   -47.01462  0.72301   7833.62285  0.02265  58647.44538  52.44683   2.01252  19.34941  58717.63137 
    14.13362  1.42799  1.35111       1.23292         2790.60482  0.30209  0.15194     0.08109   16.3528     20.41112   4327.51329   -47.73313  0.31111  11215.29869  0.14317  58646.72687  52.74338  22.29788  19.36434  58715.54365 
    13.85821  1.82388  0.74941       0.27839          2086.2762  0.03101  0.06181     0.02094  51.33691     16.35764   5123.49148   -71.66616  1.53475    7666.0865    1e-05  58622.79384  52.50074   2.80195  19.36562  58713.63298 
    14.20607  1.64326   1.1735       1.37004         2284.83356  0.04924  0.21081     0.02047  17.57684      18.8133   5470.22519   -81.22546   0.2815   8226.55732  0.00361  58613.23454  52.48029   3.68585  19.29691     58711.42 
    14.04709  1.86235  1.13427       0.21715          2502.2395   0.2919  0.08643      0.0149   34.9134     16.71673   9795.30266   -59.81358  0.86141   9428.75244    3e-05  58634.64642  52.65284  24.74796   19.3234     58711.42 
    13.86431  1.79663  1.18928       0.06068         5117.42768   0.0493  0.08423     0.01243  23.63707     18.83919   5779.44138   -68.77352  0.92139   6673.96099  0.00384  58625.68648  52.32279   3.90181  19.33328  58719.15609 
    13.91263  1.78339  1.13706       1.91569          2340.7631   0.0684  0.14865     0.32759  17.41249     16.69485   4283.65647   -48.82721  1.31582    8322.1964    3e-05  58645.63279  52.48954   5.11123  19.30207      58713.5 
    14.02626  1.85414  1.47491       1.29104         2711.43726  0.02961  0.04817     0.01986   56.5096     19.68172    3994.3074   -47.43908  0.73393  10149.12776   0.0267  58647.02092  52.75107     2.717  19.29652     58705.48 
    14.06832  2.05458  0.74955       1.55337         2315.02956  0.00104  0.11997       0.145  28.34749     20.03672   8449.40727   -64.73873  0.88306   7519.87329  0.06046  58629.72127  52.44064   0.08467  19.33988     58711.42 
    14.13396  1.68094  1.22877       1.74153         2147.29015  0.07103  0.10848     0.02244  27.28669     18.88698   7032.92744   -65.26485  0.41595   8578.96172  0.00428  58629.19515  52.55214   5.76915  19.33885      58713.5 
    14.06084  1.72845   1.1327       1.38076          2165.0902  0.00502  0.23837     0.01588  14.03306     19.76373   3390.40776   -88.42608    0.405   6843.27626  0.03224  58606.03392  52.30107   0.35909  19.30451  58708.10986 
    14.12702  1.66821  1.80731        2.2909         2552.43848  0.28753  0.21714      0.0543   9.83227     16.66781   3102.93136    -54.9714  0.37355   9197.37819    3e-05   58639.4886  52.52549  19.10783  19.31407     58711.42 
    13.72806  1.73256  1.43178       0.07068         3632.50601     0.04  0.06812     0.01261  32.42187     17.30789   5015.44143   -65.20454  1.40977   7902.34239  0.00011  58629.25546  52.49392   3.34839  19.34688  58715.54365 
    14.21669   1.6911  0.73527        0.1544         5098.87819  0.07183  0.08807     0.15244    34.274     17.12125   3917.47731   -68.59952  0.42742   7508.80051    7e-05  58625.86048   52.4537   6.07072  19.34844  58705.55481 
    13.72875  1.53734  0.86339       0.26872          2270.7368  0.02501  0.04619     0.01723  65.46511     19.40846   8278.58558   -67.75497  1.41014   8317.35305  0.01423  58626.70503  52.58814   2.34762  19.27195  58702.58674 
    13.96671  1.89294   1.1415       3.41114         2244.98665  0.13024  0.10406     0.28817  24.01016     17.34309   9370.84512   -50.59176  1.16293   7739.48957  0.00012  58643.86824  52.45269  10.33693  19.32658     58714.48 
    13.82158  1.68273   0.9708       0.46612         4770.32136  0.02403  0.06691     0.01174  30.59113     16.19617   5215.45151   -73.14284  1.01147   5885.74166    1e-05  58621.31716  52.23363   1.99132  19.29907  58708.10986 
    13.85464  1.67335  1.14357       0.01375         4788.78383  0.02135  0.05936      0.1639  55.67007     17.17773   3655.74936   -53.80304  1.03631  10223.10179    8e-05  58640.65696  52.75635   1.95388  19.26951  58702.58674 
    14.12735  2.07508  0.95353        0.7922         2572.35953  0.00936  0.14867     0.01858  22.82422     19.23984   7230.18526   -68.38004  0.69899   7006.96014  0.00965  58626.07996   52.3623    0.7363  19.31694     58714.42 
    14.05054  1.65112  0.84686       0.00238         4784.28959  0.01879  0.03167     0.40985  94.23624     19.14615   3315.40106   -63.80952  0.59039   8235.26202  0.00778  58630.65048  52.60324   1.86309  19.30644  58708.10986 
    14.64606  1.55021   0.7777       2.05216         2086.27939  0.10474  0.14686     0.03808  18.94273     18.42266   9046.77036   -53.73586  0.14621   7648.04379  0.00147  58640.72414  52.42319   7.95389  19.34087     58705.48 
    14.09871  1.61866   1.1572       2.01998         2305.67617  0.13371  0.14323     0.01446  21.99299     16.93726   5525.80521   -90.72334  0.35838   6983.71829    5e-05  58603.73666  52.35644  10.44255  19.33133     58711.42 
    13.96816  1.98273  1.23234       1.91499         2313.13359   0.0034  0.07062       0.039  42.12439     16.28873   3282.11864   -50.21465  1.13379   8599.07437    1e-05  58644.24535  52.58652   0.29754  19.32419     58711.42 
    14.04112  1.99264  1.17945       0.03897         5720.75221  0.03455  0.12206     0.17349   24.2041     18.11278   3549.91502   -62.76261  0.77413    8503.0457  0.00072  58631.69739  52.53505   2.74613  19.35533  58717.63137 
    14.01804  1.87613  0.80199       1.61695         2208.85121  0.00165  0.12885     0.03085  30.18041     16.97311   3366.36287   -60.49633  0.88402   8418.22493    5e-05  58633.96367  52.54344   0.13614  19.35967  58708.10986 
    14.18856  1.93084  0.72675       2.83722         2398.22128  0.21971  0.16665     0.33063   22.3544     16.09493   4759.75384   -45.29228  0.80416   9591.74107    1e-05  58649.16772  52.63337  17.21102  19.32301     58711.42 
