 texplosion  fnickel    Pspin  log(Bfield)      Mns  thetaPB   mejecta    kappa  kappagamma      vejecta  temperature    alpha  cutoff_wavelength  log(nhhost)      A_V         MJD0   kenergy  mnickel            TSD   log(L0)  Peak_mag     Peak_MJD  log(E_rad)  log(Peak_lum)  Rise_Time    E_fold  tau_1  delta_m15     r_peak     frac 
   -14.3031  0.11558  0.71424     14.30766  1.75972  1.27634  30.96622  0.10257     0.28722  11713.37984   5465.66896  3.97066         2850.17969     18.41539  0.00145   58542.1369  25.34427  3.57898     20212.2821  48.50099  19.42929     58588.08    51.26729       44.41237   22.12805  59.00813   56.0    0.13927  -21.87986   0.9955 
  -25.19389  0.18763   2.8146     14.03324  1.53834  0.60707   6.69832  0.18937     0.03806  10223.50226   6278.64077  3.19172         2912.26456     16.79707    3e-05  58531.24611   4.17631   1.2568   971009.89629  45.56984  19.37095  58586.07867    51.21928       44.42801   32.21193  48.92425   50.0    0.16038  -21.85328  0.93981 
  -18.55443  0.17853  2.79907     14.11417  1.82983  0.93099   7.32243  0.19794     0.05254  10554.62227   5048.10037  3.22328         2919.01265     19.90444  0.04458  58537.88557   4.86595  1.30731   786887.95225  45.74132  19.34208  58588.66765     51.2109       44.40374   32.57835  47.37408   49.5    0.17206  -21.90667  0.95226 
  -23.63382  0.47891  3.05553      14.2618  1.85435  0.22923   5.39703  0.19867     0.01611  10078.06845   4748.46333  3.58598         3089.51856     20.11278  0.07203  58532.80618   3.26991  2.58471   481475.03609  45.88429  19.33993  58589.46118     51.1837       44.39747    31.6854  47.11633   48.0    0.20748   -21.9631  0.88999 
  -14.52517  0.11942  1.20459     14.37339  1.83658  0.86574  18.12938  0.14892      0.1247   10973.3043   4314.72977  3.91073         2961.03953     18.83881  0.00383  58541.91483  13.02221  2.16501    44333.37346  47.72445  19.35472  58586.07867    51.21764       44.42147   30.99144  48.30073   52.0    0.12173  -21.80709   0.9869 
  -20.48155  0.04459  2.74103     14.06625  1.98909  0.94358   6.49975  0.19526     0.07524  10931.75181   6530.22908   2.9186         2851.61188     20.63837   0.2416  58535.95845   4.63344  0.28985  1022806.18051  45.68188  19.37997  58589.46118    51.22568       44.44117    26.2541  49.35007   50.5     0.1741  -22.11236  0.99065 
  -20.48877  0.10993  3.32295     14.11679  1.75498  0.61086   5.21254  0.20646     0.10934  10675.59381   4797.93822  4.08466         2902.78897     17.52719  0.00019  58535.95123   3.54373  0.57303   1050900.0908  45.44851  19.39309  58591.25663      51.206       44.38782   35.03608  49.78811   55.5    0.18476  -21.86154  0.96758 
   -9.05389  0.08775  1.33016     14.21325  1.80368  0.88553  15.05694  0.11043     0.02188   9970.00671   7406.56115  2.96286         3212.65516     20.88849  0.42976  58547.38611   8.92801  1.32122   110987.80442  47.23192  19.36271     58588.08    51.21852       44.42246   31.78611  49.35007   46.5    0.15429  -22.23584  0.98883 
  -19.01366   0.2899   2.3371     14.46616  1.81141  0.46375   9.24048  0.22196      0.1424  11020.28096   5030.06837  4.32461         2873.23122     16.21697    1e-05  58537.42634   6.69433  2.67878   107365.39631  46.75864  19.31668     58588.08    51.20672       44.43595   31.34384  46.10433   53.0    0.14753  -21.86981  0.93274 
   -10.9214  0.09775  0.89272     14.42649  1.88558  1.05172  33.83491  0.06449     0.07019  11000.39809   4920.67132   2.5294         3190.52963     19.34081  0.01218   58545.5186  24.42356  3.30723    19575.14902  48.35116  19.42415     58587.38    51.24904       44.44578   29.50407  51.63211   49.5    0.15657  -21.79755  0.99329 
   -20.7412  0.44639   2.9217     14.18546  1.74819  0.81847   8.30183   0.1845     0.03923  10513.90293   4740.15614  4.11272         2922.12579     18.12914  0.00075   58535.6988    5.4743  3.70586   589874.53166   45.8094  19.40227  58588.66765    51.21189       44.41268   30.98432  51.99586   51.5    0.15389  -21.84379  0.85793 
  -22.87835  0.12843  2.83661     14.03582  1.61936   0.8414   7.08322  0.19994     0.08296   9636.60218   6144.72427  4.00797         3019.66079     18.34468  0.00123  58533.56165   3.92379  0.90967  1025937.86529  45.56147  19.38339  58587.48044    51.18797        44.4018   33.18785   46.1583   54.5    0.15699  -21.80201  0.95856 
  -21.65869  0.47465  3.09253      14.0221  1.75867   1.3422   6.46744  0.21362     0.08161  10804.52884   4409.08547  4.04416         2857.47835     17.71629  0.00029  58534.78131   4.50372  3.06978  1410676.40501  45.38398  19.39754  58589.46118    51.21867       44.43132   22.12805  53.47612   54.0    0.16951  -21.85417  0.86742 
  -16.12787  0.01383  0.83765     14.38762  1.66543  0.68057  32.05946  0.10219     0.28006  11050.58836   6684.86697  4.12579         2893.03583     18.93028  0.00473  58540.31213  23.35362  0.44326    18206.02744  48.38404  19.34963     58588.08    51.21484       44.44512   35.03185  44.26032   52.0    0.12314  -21.77738  0.99873 
  -29.27639  0.18334  2.52059     14.06566  1.55018  0.70911   6.05482  0.25374     0.06455   8877.47303   6047.39319  3.19648          3108.1392     16.39255    1e-05  58527.16361   2.84647  1.11009   675884.75799  45.82635  19.41459      58586.3    51.23765       44.43312   32.21193  50.76825   55.5    0.14138  -21.70113  0.95751 
     -6.514  0.13242   0.9784     14.41065  1.85894  1.15528  30.15196  0.07985     0.11015  11864.32765    4091.4772  4.06386         3138.77551     19.21522  0.00912    58549.926  25.31798  3.99261     24935.4486  48.16026   19.4195  58588.66765    51.21173       44.38459   36.88008  51.63211   52.0    0.13199  -21.81915  0.98926 
  -16.98035  0.28859  2.56934     14.17403   1.8857   1.4526   8.88873  0.19075     0.07727  10377.29095    4373.1713  4.29295         2951.13451     17.42181  0.00015  58539.45965   5.70998  2.56519   518641.24174  46.00981  19.40394     58588.08      51.195       44.41121   36.87586   46.1583   52.0    0.15955  -21.80758  0.92715 
  -15.90522  0.14887  1.04199     14.34479  1.83598  1.04872  21.10859  0.11467     0.33512   11856.2034   5888.82168  1.73656         3176.49779     19.43837  0.01524  58540.53478  17.70018  3.14234    37829.07689  47.91916   19.3926  58588.66765    51.28147        44.5014    23.6083  48.30785   48.0     0.1419  -21.86906  0.98742 
   -22.2504  0.01525  2.96214     13.95974  1.59202  0.83094   3.84589  0.27767     0.14144   9605.42206   4927.53832  3.89638         2925.31357     17.16275    8e-05   58534.1896   2.11669  0.05867  1561338.87036  45.33408    19.363     58587.38    51.23974       44.45458   35.89994  47.08024   56.0    0.17744  -21.81139  0.99687 
   -8.05387  0.21057  0.70325     14.46609  1.73146  0.90519  20.84656  0.11591     0.18361  13063.33342   4884.26265  2.31983         3120.38761     17.80152  0.00035  58548.38613  21.22118  4.38975     9295.12213  48.84479  19.40691  58589.46118    51.46421       44.68328   26.67992  44.67622   48.0    0.15273  -21.77326  0.99598 
  -21.71403  0.08088  3.09961      14.2813  1.83111  0.36777   4.02672  0.23006     0.17217  11155.34974   5425.44335    2.339         2636.69688     20.09823  0.06966  58534.72597   2.98913  0.32568   447252.01517  45.89839  19.37953  58588.66765     51.2233       44.43374   22.99191  50.76825   60.0    0.18228   -21.9359  0.98465 
   -20.7004  0.07381  3.65255     14.07205  1.86923  0.64985   5.26613  0.16476     0.08404  10326.10798   4715.27258  4.99145         2941.48322     17.21784    9e-05   58535.7396   3.34959   0.3887   1661740.0775  45.19475  19.36064  58588.66765    51.23489       44.40632   34.30341    47.849   59.5    0.18798  -21.84756  0.97535 
  -18.42834  0.11164  0.86844     14.31085  1.82884  1.09902  20.51255   0.1359      0.0586  11022.55197   5257.86389  1.84905         3203.46523     18.13618  0.00076  58538.01166  14.86658  2.29002    30603.51395  48.16777  19.34677  58587.48044    51.28061       44.46605    32.0041   46.1583   50.5    0.13606  -21.85107  0.99426 
   -5.94576  0.30975  0.97795     14.37401  1.79763  1.52743   17.3621  0.14497     0.05725  12922.72345   3326.12235  4.32389         3005.64654     18.05118  0.00063  58550.49424  17.29567  5.37782    28519.25309  48.08777  19.34244     58585.05     51.2826       44.48732   31.34807  49.78811   53.5    0.13963  -21.83642  0.98539 
  -17.57091  0.33992  2.35652     14.00221  1.54452  1.47349     7.039  0.21672     0.36721  10208.67222   3800.73618  4.29974         2928.57838     19.71432  0.02878  58538.86909   4.37599  2.39268   788373.20387  45.81636  19.37153      58586.3    51.23467       44.41651   33.46935  47.66683   52.5    0.16762  -21.84327  0.92299 
  -17.83776  0.04525   1.6512     14.11202  1.73837  1.15355  12.67444  0.17926     0.10387  10688.15947   5227.61703  3.74099         2879.93681     20.44294  0.15405  58538.60224   8.63698  0.57347     262730.773  46.65388  19.36754  58586.07867    51.20419       44.42364   21.56074  52.19942   51.0    0.13994  -21.97603  0.99194 
  -23.75455  0.40307  3.07769     14.29469   1.8978  0.61979    6.8243  0.19971     0.06425   9709.78019   3511.91055  3.15629         2965.14082     17.38876  0.00014  58532.68545   3.83799  2.75064   429665.33638  45.93752  19.39763  58589.46118    51.26505       44.47611   22.74237  51.35513   55.5    0.15683  -21.78831   0.8922 
  -16.90292  0.47277   2.6192     14.13262  1.82294  1.46862   7.08391  0.25266     0.03671  10319.76206   5134.17647   4.9531         2916.49219     19.09939  0.00698  58539.53708   4.50028  3.34906   630507.61757  45.89359   19.3482  58588.66765    51.21763       44.42628   40.56386  46.10433   49.0    0.14617  -21.81942  0.89899 
  -23.54267  0.05212  2.50947     14.21077  1.62841  0.52727    9.7988  0.17764      0.0307  10055.59313   7332.48661  2.71582         3120.75587     16.00215    1e-05  58532.89733   5.91038   0.5107   360741.53895  46.12425   19.3867     58588.08    51.22395       44.42558   33.63012  49.35007   47.0    0.15406  -21.84678  0.98157 
  -13.66162  0.23798  1.30127     14.35403  1.78057  0.88389  13.09124  0.17011     0.46044  12244.28583   6717.69477  2.91316         2917.26567     19.88762  0.04289  58542.77838  11.70779  3.11548    54834.38416  47.55162  19.33099     58587.38    51.27355       44.47422   38.72409  47.94411   48.0    0.15555  -21.89069  0.97643 
  -20.99156  0.17717   3.2684     14.04097  2.01939   1.1298  10.58457  0.10065     0.01362   8063.31071   5678.43126  4.08437         3276.09913     20.42832  0.14895  58535.44844   4.10513  1.87525  1658729.05772  45.32562  19.39764  58591.25663    51.20174       44.40434   34.30341    47.849   50.5    0.16001  -21.97271  0.92145 
  -25.02352  0.04843  2.25135     13.89823  1.60434  1.21001  11.78962  0.12441     0.27816   9622.70434   5076.58835  2.88332         3023.78471     20.50458  0.17754  58531.41648    6.5121    0.571  1206516.49978  45.68772  19.37421  58588.66765    51.20135       44.38832   33.79059  49.18959   55.5    0.14859  -21.96348  0.98303 
   -8.08015  0.16058  0.85307     14.26636  1.63428  1.55671  17.14285  0.14891      0.2676  11808.04318   4572.31031  4.30505          3034.6365     17.93056  0.00047  58548.35985  14.25824  2.75282    32388.55876  48.10982  19.38306  58586.07867    51.22134       44.39496   35.03608  51.63211   49.5    0.14108  -21.78738  0.99306 
  -21.79025   0.0175  2.65123     13.94943  1.48971  0.91581   5.78936  0.24704     0.17945  10061.88051   5684.33286  4.24555         2958.58736     16.34484    1e-05  58534.64975   3.49636   0.1013   1227305.6018   45.5061  19.37271  58589.46118    51.23389       44.44434   18.44004  49.78811   52.5    0.16408  -21.81796  0.99525 
   -4.78095  0.27708  0.85314     14.43652  1.68526  0.96766   18.8775  0.12323     0.24601  13928.51631   4241.93639  2.64505         3114.96841     16.98724    5e-05  58551.65905  21.84648  5.23054     15257.5936  48.44999  19.38764  58587.48044    51.21721       44.41473   33.63012  47.56003   49.0    0.20158  -21.93641  0.99005 
  -16.17876  0.15793  2.15111     14.36684   2.1436  0.69973   9.07887  0.21885     0.32999  11151.03943   4334.61919  4.77728         2644.76155      20.5845  0.21341  58540.26124   6.73426  1.43385   170061.15443  46.70406  19.39465      58586.3    51.31085       44.53634   27.66006  47.94411   51.5    0.14061   -22.0487  0.97528 
   -5.67373  0.11586  0.80861     14.35573  1.71602  1.06722  24.58687  0.11641     0.35649  12384.62875   5952.24231  3.61334         3135.69515     19.24201   0.0097  58550.76627  22.49554  2.84871    20247.10972  48.38153  19.34244  58583.48968    51.26548       44.47059   29.50407  49.78811   48.5    0.13441  -21.99699  0.99464 
  -12.36733  0.17691  1.10837     14.31769  1.62811  0.94204  16.73757  0.13991     0.07544  10952.79235   4514.74347  3.87955         3031.07678     17.67821  0.00026  58544.07267  11.97759  2.96112    43002.76829  47.75766  19.37786     58587.38    51.24986       44.42317   35.31335  50.52707   52.0     0.1431  -21.79235  0.98286 
   -9.73302   0.3229  1.28011     14.34203  1.82921  1.51085  17.38509    0.134     0.05492  12741.58855   3724.87525  4.18913         2918.94742     18.77287  0.00329  58546.70698  16.83648  5.61366    57610.80623  47.55611  19.37194  58587.48044      51.217       44.40426   33.18785  48.96456   53.0    0.13732  -21.87892  0.96502 
  -21.77877  0.07434  3.01124     14.07688  1.69663  0.74178   5.69114  0.21597     0.18169  10202.20083   4600.47856  3.86447         2850.90041     18.53683  0.00191  58534.66123   3.53357  0.42308  1002621.92456   45.5398  19.33408     58587.38    51.21512       44.42793   35.03185   46.1583   54.5    0.17445  -21.82758  0.97924 
   -21.3019  0.07676  1.96621     14.35259  1.86838  0.65307  14.20985  0.15842      0.0723   9530.92965   3989.08817  3.63398         3018.07233     19.45712  0.01592   58535.1381   7.69994  1.09069   132242.03336  46.83168  19.37892  58587.48044    51.22369       44.41452   29.80057  51.99586   54.0    0.12558  -21.77107  0.98065 
   -3.16875  0.09735   0.8139      14.5095  2.01506  1.04687  26.59583  0.09972     0.19438  12788.35163   4261.64319  4.34668         2964.75552     18.15473  0.00079  58553.27125  25.94596  2.58901    11864.40119  48.67775  19.36809     58588.08    51.23458       44.41613   31.34807  51.63211   47.0    0.13544  -22.14716  0.99718 
  -22.80196  0.04072  1.20309      14.4235  1.82396  0.58658  23.16535  0.11506     0.18475  10822.87419   4101.01915  1.94857         2632.24185     19.08947  0.00683  58533.63804  16.18644  0.94323    34868.18416  47.82683  19.35967     58587.38    51.21672       44.42139   35.03185  48.96456   49.0    0.13349  -21.64585  0.99381 
  -17.43192  0.41616  1.59877      14.4708  1.65199  0.51129   8.20291   0.2675     0.48252  10512.20306   6493.68597  4.40619         3044.41251     16.60272    2e-05  58539.00808   5.40732  3.41372    44853.23881  47.42748  19.37742  58586.07867    51.25659        44.4557   36.31277  48.51141   55.0    0.12733  -21.83813   0.9542 
  -30.26203  0.00294  2.99327     13.97021  1.97821  1.51136   6.36742  0.22253     0.05446   9526.86754   3954.49244  2.51523         2756.81916     16.50712    2e-05  58526.17797   3.44739  0.01873  1887846.42399  45.33686  19.37357     58587.38    51.26182       44.43302   22.12805  55.32012   52.0    0.15082  -21.74339  0.99927 
  -10.56175  0.09152  1.15985      14.2583  1.77944    1.554  18.69264  0.14404     0.39336  11434.20806   5309.01852  4.58592         2908.16547     19.42801  0.01488  58545.87825   14.5784   1.7108    67654.87541  47.56003  19.38267      58586.3    51.32084       44.51018   35.03608   46.1001   50.0    0.15258  -21.78167  0.99024 
  -16.32534  0.15478  1.31629     14.41026  1.81017  0.69533  12.77001  0.21526     0.15674  11244.53721   3327.50046  4.84916         2790.70734     18.30227  0.00111  58540.11466   9.63167  1.97655    44027.65968  47.64413   19.3988  58591.25663    51.25891       44.48217   35.89994  45.35998   52.0    0.14178  -21.84021  0.98456 
  -13.48207  0.33326  1.14294     14.43292  1.56177  0.59712  16.52977   0.1294     0.39641  12059.39856   5463.02558  2.55324         3041.43049     20.08784  0.06801  58542.95793  14.33987  5.50875    25800.64267  47.93479  19.40766  58589.46118    51.22815        44.4259   36.87586  47.94833   55.0    0.16125  -21.92258  0.96279 
  -21.69979  0.17512  2.17974     14.18471  1.64027  0.78669   7.64295  0.24296      0.0659    9951.2244   5298.28601  3.10762           3147.289     16.84391    4e-05  58534.74021   4.51483  1.33841   309117.95399  46.31683  19.39899  58588.66765     51.2161       44.42401   37.31812  47.56003   51.0    0.14453  -21.80178  0.96487 
   -6.66731   0.1964  0.73229     14.33669  1.57725  1.04202  21.21053  0.12815     0.09448  12141.01009   5710.74773  4.38622          3058.6963     19.73116  0.02992  58549.77269  18.65041  4.16569    16661.42803  48.51567  19.40528  58589.46118    51.28079       44.52612    19.9203  48.30785   54.0    0.14438  -22.05427  0.99372 
  -28.91041  0.24985  3.07513     14.00113  1.68375  0.71308   8.19418  0.16212     0.02628   9850.80739   5666.70182   2.8916         3066.22517     17.98347  0.00053  58527.52959   4.74325  2.04731  1470795.64482  45.35184  19.38932     58587.38    51.24234       44.43119   20.28404  53.47612   50.5    0.16496  -21.83249  0.90151 
  -23.13305  0.30686  3.06983     13.86783  1.65311  1.35132   4.90964  0.24221     0.14837  10178.12615   4229.77741  4.99344         2830.45717     19.86135  0.04037  58533.30695   3.03398  1.50657  2658776.62427  45.08824  19.37912     58588.08    51.30793       44.53053   30.98432  46.46385   59.0     0.1628  -21.86899  0.92428 
  -15.94161  0.05883  1.41371     14.55025  1.87087  0.51045  16.52238  0.13494     0.19203   9937.66418   4480.63084  2.72985         3111.02134     16.26207    1e-05  58540.49839   9.73349  0.97207    27547.39851  47.80009   19.3847     58588.08    51.26741       44.48775   24.83591  48.92425   49.5    0.12829  -21.75915  0.99151 
  -19.08821  0.28526  3.56963     13.87207  1.68118  1.23563   6.93806  0.12798     0.22557  10798.17761   5509.15579  4.78014         2906.18456      18.5695  0.00206  58537.35179   4.82577  1.97916  3585361.39687  44.83468   19.3816  58589.46118    51.27273         44.503   24.83591  50.76825   63.0    0.18844  -21.83145  0.87468 
  -16.70223  0.35362  1.45992     14.41476  1.60787  0.36247   13.2282  0.11959     0.43203  10691.90441   6688.76063  2.48429         2924.71542     20.87735  0.41887  58539.73777   9.02066   4.6778     47119.0963  47.47324  19.35917  58588.66765    51.26027       44.43553   36.88008  50.80434   54.5    0.15487  -22.26432  0.94481 
   -8.02528  0.14117  0.75322     14.67332  1.62214  0.43449  30.44793  0.08154     0.05547  12439.58877   5393.34469  3.77052         3099.14852     17.50267  0.00018  58548.41472  28.10587  4.29828     3846.87826  49.13999  19.36864  58589.46118    51.21969       44.43657   33.18785   46.1583   51.0    0.14242  -21.82954   0.9935 
   -6.80584  0.27879  0.96906     14.14091  1.67524  1.53611   14.5748  0.13587     0.10031  11887.58601   4414.53745  3.92444         2983.28577      20.8687   0.4106  58549.63416  12.28619  4.06333    76342.82624  47.63746  19.39213  58589.46118    51.24482       44.44582   21.14791  51.78449   49.5    0.17525  -22.28483  0.98201 
  -12.24645  0.07672  1.02471     14.60286  1.80894  0.47831   25.4447  0.10993      0.2309  12145.23499   5569.35207  3.39216         2914.42722     18.70707  0.00283  58544.19355  22.38909  1.95206    10983.15249  48.46434  19.39314     58587.38    51.20613       44.40004   33.46935  49.51083   49.0    0.13405  -21.88985  0.99217 
