 log(Bfield)      Mns     Pspin  cutoff_power  cutoff_wavelength  fnickel    kappa  kappagamma   mejecta  log(nhhost)  temperature  texplosion  thetaPB      vejecta      A_V        MJD_0   log(KE)      M_Ni  Peak_mag     Peak_MJD 
    15.11026  2.13365  25.71792        3.5484         2873.14648  0.47337  0.01839     0.01019  37.35862     17.17672   6974.40533   -10.15347  1.41791  15864.92253    8e-05  58546.28653  53.10979   40.5964  19.30456     58585.05 
    14.19335  1.80959   3.14588       4.83899         3044.35736  0.21231  0.04903     0.01469  25.41087     17.52298   7438.49221   -11.35832  1.48296  10142.15696  0.00019  58545.08168  52.69199   17.0243  19.31144     58584.29 
    12.12094  1.83736  19.30727       2.82375         3102.08627  0.49366  0.01825     0.01043  35.93695     18.57832   3427.83951   -11.46168  1.19627  14475.26402   0.0021  58544.97832  53.02732  42.05964  19.31228     58584.33 
     12.5033  1.84791   6.78535       3.55437         3072.02742  0.47976  0.01825      0.0101  34.63197     17.74586   5834.56419    -9.65317  0.65433  14703.83692  0.00031  58546.78683  53.03819  40.61872   19.3494  58589.46118 
    14.34981  2.15672   4.20453       2.58298         2926.90068  0.36938  0.03966     0.01576  23.91873     18.12837   7303.48982    -16.1349  1.09653  10374.85401  0.00075   58540.3051  52.70693   29.2964  19.35337     58585.05 
    14.62015  1.80831   2.53596       2.09888         2804.42996  0.47493  0.03881     0.01037  29.35156     18.21726    6607.2173    -8.84034  0.87885  13637.29124  0.00092  58547.59966  52.96034  39.07337  19.30005  58583.48375 
    14.73407  1.96023   2.90566       3.96589         2883.15013  0.48468   0.0412     0.01018  28.76542     17.66937   4908.59298    -7.65611  0.84274  13486.79631  0.00026  58548.78389  52.94915  39.73422  19.32769     58588.08 
    12.96562  1.87813  14.14341       3.22978         3012.80045   0.4981  0.01727     0.01045  35.87903      18.5286   4595.11855   -11.89072  0.85921  14707.72843  0.00188  58544.54928  53.04104  42.42635  19.32797      58586.3 
    14.09263  1.83759   3.27811       4.39491         3038.25121  0.30628  0.05345     0.12496  20.31556     20.16822   5663.65766   -22.35784  1.51478   8700.31134  0.08184  58534.08216  52.54091   23.5683  19.33244     58584.29 
      12.667  1.75245  10.63185       3.83803         3012.12024  0.48782  0.01545     0.01024  33.84057     16.64799   3672.48048    -6.03086  0.41719  15733.48286    2e-05  58550.40914  53.09526  41.13772  19.32686     58585.05 
     14.2462  1.88085   2.65958       1.67452         3056.58776   0.2757  0.06347     0.48135  21.59797     19.09919    8159.4309   -13.16449  1.28889  10607.75016  0.00698  58543.27551  52.71805  21.45945  19.31697     58585.05 
    14.18095  1.94724   4.31695        2.8647         2951.06665  0.45465  0.04703     0.01252  21.43028     20.00482   4354.25616   -16.37297  1.22861  11536.95194  0.05618  58540.06703  52.79036  35.33723  19.34177      58586.3 
    14.26799  1.80682   4.36465       3.48447          2911.9732  0.42724  0.04742     0.01413   16.4204     17.26882   5174.56685   -14.92133  0.49564  11342.83402   0.0001  58541.51867  52.75355  31.56102  19.31075     58587.38 
    15.00737  1.76271   6.52344       3.82955         3004.28879  0.44659  0.02425     0.24242  31.26234     18.37071   4774.70089   -11.70675  0.29251  13189.79407   0.0013  58544.73325  52.93614    37.149  19.29958  58583.78326 
    13.91546   1.4229   3.27053       4.75894         2917.49705  0.29502  0.06148     0.49552   15.1802      16.7317   6076.38879   -13.07284  1.31773  10397.98269    3e-05  58543.36716  52.67128  21.45891  19.31641      58586.3 
     13.5193  1.73433  19.77896       4.14815         2852.41498   0.4829  0.01756      0.0108  35.00282     17.80557   4227.13637    -8.81518  1.02917  14961.57647  0.00036  58547.62482  53.05407  40.95874  19.33588      58586.3 
    14.65392  1.52074  25.65872       4.16727         2933.85985  0.48974  0.01778     0.01075  33.65835     19.02432   4830.94949    -9.94738  0.29176  14996.27227  0.00588  58546.49262  53.05318  41.26196  19.35536     58588.08 
    14.78865  1.78124  24.80943       3.72332         2691.29934  0.49244   0.0186     0.01014  35.84298     18.17252   6547.92112    -10.4106  0.64357   15726.2221  0.00083   58546.0294  53.09912  41.93664  19.36401     58585.05 
    14.19983  1.58707   2.68957       4.65584         2741.02917  0.18107  0.03785      0.0521  34.75022     16.06801   5261.30691    -11.5056  1.04989  11498.02295    1e-05   58544.9344  52.82483  15.33936   19.3556      58586.3 
    13.41085  1.91817  18.05181       4.50412          2754.3866  0.49237  0.01809     0.01041  35.96996     18.06923   4923.69279     -9.4135  1.19767  15826.77429  0.00065   58547.0265  53.10492  41.95635  19.37312  58590.05293 
    14.84409  1.54428   5.68765       4.16829         2732.63792  0.47347  0.03185     0.01041  29.47644      19.1038   4021.86346   -12.46121  0.24459   13977.4567  0.00706  58543.97879  52.98206  38.98248     19.33      58586.3 
    12.13958  1.85344   5.73171       2.63077         3090.59522  0.44852  0.01578     0.38546  37.56895     16.42378   4232.19944   -11.41516  0.87702  13988.99883    1e-05  58545.02484   53.0009  38.50191  19.34905  58586.91809 
    14.34445  1.97803   1.23102       1.44088         2806.27774  0.17364  0.03886     0.01213  40.99588     20.19775   6235.23585   -14.20163  1.54294  10340.05937  0.08759  58542.23837  52.74471  15.12485  19.34434     58588.08 
    14.24144  1.93393   2.25325       1.84655         3211.85978  0.20975  0.06119     0.14481  24.55429     19.01738   4153.85616   -20.55534  1.38831    9335.8226  0.00578  58535.88466  52.61734   16.7153  19.37586      58586.3 
    14.27714   1.7253  10.96229       3.42194         2963.73098   0.4227  0.01586     0.01025  36.42177     18.15933   4191.61164    -8.10877  1.24991  14968.84362   0.0008  58548.33123  53.05743  36.09609  19.34567     58584.33 
    13.25876  1.95394   7.04688       4.98803         2727.58743  0.49975  0.01814     0.01095   33.2045     18.15638   3961.55128    -8.76886  0.85273  15751.61573   0.0008  58547.67114  53.09485  42.00728  19.35008     58584.33 
    14.36119  1.89991   2.26543       4.98777         2823.07959  0.22557  0.04989     0.03877  30.53656     17.39732   6080.72117   -14.07402  1.20016  10593.32208  0.00014  58542.36598  52.74396  18.68708  19.31642     58585.05 
    14.40345   1.9651   2.88734       3.53615         2916.70211  0.34363  0.04607      0.0772  25.19893     16.07243   5971.92157    -9.71316  1.51423  11723.83614    1e-05  58546.72684  52.81721  27.51283  19.35701     58584.29 
    14.15919  1.53682   2.79762       4.79742         2782.99395  0.26838  0.04614     0.16541  30.40283     17.82286   8003.58455   -17.31602  1.08185   11228.1521  0.00037  58539.12398  52.79417  22.21663  19.33921  58583.48375 
    14.30888  2.14974   4.85176       3.49346         2776.62509  0.47366  0.04799      0.0119  19.20458     18.22447   6615.94747   -15.15985  1.03746  10809.01955  0.00093  58541.28015   52.7248  36.06318  19.32114     58585.05 
    14.16676  1.29124   3.70765       1.96915         3094.57998  0.43114  0.03355     0.01105  28.43541     17.67694   5047.27694   -12.48971   0.8311  12797.86181  0.00026  58543.95029  52.90273  35.27269   19.3033     58585.05 
    13.78192  1.66603  10.97878       4.19296         2808.61782  0.48662  0.01745     0.01165  35.67164     16.66133   3902.09859    -9.78702   1.0154  16710.24956    3e-05  58546.65298  53.15148  41.40789  19.36984  58586.91809 
    14.23133  1.74512   4.42138       3.32791         2890.04105  0.38867  0.03552     0.01187  28.96584     17.65156   5174.15028   -11.51217  1.22495  13756.17551  0.00025  58544.92783  52.96686  31.90238  19.37831  58590.05293 
    15.10941  1.52874  19.33422        3.5196         2821.45541  0.46143  0.01823     0.01025  37.30673     18.81826   5859.29669   -10.01521  0.23634  15814.45155  0.00366  58546.42479  53.10692  39.56366  19.32102  58581.51571 
    14.73638  1.63674   3.55224       4.89155         2666.57348  0.47843  0.02269     0.01065  31.53297     19.14133   6828.67494    -6.09396   0.9731  14642.39507  0.00769  58550.34604  53.02754   39.8572  19.29364     58585.05 
    14.04483  1.54639   3.02615       2.15617         2781.35185  0.29578  0.04365     0.10375   25.1808       19.778   6388.52015   -13.70443  1.55646  12269.59141  0.03332  58542.73557  52.85668  23.67894  19.29564  58583.78326 
    14.56641   1.8661   17.0424       3.99718         2910.48925   0.4995  0.01816        0.01   32.3564     18.23302   5632.68277     -9.5321  0.87699  14208.02782  0.00095   58546.9079  53.00333  41.79924  19.36115     58585.05 
     14.8605  1.64922   1.72499       1.05873         2991.57925  0.42956  0.04244     0.01295  30.95018     17.62414   5043.27204    -9.28485  0.39127  14914.37086  0.00023  58547.15515  53.04212  35.67022  19.29549  58583.48375 
    14.05642  1.64483   4.48201       4.97062          3037.8777  0.28169  0.02615     0.01019  26.66601     16.89677   3639.73526   -16.89951  1.03038   9670.25461    4e-05  58539.54049  52.65437  22.78434  19.37182     58587.38 
    14.25972  2.10799   9.89904       3.24959         2661.36206  0.36464  0.01207     0.33016  46.97517     17.65114   4074.09334   -11.49233  0.10784  14926.19582  0.00025  58544.94767  53.07327  32.47932  19.32852  58586.91809 
    14.79726  1.90746   0.96259       4.65935         2789.72477  0.45757  0.04458     0.01142  28.13874     18.83288   7304.48216    -4.77498  0.88638  13580.44806  0.00378  58551.66502  52.95347  37.36621  19.27684  58581.51571 
     14.2371  1.65523   29.1394       3.10035         2831.95266  0.49945  0.02175     0.01073  38.13316      17.6674   4636.27967   -12.06215  0.22338  16110.59369  0.00026  58544.37785  53.12464  42.98095  19.36625     58588.08 
     14.2176  1.48808   1.61895        3.7822         2955.35488  0.23986  0.04928     0.01087  32.27254     18.62882   4751.53861   -11.02893  1.28145  10161.33047  0.00236  58545.41107  52.71196  20.06325  19.37061     58585.05 
    14.43351  1.79525  20.63817       3.61054         2867.82974  0.48599  0.01869      0.0102  36.10532     17.20772   4377.40186   -11.27308  1.29711  15547.35025    9e-05  58545.16692  53.08972  41.43866  19.28719     58585.05 
    13.82003  1.37557   2.90731       4.91886         2892.60591  0.23257  0.07658     0.02119  15.95039     17.63646   7924.79436   -18.97223  1.26451   10983.5939  0.00024  58537.46777  52.72312  17.08287  19.31512  58583.78326 
    13.06557  1.39731  19.32461       4.00074         2913.76191  0.49535  0.01686     0.01007  34.40982      16.8564   3835.37189    -8.02437  1.48348   14932.1188    4e-05  58548.41563  53.05109  41.89253  19.31066  58583.48375 
    14.17864  1.50044   2.68385       3.16591          3006.2224  0.26587  0.04639     0.02446  24.39087     19.69008   5959.10085   -14.48424  0.88495   9938.42581  0.02722  58541.95576  52.67115  21.16217   19.3283     58588.08 
     14.6157  1.73506   1.20783       3.84355         2994.24856  0.48464  0.04673     0.01172  25.31638     17.67587   6129.99681    -4.34157  1.56754  13289.07034  0.00026  58552.09843  52.92643  38.83545   19.3339     58588.08 
    12.35094  1.45233  25.06315       4.78505         2922.61861  0.47285  0.01586     0.01127  36.24166     17.05898   4865.87433    -9.92654  0.32664  14803.34441    6e-05  58546.51346  53.04741  40.34406  19.32675  58589.46118 
    14.61523  1.91982   1.56893       2.67566         2421.96173  0.49795  0.03611     0.01146  26.27322     18.42305   5105.23224    -7.46187  1.24048  12741.24188  0.00147  58548.97813  52.89276  40.16957  19.38489     58585.05 
    12.83707  1.77461  23.48245       4.40561         2808.92543   0.4899  0.01904     0.01025  36.11549     17.48497   5072.86774    -9.03912  0.75237  14882.99531  0.00017  58547.40088  53.05181  41.77394  19.33542  58583.48375 
    14.21412  1.96963    3.6276       2.19035         2950.47582  0.23115  0.04138     0.01679  28.79449     19.66898   4345.06913   -17.88512  1.05121  10687.00682  0.02592  58538.55488  52.74713  18.95347  19.35886     58585.05 
    13.39246  1.79624  22.00243       2.68992         3010.35329  0.46364  0.01489     0.01047  36.21171     16.19566   8432.83262    -8.43582  0.19859  15514.08276    1e-05  58548.00418  53.08808  39.55334  19.32383      58586.3 
    13.99531  1.72823  29.51274       4.91926         2794.04575  0.49975  0.01843     0.01015  34.55167     16.15132   5422.00512   -10.12637   0.1815   14573.2227    1e-05  58546.31363  53.03027  42.29419  19.35562     58584.33 
    14.97304  1.48986  23.91541        4.3004         2722.64076    0.491  0.02038     0.01012  38.42121       18.598    9891.7456   -13.21886  0.32603  15740.14178   0.0022  58543.22114  53.10498  42.30791  19.32858     58585.05 
    13.86077  1.92435  12.46717       3.38574         2915.62166  0.47783  0.01718     0.01024  36.13955     16.46368   6907.20962   -10.66362  0.68745  14920.94421    2e-05  58545.77638  53.05407  40.74977  19.35106  58583.78326 
    14.77486   1.6209   1.34781        2.9743         2888.71633  0.34424  0.03293     0.01025  37.80443     18.26945    7406.5981       -8.25  0.62775  14693.96312  0.00103     58548.19  53.04406  29.58162  19.33455  58583.78326 
    14.69989  1.69517  15.35203       3.53898         2758.33545  0.49195  0.01957     0.01019  35.06341       17.468   3603.36913   -10.81118  1.14996  15048.95261  0.00016  58545.62882  53.05926  41.73893  19.35804  58586.91809 
    12.04144  1.54655  26.52223       3.20607         2774.58784   0.4247  0.01694     0.01095  41.33442     17.59459   8023.81936   -10.58923   0.3963  17017.89945  0.00022  58545.85077  53.17807  37.04355  19.30466  58583.78326 
    13.48567  1.41108  18.75351       4.15363          2813.6817  0.44157  0.01593     0.01002  40.85477     19.21237   5203.23377   -11.17538  0.13067  15483.99235  0.00906  58545.26462  53.09518  38.44095  19.30302     58584.29 
    13.51095  1.86865  29.03529       3.28397         2917.74347  0.49961  0.02128     0.01105  36.96985     17.77757   9531.48792   -12.47222  0.12608  16255.97075  0.00033  58543.96778  53.13017  42.77113  19.32321  58589.46118 
    12.23956  1.98561  11.25788       3.84998         2990.46068  0.45342  0.01701     0.01077  37.82345     17.51065   5777.88806    -7.28292  0.17394  16350.32948  0.00018  58549.15708  53.13687  38.96681  19.35743  58581.51571 
    14.18467  1.81363   3.95638       4.89088         2894.13068  0.34775  0.04962     0.02802   21.1397     17.08884   6058.60464   -13.64623  1.29091   11045.6889    7e-05  58542.79377  52.75146  26.95967  19.31872  58586.91809 
     13.8962  1.97516   3.88422       4.80436         2894.05296  0.26116  0.07348     0.01835  12.75321     16.15423   4842.38576   -26.46743  1.37592   9997.39491    1e-05  58529.97257  52.62184  18.33799  19.33297      58586.3 
    12.46062  1.65252   2.06961       4.70288         2909.03768  0.47136  0.01825     0.26301  34.81375     18.53602   4064.52448   -10.30338  0.01779  16063.23775  0.00191  58546.13662  53.11538  39.94279  19.33468  58583.78326 
    12.41827  2.15192  12.57451       3.40674         3067.16684  0.49961  0.01788     0.01016  35.64224     16.15986   4992.33601   -11.50173  0.88603  14475.22642    1e-05  58544.93827  53.02671  42.50675  19.33157  58583.48375 
     14.7435  1.37234   6.15743        4.2977         2704.01892  0.49542  0.02305       0.011  31.46416     17.21272   6167.77343    -9.16723  0.46231  14635.70866    9e-05  58547.27277  53.02698  41.25727  19.33017     58588.08 
    13.97819  1.94676  27.22267       4.71669         2934.79709   0.4974  0.01776     0.01029  33.24843     18.30946   7151.18759   -10.20423  0.67184  14500.28167  0.00113  58546.23577  53.02305  41.81899     19.34  58583.78326 
    14.89294  1.18348    2.8436       4.73923         2839.79277  0.49422  0.02931     0.01007  29.61167     16.84075   6321.29892   -10.28122  0.31221  13768.48826    4e-05  58546.15878  52.96933  40.72325  19.31896  58589.46118 
     14.9476  1.45454  13.04381        3.9196         2933.55537  0.49872  0.02119     0.01019  33.42713     19.25083   3679.47566   -11.46771   0.2593    15019.635   0.0099  58544.97229  53.05401  41.96874  19.33055  58589.46118 
    14.99165  1.89699  16.41942       4.86028         2859.03451  0.49019  0.01771     0.01011  34.65793     18.05671   4256.45667    -9.87862  1.56612  14481.59322  0.00063  58546.56138  53.02502  41.50693  19.33941  58589.46118 
    14.70793  1.65844  16.97843       3.89383         2837.09686  0.46699  0.02414     0.01025  39.45421     16.86588   5519.05727     -11.336  0.90155  17000.14137    4e-05    58545.104   53.1738   40.4178  19.34243      58586.3 
    14.33131  1.77164   5.73627       4.71897         2885.83115  0.38742  0.02622      0.0114  32.60346     16.27351   5777.54139   -12.19589  1.34523  12913.34869    1e-05  58544.24411  52.92091   32.4626  19.35542     58584.33 
     14.1016  1.70814   3.72693       4.55695         2718.49545  0.38955  0.05221     0.22815  17.25719     18.33999   6063.97069   -11.46106  1.39362  11086.84091  0.00122  58544.97894  52.73793  29.05728  19.35761     58585.05 
    14.20316  1.75575   3.97046       3.15411         2851.80885  0.42882  0.03791     0.01505  24.14101     19.95576   7001.96515    -12.7745  1.48018  12123.63064  0.05018   58543.6655  52.84296  34.06816  19.32276      58586.3 
    12.56574  1.92256  19.91368       2.60538         2909.40161  0.48274  0.01978     0.01081  37.73192     16.44473   5300.11731   -12.18906  1.42059  15870.14517    2e-05  58544.25094   53.1108  41.46909  19.32399     58588.08 
    14.26832  1.58405   18.3378       4.87867         2920.60424  0.48933  0.02017      0.0109   35.0492     16.05667   5207.91902   -11.05676   0.7729  14948.41352    1e-05  58545.38324  53.05341  41.51402  19.37839     58588.08 
    14.03501   1.3334   2.80873       4.05199         2774.81076  0.10047   0.0199     0.37178  49.06042     18.88657   8233.95116    -16.6598  0.70313   9159.19987  0.00428   58539.7802  52.65214   9.01232  19.38412     58584.29 
    12.79959  1.58617  29.23365        3.6917         3009.71215  0.47847  0.02059     0.01013  37.25199     16.10116   3156.52937   -11.10141  0.73463  15480.90334    1e-05  58545.33859   53.0883  41.01407  19.37017  58587.48044 
    15.08289  1.70789  24.44111       2.35942         2848.52739  0.48679  0.02251     0.01033   38.2397     18.04777   5989.47548   -12.07047  0.45785  16890.62102  0.00062  58544.36953  53.16591  41.91137  19.33706     58584.33 
    14.11629  1.76483   3.52184       4.88631          2749.3729  0.26915  0.04273     0.01223  26.87716     18.98829   4464.45865   -16.63148  1.41169  10523.00076  0.00541  58539.80852  52.72838   21.8004  19.30593      58586.3 
     13.0412  1.50936   25.6306       4.45729         2872.46335  0.44227  0.01934     0.01108  39.38637     18.16992   6571.63016   -11.88084  1.01435  15072.79121  0.00082  58544.55916  53.06916  38.26746  19.34418     58584.29 
    15.01817  1.65665  29.57269       4.52495         2896.49152  0.49924  0.01923     0.01101  33.40872     16.64184   5455.11135   -10.18899  0.33081  14897.38631    2e-05  58546.25101  53.04687   42.0082  19.36101     58584.29 
    12.40154  1.63772   5.85034       3.65514         3019.45165  0.47825  0.01912     0.46708  36.41595     18.98766   5688.74156   -12.25175  0.28875  14693.83483   0.0054  58544.18825  53.04131  40.83851  19.31949  58586.91809 
    14.81926  1.69124  13.90467       4.85133         2984.35533  0.47407  0.01789     0.01129  32.56456     18.27822   4415.22679    -8.39286  0.57843  13720.34411  0.00105  58548.04714  52.97347  39.71532  19.34581     58585.05 
