 log(Bfield)      Mns    Pspin  cutoff_power  cutoff_wavelength  fnickel    kappa  kappagamma   mejecta  log(nhhost)  temperature  texplosion  thetaPB     vejecta      A_V        MJD_0   log(KE)      M_Ni  Peak_mag     Peak_MJD 
    13.52916  1.50383  1.98691       3.79079         2240.53322  0.01012  0.01836      0.0195  96.45725      20.4588   5330.52873   -48.81481  0.74131  2031.91302  0.15978  58726.37519  51.38917   1.00689  18.67097  58880.44487 
    13.87492  1.57019  1.41706       4.99941         2174.57251  0.16537  0.03412     0.06612  90.79362     19.98932   4446.22794   -24.57647  1.16567  2355.92995  0.05421  58750.61353  51.51384   16.3065  18.79925     58856.42 
    13.49477  1.43588  2.03736       0.38005         3748.49855  0.01247  0.02823     0.01634  78.59983     19.34124   4974.66944   -55.60429  0.94478  1861.17988  0.01219  58719.58571  51.29981   1.20354   18.6228  58894.49718 
    13.51898  1.90665  2.88662       3.39504         2417.98646  0.01026  0.01064     0.01552  86.20455     19.37005    4006.2974   -44.62448  1.11435  1956.58183  0.01303  58730.56552   51.3492   1.00387  18.72811   58886.6594 
    14.03898  1.72517  1.52754       4.57023         2189.80748   0.0176   0.0357     0.01733  97.98113     19.28371    6242.3517   -28.74674  0.49857  1969.66522  0.01068  58746.44326  51.36313   1.75512  18.82309  58859.22719 
    13.68934  1.82981  2.52609       4.92037         2103.42952  0.00145  0.02194     0.02184   81.4039     19.85886   4641.26194   -51.79324   0.7528  1892.77306  0.04014  58723.39676  51.31671   0.14078  18.77585     58860.28 
    13.40419  1.49336  2.22357       0.88538         3092.53855  0.00124  0.01966     0.02116  99.54998     19.29526   3810.13949   -54.11572  1.43125  1964.98681  0.01096  58721.07428  51.36206   0.12413  18.82713     58860.28 
    13.34813  1.23939  1.93847       0.81803         3692.64364  0.05057  0.02476     0.01298  97.41862     18.71705   6869.54917   -74.36687  1.44569  1626.01973   0.0029  58700.82313  51.19623   5.03769  18.78111  58877.69319 
    14.23932  1.28951  0.90749       4.97223         2066.01077  0.31133  0.05323     0.12096  62.32509     19.95456   5822.25853   -26.38458  0.45928  2611.56536  0.05004  58748.80542  51.57867  29.00391  18.87106    58855.251 
    14.04922  1.57073  0.96375       1.42461          2924.1174  0.01761  0.08337     0.09217  63.24096     19.84288   7004.83869   -30.49875  0.48844  2041.78088  0.03869  58744.69125  51.36587   1.64439  18.74284  58894.49718 
    14.47428  1.68339  0.80543       0.56269         3729.99374  0.31416   0.0332      0.4951  79.15688     19.71648   6178.06971   -29.61361  0.62546  2417.61481  0.02892  58745.57639  51.52747  30.35369   18.8025  58890.57829 
    13.37531  1.61408  2.64621       3.74427         2285.23281  0.03702  0.01047     0.02218  81.37097     19.71547    4128.8003   -51.79362  1.08599  1980.86675  0.02885  58723.39638  51.35619   3.59128  18.78116  58863.14607 
    13.49318  1.73083  3.06093       1.47911         3080.58091  0.10912   0.0101     0.02715  49.89439     20.05697   4380.99211   -35.78238  0.74609  2515.29288  0.06334  58739.40762  51.53078   9.81516  18.70308  58882.74052 
    13.54986   1.4914  2.27109        4.8838         2228.56422  0.01539  0.01479     0.01144  74.97334     20.16168   4784.90219   -44.87889  0.69496  1944.02358  0.08061  58730.31111  51.33455   1.47455  18.72974  58881.44546 
    14.56815  1.67744   0.7456       0.38635         3439.48169  0.38146  0.04434     0.28256  67.47929      16.8729   4179.17773    -31.6254  0.53655  2798.09048    4e-05   58743.5646  51.64391  35.97587  18.79815     58852.44 
    13.40942  1.06736  1.08383        4.2978         2183.20228  0.02388  0.03636     0.01623  96.08402     20.24937   5564.73376   -41.63535  1.09992  1799.15626  0.09865  58733.55465  51.28325   2.37408  18.76314  58847.47052 
    14.18002   1.3029  0.92909       4.89433         2261.80661  0.34713  0.04784     0.12653  55.97692     18.95427   5076.29235   -28.12575  0.60183  2344.30851    0.005  58747.06425  51.47759  31.79973  18.74009   58886.6594 
    13.57474  1.72759  2.53521       1.19982         3400.79192  0.00166   0.0112     0.03173  75.93872     20.27557   3796.91644   -46.01893  0.66843  2017.10307  0.10479  58729.17107  51.36744   0.15958  18.56374  58890.57829 
    13.49268  2.00067  3.37473        4.7074         2106.71165  0.05768   0.0101     0.02202  79.27081     18.95781   5970.55431   -55.57417  1.23341  2066.46163  0.00504  58719.61583  51.39124   5.57448  18.78349  58867.26072 
    13.46454  1.41635  2.24031       4.12705         2228.30544  0.02206  0.01305     0.02009  83.44749     20.04082   4640.78725   -45.03397  0.79381  1841.98141  0.06103  58730.15603  51.29468   2.14829  18.80592    58855.251 
    13.55285  1.82836  2.87967       4.74304         2345.42155  0.01275  0.01017     0.01232  82.45125     18.69789    4366.9948   -36.05134  1.06417   1952.6291  0.00277  58739.13866  51.34457   1.23974  18.73035  58869.24301 
     13.3243  1.68503  2.53936       0.87277         3575.47089  0.01735  0.01034     0.01101  76.68733     20.28051    4537.4013   -57.82104   1.3294  1971.54213  0.10598  58717.36896  51.34824   1.66804  18.74791  58871.22494 
     13.4134  1.62964  2.54347       3.46537         2356.82471  0.00429  0.01036     0.03335  92.27085     19.53116   3070.22403   -51.56678  0.97932  1995.39432  0.01887  58723.62322   51.3706   0.42428  18.71346  58867.06496 
    13.38027   1.2917   2.1444       4.43148         2157.23116  0.00856  0.01139     0.01797   80.9689     20.02454   5698.58268   -50.30638  0.78667  1805.84746  0.05879  58724.88362  51.27552   0.83013  18.76003    58855.251 
    13.43929  1.44015  2.21703       1.19491          3412.7305  0.00304   0.0206      0.0103  72.99859     19.55789    3986.1756    -54.6953  0.98518  1911.04189  0.02007   58720.4947  51.31794   0.29023  18.64629  58898.41607 
    14.40755  1.67938  1.65652       4.69999         2079.35764  0.34252  0.03605     0.10214  71.50354     20.43548    5535.9099   -23.41342  0.42595  2788.58255  0.15143  58751.77658   51.6448  32.59039  18.63951  58890.57829 
    13.37228  1.35841  1.87136       0.40889         3574.89169  0.02336  0.02933     0.01754  94.87531      19.0592   6635.34539   -68.34923  1.50766  1916.66611  0.00637  58706.84077   51.3374   2.31811  18.59714   58886.6594 
    13.36459  1.20065  1.65155       2.61819         2280.30551  0.00417    0.024     0.01813  79.57213      20.3975   4144.67845   -49.11631  0.88277  1998.22789  0.13875  58726.07369  51.36232   0.40294  18.70503   58886.6594 
    13.50879  1.36576  2.38015         1.148         3521.23032  0.01101   0.0114     0.01263  77.14164     19.68386   7427.54255   -54.95953  0.65626  1774.21204  0.02683  58720.23047  51.25702   1.05922  18.79906   58877.1189 
    14.37558  1.22736  0.77039       4.91124         2265.19895  0.49109  0.04568     0.05723  51.88469     19.41721    4725.3801   -17.29522  0.48855  2639.65389  0.01452  58757.89478  51.57542  44.44865  18.79217  58859.22719 
    13.90294  1.56748  1.31933       4.35473         2030.51101  0.06203  0.06028     0.18153   79.2174     18.79894   5993.35681    -45.4886  0.59773  2064.59648   0.0035   58729.7014  51.39041   5.99408  18.77218     58856.13 
    14.71258  1.86931  0.72221       0.36547         3417.67155  0.27227  0.05013     0.42057  72.86711     18.58407   5759.79105   -34.93342  0.32003  2568.58501  0.00213  58740.25658  51.57466  25.98051  18.82443  58863.14607 
    13.55377  1.62735  1.78654       0.19517          3677.5748  0.00461  0.05836     0.03274   78.0525     19.63923   5467.86596   -60.05469  1.18005  2150.46578  0.02421  58715.13531  51.42484   0.44435  18.79545     58860.28 
    13.39957  1.45958  2.22452        3.7557         2283.39684  0.00301  0.01621     0.02226  68.49674     20.13185   5265.27413   -47.63179  1.00199  2135.60132  0.07526  58727.55821  51.41023   0.28433  18.80997     58862.42 
    13.66474  1.53568  2.19605       0.40751         3509.57618  0.00108  0.01079     0.02467  86.77467     20.53311   3994.71305    -61.1066  0.39613  2181.56314   0.1896   58714.0834  51.44416   0.10581  18.72415  58894.49718 
     14.0038  1.25596  0.95735       4.90249         2228.40064  0.35942  0.05988     0.12604  54.54228      18.3523   4237.65896   -21.14208  0.87491  2696.21985  0.00125  58754.04792  51.59729  32.79078   18.5269  58894.49718 
    13.45194  1.25914  1.81004       1.27685         3238.30849  0.00106  0.01914     0.01346  93.64608     20.06533   6280.57023   -50.21238  0.76746  1799.04879  0.06457  58724.97762  51.28157   0.10527  18.55443  58902.33496 
    13.61384  1.50217  1.32315       4.44632         2047.76027  0.04003  0.05497     0.09791  79.45227     20.24517   6307.24809    -38.9585  1.17661  2149.56197   0.0977   58736.2315  51.42563   3.86941  18.58825  58894.49718 
    13.60504  1.61437  1.86126       0.02571         3790.95194  0.01194  0.04886     0.01458  81.93364      19.2456   5625.59678   -63.94618  1.01079  2073.06747  0.00978  58711.24382  51.39616   1.15918  18.57241  58890.57829 
    13.54157  1.93454  2.83227       3.46868         2330.94817  0.00836  0.01063     0.07239  85.10898     20.03522   3453.07085    -50.5655   1.0282  1907.32753  0.06025   58724.6245  51.32623   0.81646  18.80503     58862.42 
    13.49269  1.32225  1.60104       0.89767         3534.93472  0.00289  0.02842     0.01957  95.96127     20.19195    4651.6885   -43.27476   1.1018  1787.06439  0.08643  58731.91524  51.27731   0.28772  18.77442     58856.13 
    14.86059  1.71068  0.72257       0.53586         3697.25828   0.2842  0.02348     0.17167  78.31528     19.92502   5159.95977   -24.60289  0.30605  2530.92952  0.04675  58750.58711  51.56656  27.41556  18.71606  58867.26072 
    13.43063  1.78728  2.81217        4.3189         2058.85289  0.00707  0.01133     0.01088  59.93976     19.98932   3001.48303   -50.89692   1.2563  2119.37912  0.05421  58724.29308  51.39465   0.65459  18.82273  58869.24301 
    14.67229  1.45913  1.23398       4.86981         2350.36943  0.47387  0.02991     0.06404  50.77579     20.01972   4217.41177   -13.35895    0.308  2604.38804  0.05814  58761.83105  51.56224  42.74239   18.6976  58863.14607 
    13.88585  1.52168  2.35452       0.97342         3430.22967   0.0247  0.01557     0.02459  57.78627     20.37914    4515.7003   -43.52315  0.27104  2246.22217    0.133  58731.66685  51.44264   2.27432  18.77716  58902.33496 
    13.50888  1.49636  2.29953       4.61867         2210.52354  0.03059  0.01184     0.01207  88.77045     20.39855   4529.55524   -45.08278  0.73834  1919.43868  0.13908  58730.10722  51.33443   3.00674  18.73006  58874.90274 
    13.54833  1.42664  2.40457       1.65405         3059.93096  0.00691  0.01156     0.01719  83.88249     19.58438    4693.8529   -45.40418  0.66022  1943.09537  0.02134  58729.78582  51.34143   0.67309  18.51993  58902.33496 
    13.25223  1.07338  1.78454       2.29023          2750.7804  0.02553  0.01114     0.01377  92.97954     20.26824   5612.91206   -42.82036   0.9509  1877.87363  0.10303  58732.36964  51.31836   2.52632  18.76043  58871.22494 
    13.77937  1.72231  2.70147       2.96636         2669.89073  0.01358  0.01052     0.04994  99.32408     19.04719     4061.206   -50.58296  0.47741  1831.22342  0.00619  58724.60704  51.30068   1.35648  18.71537  58890.57829 
    13.78402  1.45463  2.46348       1.02067         3534.52763  0.01174  0.01432     0.02083  50.76059     19.21496   3470.34641   -47.51177  0.30377  2190.48436  0.00911  58727.67823  51.41189   1.05902  18.78212     58860.28 
    13.16495  1.26293  2.28206       3.67824         2138.05531  0.04207  0.01082     0.04314  94.66302     17.29189   5177.01016   -47.85219  1.55297  2370.00506  0.00011  58727.33781  51.52167   4.17387   18.6839  58894.49718 
    14.52971   1.8537  1.32204       0.36626           3602.175  0.28967   0.0288     0.43689  85.61862     19.97559   5393.56571   -28.51797  0.69412  2757.91176  0.05252  58746.67203  51.64692  28.31695  18.78183  58894.49718 
    13.32411  1.30505  2.15869        0.9386          3713.4137  0.00344  0.01227     0.01744  79.91702     19.21494   4274.07133   -58.24975  0.79953  1914.38063  0.00911  58716.94025  51.32537   0.33283  18.82005     58856.42 
    13.82333  1.56989  2.85269       0.87901         3603.45288  0.09507  0.01103     0.32067  59.95289     18.73539   4114.16909   -48.49937  0.29277  2328.06355  0.00302  58726.69063  51.47623   8.80395  18.71248  58867.06496 
    13.34984  1.44627  2.24127       1.13428         3578.92716  0.00105  0.01026     0.01147  78.61768     20.32539   4325.37516   -43.70612  1.09905  1910.06868  0.11752  58731.48388  51.32235   0.10114  18.81746     58862.42 
    14.83074  1.85991  1.18977       0.69395         3672.04019  0.41013  0.01741     0.12489  81.40204     20.68333   4388.72689   -19.29177  0.34578  2747.67603  0.26795  58755.89823  51.64044  39.79298  18.78801  58871.22494 
    13.54519  1.71179  2.69859       4.98432         2243.66742  0.02589  0.01261     0.03513  86.39084     19.20961   9332.11702   -55.32365  0.86964  1814.36659    0.009  58719.86635  51.28379   2.53418  18.78126     58860.28 
    13.95115  1.76512  2.77605       0.62026         3599.66923     0.03  0.02421     0.04813  52.09232     19.75071    3513.8697   -48.65696   0.3079  2195.43038  0.03129  58726.53304  51.41564   2.71723  18.70996  58880.87117 
    13.28452  1.36971  2.27005       1.54265         3129.65594  0.00256  0.01058     0.01124  81.69835     19.71599   6315.29656   -51.32167  1.11615  1893.98822  0.02889  58723.86833   51.3175   0.24863  18.74109  58859.22719 
    13.43413  1.39957  1.99687       0.82175         3523.61387  0.00183  0.02601     0.01906  89.49056      19.2572   6322.14894   -69.70275  1.03285  1708.09741  0.01004  58705.48725  51.23362   0.18053  18.75045  58902.33496 
    13.63295   1.8395  2.57712       4.46993         2026.50577   0.0658  0.01001     0.02778  79.93997     20.68091    4006.6001   -51.33545   0.5857  2121.31354  0.26646  58723.85455  51.41454   6.36679  18.75804  58867.26072 
    14.38332  1.64469  1.04316         0.523         3440.86898  0.36428  0.04059      0.2333  73.62384     18.35398   6494.30258    -34.7722  0.81611  2643.43347  0.00126   58740.4178  51.60029  34.81501  18.80343  58876.94275 
    13.86359  1.60117  1.28387       4.92382         2078.04933   0.1241  0.04408     0.20768  91.48397     19.26026   4884.53053   -37.23524  1.07643  2148.16845  0.01012  58737.95476  51.43414  12.24996  18.57804  58890.57829 
    13.79051  1.66082  1.33072       4.41441         2113.49487  0.08552  0.05836     0.02665  68.87753      19.4684   7254.00805   -34.94833  1.29935  2056.93685  0.01634  58740.24167    51.378   8.09102  18.73756  58871.22494 
    14.39778  1.41239   1.1865       4.92748          2198.4804  0.38388  0.04233     0.05807  55.32163      19.7616   5114.22917   -21.29403  0.44532  2534.16446  0.03209  58753.89597  51.54443  35.10153  18.69594  58894.49718 
    14.66995  1.72731  0.74434       0.71327         3520.33111  0.28348  0.02744     0.32289  79.83676     18.37697   3493.45981    -21.6013  0.47919  2712.40949  0.00132   58753.5887  51.62796  27.42518  18.77522  58882.74052 
    13.76913  2.10566  3.10029       3.12787         2361.48713  0.02104  0.01022      0.0236  95.41203     20.04935   3487.97935   -53.04142  0.73259  1843.07993  0.06224  58722.14858  51.30376   2.08928  18.72067  58863.14607 
    14.60527  1.32147  0.78854       3.00502         2942.84284  0.40532  0.01026     0.21373  67.93323     20.64881   3600.36779    -10.5845  0.57795  2470.97662  0.24748   58764.6055  51.53637  38.26513  18.70289   58886.6594 
    13.90788  1.68727  1.45073       4.30479         2076.78907  0.00659  0.07315     0.01494  62.50861      18.7483   4530.66566   -31.00418  0.65873  2300.15951  0.00311  58744.18582  51.46858   0.61436  18.52214  58894.49718 
    13.38388  1.48184  2.63676       4.52978         2275.30074  0.04753    0.011     0.01174  67.01812     19.07474   5416.17701   -43.59992  1.13222  1995.12547   0.0066  58731.59008  51.34967   4.47744   18.7347     58852.44 
    14.14446  1.38396  1.44585       4.73649         2162.07509  0.39718  0.04265     0.09644  59.78478     19.23625   4608.29062   -21.73653  0.88273  2875.29878  0.00957  58753.45347  51.65942  36.76349  18.63835  58894.49718 
    14.25396   1.7777  1.57069       4.74845         2100.42465  0.32873  0.04195     0.23364  84.15711     20.07156   7043.49258   -28.49062  0.83091  2668.86226  0.06551  58746.69938  51.61731  32.05307  18.69621  58879.87057 
    13.89754  1.74407  2.76996       4.07043          2150.6826  0.04637  0.01151     0.01143    63.128     20.22276   3721.91209   -46.43418  0.32078  2186.68532  0.09279  58728.75582   51.4253   4.32879  18.71751     58862.42 
    13.47068  1.77469  2.74668       3.01857         2391.86159  0.00535   0.0109     0.01649  72.21744     19.74665   6004.81095   -46.94615  1.05711  1976.61532    0.031  58728.24385  51.34653   0.51002  18.71951  58902.33496 
    14.24511  1.50891  0.92676       4.99873         2264.95679  0.39298  0.06004     0.25308  52.03688     18.32551   3737.12518   -22.81072  0.66804  2547.26647  0.00118  58752.37928  51.54468  35.58575  18.57085  58898.41607 
    13.87895  1.32705  0.94106       4.37449         2144.90744  0.00427  0.09019      0.0516   56.5421     19.12511   4526.29559   -24.86175  0.55535  2131.45652  0.00741  58750.32825  51.39561   0.39135   18.8134     58860.13 
    13.67433    1.705  2.87968       3.64295         2368.43226  0.03302  0.01159     0.01288  73.71124     18.43438   3597.29291   -47.41654  0.56332  2020.88443  0.00151  58727.77346  51.36712   3.15664  18.73392  58863.14607 
    13.42744  1.73355  2.87753       4.28096         2336.28441  0.03603  0.01001     0.01074  64.06712     19.31783   5031.08828   -43.07399  1.18074   2019.1487  0.01155  58732.11601  51.35706   3.37136  18.81332  58859.22719 
    13.77024  1.59858  2.35152       1.38419         3151.38363  0.00103  0.01066     0.02184  97.17427     20.29063   4761.40252   -46.55943  0.39418  1944.67201  0.10848  58728.63057  51.35152   0.10266  18.79142  58867.06496 
    13.50443  1.26664  2.07815       0.95737         3847.22587  0.01924  0.01313      0.0334  99.13283     19.68846   9819.29122   -53.86342  0.70986  1639.60805  0.02711  58721.32658  51.20456   1.92143  18.88183  58867.06496 
    13.46769  1.72435  2.53129       4.26081         2354.97438  0.03472  0.01286        0.01  71.30653     20.42369   3480.90785   -39.84553  0.97908  2117.52929  0.14737  58735.34447  51.40551   3.30198  18.68355  58870.98385 
    13.96663  2.07757  3.33926       1.37068         3414.89063  0.03586  0.01096     0.02471  65.38898     20.05433   4781.46333   -40.67714  0.44556  1964.93758  0.06296  58734.51286  51.33479   3.36539  18.55148  58894.49718 
    14.16876  1.39605  0.83929       4.92817         2006.79992  0.26309  0.05831     0.28836  62.55716     19.34978   5079.67049    -23.5755  0.58448  2573.69633  0.01243   58751.6145  51.56623  24.52417  18.68431   58886.6594 
    13.66222  1.39598  1.49636       4.13121         2073.34821  0.04613  0.03368     0.01932  98.55147     20.33842   5588.74978   -38.95507  0.79905  2198.92593   0.1211  58736.23493  51.45913   4.60338  18.70091  58880.87117 
    13.90058  1.11827  0.78527       4.81833         2154.33929  0.31246  0.05299     0.02657   55.0357     18.39882   5548.27219   -27.52771  0.86276  2478.73165  0.00139  58747.66229  51.52486  28.54714  18.83905  58859.22719 
    13.90414  1.93496  2.48835       0.55258          4131.0053  0.01781  0.03345     0.01954  72.83555     19.81899   3391.61506   -56.22148  0.56583  1889.69381  0.03662  58718.96852  51.30803   1.69915  18.50061  58902.33496 
