 texplosion  fnickel    Pspin  log(Bfield)      Mns  thetaPB   mejecta    kappa  kappagamma     vejecta  temperature    alpha  cutoff_wavelength  log(nhhost)      A_V         MJD0  kenergy   mnickel            TSD   log(L0)  Peak_mag     Peak_MJD  log(E_rad)  log(Peak_lum)  Rise_Time    E_fold  tau_1  delta_m15     r_peak     frac 
  -17.29047  0.00113  2.22941      14.0177  1.86326  0.51938  15.14738  0.01955     0.45801  1603.59079   6182.35691  1.57546          4084.6819       16.953    5e-05  59411.95535  0.23235   0.01712   792636.68964  45.94366  19.10846  59491.10156    51.60065         44.657   44.49986   60.3607  133.0    0.07192  -21.33114  0.99959 
  -17.47297  0.02133  2.53921     13.80263  1.70546  0.89776  51.95245  0.01032     0.36038  2285.13544   9506.83609  2.14276         3649.68391     18.82422  0.00371  59411.77286  1.61829   1.10795  2533950.64124  45.28749  19.14641  59492.55725    51.39075       44.34361   53.78612  78.93322  112.5     0.0653  -21.36581  0.96175 
   -9.49126   0.1217  2.16477     14.19048  2.15956  1.17541  60.66579  0.01319      0.0927  2056.76847   8022.90713  2.67337         3692.75137     17.21032    9e-05  59419.75457  1.53088   7.38327   390872.60661  46.34035  19.15401  59494.08594    51.38329       44.31873   57.36543  81.48754  112.0    0.04997   -21.3378  0.88426 
  -18.93173  0.09162  3.09723     13.85986  2.00672  1.18765  51.12777  0.01003     0.41039  2264.27732   6821.75511  2.23706         3581.84171     17.66592  0.00026   59410.3141  1.56366   4.68428  3408179.80838  45.05686  19.15723  59494.21812    51.38512       44.34004   54.39718  76.85625  137.0    0.06308  -21.34994  0.83596 
   -5.81293  0.08504  1.79389     14.28216  2.01371  0.86611  87.74947  0.01013     0.22282  2068.45567    6928.1275  3.20891         3593.10547     16.77359    3e-05  59423.43289  2.23957   7.46189   164089.03824  46.85017  19.12523  59491.11719    51.56008       44.59122   45.33638  62.68227  110.5    0.04996  -21.33532  0.90906 
   -9.27508  0.08765  2.14369     14.17581  2.11251  1.18854  77.89161  0.01014     0.43753  1974.37881   9411.43063  2.99444         3645.10631     18.96093  0.00508  59419.97074  1.81125   6.82687   401158.83361    46.328  19.09655  59492.27006    51.63581       44.73738   39.68186  54.45314  107.5    0.05427  -21.34361  0.89072 
  -14.63631  0.00111  2.29701      13.7135  1.77908  1.29026   23.5726  0.01325     0.21629  1679.60284   6084.44514   1.8002         3910.68263     19.31315  0.01143  59414.60951  0.39669   0.02613  3260903.37588  45.28338    19.118  59491.26067    51.57673       44.63457   43.85809   58.6809  125.5    0.07605  -21.34379  0.99928 
  -10.01931  0.08687  1.59157     14.21168  1.96025  0.89555  88.27461  0.01062     0.27887  2033.47926   7699.13934  2.49604         3705.43529     17.25143   0.0001  59419.22651  2.17742   7.66798   173949.95332  46.91708  19.17534  59500.09766    51.40387       44.36627   44.73521  87.59402  115.5    0.04607  -21.32408   0.9223 
   -7.83167  0.11402  1.90224     14.19348  2.18963  1.40597  73.52151  0.01106     0.05823  2019.31337   7007.89506  2.57135         3663.82281     16.02299    1e-05  59421.41415  1.78834   8.38286   301832.59125  46.57092   19.2049  59507.87959    51.35686       44.30224   48.44192  94.25759  118.5    0.04776  -21.32397  0.89947 
   -4.94137  0.30116  1.61494     14.27726  2.01592  1.14584  33.60084  0.03167      0.2815  2992.98703    9937.5096  2.66116         3489.76829     18.15176  0.00079  59424.30445  1.79551  10.11919   136167.98077  47.02293  19.15315  59494.08594    51.38203       44.30618   56.94421  83.57636  103.0    0.05306  -21.38734  0.90294 
  -20.58288  0.04883  2.91983      13.8177  1.64681  0.78883  49.85827  0.01135     0.48796  2149.17015   6482.12692  4.12136         3374.73355     16.29487    1e-05  59408.66295  1.37374   2.43466  3018391.27409    45.075  19.15403  59492.55725    51.44166       44.40625   52.86631  74.37884  124.0    0.06285  -21.35712  0.89014 
  -16.34046  0.08456  2.11821      13.5512  1.13072  0.97597  49.64836   0.0102     0.37187  2253.90788   6962.57864  2.68175         3516.41818     16.30023    1e-05  59412.90536  1.50454   4.19815  3721344.26553  45.09956   19.1557  59492.55725    51.43687       44.38692   53.58052   75.9862  129.0    0.06746   -21.3526  0.83706 
  -16.37842  0.00115  2.87452     13.77563  1.91861  1.06848  44.85391  0.01003     0.02097    2379.306   6525.61091  2.18349         3637.77959     18.59915  0.00221  59412.86741  1.51471   0.05151  4136972.14648  45.01802  19.14036  59492.55725    51.50587       44.52001   49.19721  65.78614  131.5    0.07221  -21.37709  0.99799 
   -18.6646  0.09694  2.70575     13.63506  1.39231  0.97697  43.83389  0.01066     0.03051   2318.4569   5842.44316  3.50674         3390.92528     17.92741  0.00047  59410.58122  1.40551   4.24921  5081573.84792  44.84201  19.16253  59498.68619    51.39058       44.36599   43.23295  83.59522  137.5    0.06764  -21.37026  0.80684 
  -16.19971  0.03812  3.07297     13.83544  1.96863  1.08605  48.77475  0.01002     0.02282  2262.52347   6804.31579  2.61136         3543.31333     18.77778  0.00333  59413.04611  1.48939   1.85911  3683132.03584  45.02167  19.14262  59494.21812    51.50823       44.54795    45.3555  65.00383  127.0    0.06932  -21.36796  0.92647 
  -18.54059  0.00282  2.59168     13.79726  1.62169  0.70468   24.3573  0.01343     0.19544   1619.5725    4519.8477  2.80925         3677.64083     18.40032   0.0014  59410.70523  0.38112   0.06879  2572848.42781  45.24124  19.14504  59492.55725    51.51142        44.5045   49.89589    68.063  126.0    0.06911  -21.33679   0.9972 
   -7.84675  0.07507  1.45035     14.15556  1.85016  0.98508  82.64731  0.01069     0.37945  1762.90454   9014.24218  2.88279         3751.75167     17.12997    7e-05  59421.39907  1.53219   6.20439   176542.12997  46.96626  19.14735  59492.27006     51.4877       44.47331   49.14299  69.64696  107.5    0.04565  -21.31777  0.94207 
  -20.41233   0.0064  2.55443     13.71455   1.5514  0.80333  47.87926  0.01046     0.12032  2261.00432   5986.35559  2.80431         3515.26524     16.54882    2e-05  59408.83349  1.46008   0.30629  3499668.50024  45.10096  19.13462  59492.55725    51.47929       44.47242   48.40539  72.70613  132.5    0.06705  -21.36393  0.98711 
  -18.32583  0.02502  2.35252     13.69143  1.54606  0.94836  51.22699  0.01002     0.07721  2470.18072   6266.01403  2.09385          3463.0499     19.55036  0.01973  59410.91999  1.86459   1.28164  3290383.68585  45.19776  19.12155  59492.27006    51.44776       44.41232   52.07818  73.67647  133.5    0.06831  -21.36918  0.95606 
  -15.91608  0.00135   2.3854     13.90893  1.91794  0.72063   11.3754  0.02878     0.17275  1960.74786   4902.03002  1.48014         3931.22462     17.27264   0.0001  59413.32974  0.26088   0.01537  1541427.50454  45.60863   19.1953  59500.09766    51.39749       44.35339   43.23295  90.53622  139.5    0.07113  -21.32713  0.99959 
   -16.6443  0.06702  3.21403     13.71766  1.80288  1.29011  44.18115  0.01019     0.09832  2396.68639   5886.55052  3.23424         3490.99158     16.64598    2e-05  59412.60152  1.51386   2.96097  6346947.64138  44.70815    19.153  59494.08594    51.56236       44.60567   46.95041  61.06824  135.0    0.07181  -21.39107  0.86191 
   -5.78948  0.45671   1.6985     14.24664  2.00023  1.18891  21.51328  0.05571     0.17392  3356.82534   9980.26074  2.50719          3444.6765      18.1781  0.00084  59423.45634  1.44608   9.82533    172088.9534  46.87404  19.18056  59501.75065    51.34331       44.27001   51.07444  95.18418   98.5    0.05064  -21.40823  0.89449 
  -14.83536  0.07279  3.19103     13.86012  1.89256  1.12095  42.47364   0.0126     0.07571  2343.69088   9861.79091  3.25346         3490.32049     19.15077  0.00786  59414.41046  1.39171   3.09182   3407899.2381  45.00554  19.18764  59498.68619    51.37936       44.33712   47.09499  85.23424  106.0     0.0728  -21.39795  0.86938 
   -8.34443  0.20818  1.79586     14.11884  1.90317  1.41152  37.36444  0.03284     0.46938  2482.64798    6910.4489  3.53494         3440.14728      17.7388   0.0003   59420.9014  1.37378   7.77848   329723.98161  46.52163  19.14258  59492.27006    51.40545       44.33024   55.32316  82.87584  116.5    0.04171  -21.34473  0.89758 
  -15.83309  0.07041  2.73213     13.73413  1.72047  1.08075  35.68112  0.01389     0.01913  2736.60105   8857.52338  2.24232          3420.6259     19.65598  0.02516  59413.41273    1.594   2.51244  4057034.61557  45.02328  19.14347  59492.27006    51.52388       44.55266   46.89476  61.14301  122.0    0.06993   -21.4057  0.90588 
  -18.43043  0.00126  2.85969     13.80191   1.9506  1.06708  45.91343  0.01034     0.05382  2146.74714    7169.3977  2.32854         3658.91198     18.96106  0.00508  59410.81539   1.2622   0.05784   3688046.0354  45.07958  19.11278  59490.25953    51.40652       44.36268   53.78612  74.29009  126.0    0.06703   -21.3672  0.99783 
  -16.42321  0.08204  3.18023     13.85535  1.77547  0.87222  46.94851  0.01015     0.01847  2221.82008   7005.40422  3.41799         3468.75627     18.84004  0.00384  59412.82261  1.38251   3.85152  3245918.41435   45.0019  19.15025  59494.08594    51.50659       44.52769   47.97057  63.46457  128.5    0.06866  -21.38078  0.82882 
  -11.95652  0.09297   1.8271     14.12643  1.94836  1.04663  72.98836  0.01171     0.28187  1845.47482   7527.83214  2.68537         3704.93098     17.31815  0.00012   59417.2893  1.48285   6.78555   337404.69529  46.50684  19.12142  59491.26067    51.59373       44.65593   43.03394  58.03914  113.0    0.04509  -21.31307  0.90916 
  -18.51408  0.05569  2.80302     13.80301  1.71045  0.84969  47.19151  0.01065     0.15365  2334.79146   6119.21961  2.60716         3505.16332     16.83454    4e-05  59410.73174  1.53457   2.62813  3091376.06383  45.11655  19.13721  59492.27006    51.41106       44.36735     53.396  76.61166  134.0    0.06664  -21.37259  0.89635 
   -7.26264  0.09267  1.69324     14.22961  2.09737  1.06556  85.40255  0.01018     0.25674  1894.00184   9007.24461  2.80074         3644.91222     17.12711    7e-05  59421.98319  1.82751   7.91457   193954.34677  46.84538  19.14654  59494.08594    51.44571        44.3995   52.09002  78.30776  116.0    0.04318   -21.2966   0.9185 
  -17.99069  0.17226  2.69745     13.77502  1.54943  1.14641  40.77504  0.01384     0.45872  2522.16259   6496.90035  2.31195         3504.85338     16.51283    2e-05  59411.25513  1.54728   7.02409  2950166.32058  45.12726   19.1447  59494.08594     51.4031       44.33954   54.39718  79.17781  136.0    0.06221  -21.35811   0.7538 
  -20.21359  0.00135  2.75012     13.75377  1.74741  0.91396  48.17762  0.01076     0.02151  2355.41507   5843.40222   2.5592         3553.32416     19.15437  0.00793  59409.03223  1.59444   0.06498  3813961.11747  45.05116  19.13729  59492.55725    51.40087       44.35967   53.78612  76.61166  130.0    0.06596  -21.36687  0.99733 
  -16.59622  0.00112  2.31574     13.79306  1.83153  0.99627  19.85122  0.01676     0.34233  1646.46021   6726.07966  1.78272         3945.27168     18.53606  0.00191  59412.64961  0.32101   0.02232  2365279.23603   45.4284  19.14702  59492.27006    51.50996       44.52127   47.97057  65.78614  124.0     0.0713  -21.33761  0.99941 
  -19.60409  0.01395  2.68757     13.73686  1.76055  1.12506  28.63085  0.02712     0.48922  2942.41485   9632.31778   2.6406         3268.79039     17.70222  0.00028  59409.64173  1.47866   0.39952  3967050.55706  45.05731  19.14514  59494.21812    51.42693       44.39543    52.3202  71.96853  102.0     0.0618  -21.39119  0.98483 
   -6.01283  0.00628  1.37766     14.09996  1.71651  0.75519  62.74485   0.0214     0.46422  1861.18362    8762.9737  3.73099         3570.14407     17.01763    6e-05  59423.23299  1.29653   0.39397   190906.40677  46.94439  19.14465  59494.08594     51.4781       44.48236   48.48546    66.517  101.0    0.03958  -21.32969  0.99604 
  -19.45545    0.009  3.07085      13.7595   2.0068  1.29531  49.78395  0.01013      0.1666  2254.76203   5947.43018  2.75035         3504.97275      17.8999  0.00044  59409.79037  1.50979   0.44812  5318986.95353    44.871  19.13926  59492.55725    51.46786       44.45007   51.37581  69.73571  133.5    0.06698  -21.36489  0.98162 
  -18.44719  0.08257  2.55502      13.7323  1.66024  1.18463  51.42339  0.01001     0.06876  2335.10491   6761.53547  2.11696         3557.79992     19.57951   0.0211  59410.79864  1.67263   4.24597  3452887.91884  45.13604  19.15196  59494.08594    51.37957       44.30286   56.64959  83.03445  135.5    0.06541  -21.37717  0.86174 
   -9.61061  0.08667  1.99728     14.17666  2.06656  1.09177  78.04521  0.01002     0.39456  1796.33478   8478.27529  2.98692         3678.76386     18.22941  0.00094  59419.63521  1.50227   6.76442   339328.53209   46.4526  19.20362  59501.75065    51.39841       44.35643   43.00323  89.91559  110.0     0.0469   -21.3195  0.90177 
  -17.84061  0.00104   2.7036       13.675  1.76836  1.20335  13.68313  0.02849     0.05768  2176.43443   6275.67557  2.33898         3590.95441     18.79542  0.00347  59411.40521  0.38664   0.01423  5361364.15265  44.92326  19.13844  59491.26067     51.5737       44.61927   44.49986   60.3607  138.0    0.07256  -21.36371  0.99944 
  -18.39517  0.06743  3.09482     13.72561  1.67878  1.06771  46.15869  0.01023     0.01619  2187.52967   5950.76769  3.91959         3416.00231     18.29812   0.0011  59410.85065  1.31762   3.11254  5282684.89472  44.78971  19.14791  59494.08594     51.4445       44.41316   52.09002  73.66463  131.0    0.06513   -21.3704  0.85218 
   -17.9091  0.00114   2.2078     13.93143   1.8111  0.61712  25.37068  0.01381     0.05385  2005.45178    6528.1737  1.40132         3954.01684     17.52346  0.00019  59411.33672  0.60867   0.02886  1124125.38919  45.78805  19.14047  59492.55725    51.49085       44.50362   46.88282    68.063  138.5    0.07019  -21.33866  0.99929 
  -18.03747  0.05428  2.90611     13.68418   1.6095  1.04504  44.44121  0.01076     0.01344  2276.00978     6145.142   4.0218         3346.83433     19.61128   0.0227  59411.20835  1.37329   2.41244  5404622.25284  44.81615   19.1655  59498.68619      51.342       44.28811   48.45983  89.95248  131.0    0.06758  -21.39222  0.88774 
  -17.06781  0.00103    2.753     13.67842  1.75348  1.30198  21.50583  0.02011     0.03172  2074.21004   6881.22856  2.78342         3585.37243     19.22698  0.00937  59412.17801  0.55194   0.02221  5426042.07552  44.89865  19.15894  59494.08594    51.40414       44.33715    57.3536  79.17781  125.0    0.07175  -21.38511  0.99909 
  -18.19509  0.08414  2.01277     13.58105  1.11183  0.79354  47.76402  0.01132     0.21792  2441.26334   5997.62159  2.30198         3513.97537     16.66817    3e-05  59411.05074  1.69808   4.01905   2879695.2731  45.24795  19.15586  59494.08594    51.41377       44.35198   56.70695  78.31678  134.5    0.06281  -21.35925  0.85268 
   -16.9981  0.00124  2.32879     13.84912  1.67458  0.63366  11.25144  0.03256     0.26153   2355.4821   5912.81464  1.50525         3814.51541     17.51707  0.00018  59412.24772  0.37239   0.01397   1689420.2115  45.53075  19.13395  59491.26067     51.4582       44.42458   52.21233  72.05727  144.0    0.07485  -21.35752  0.99957 
  -18.61313  0.09654  2.68269     13.78159  1.39569  0.72415   50.9714  0.01004     0.12035  2116.30103   6912.83526  3.57252          3449.6553     16.78568    3e-05  59410.63269  1.36179   4.92072  2550195.67379  45.14992  19.14178  59492.55725    51.41513        44.3609   54.62264  78.93322  130.0    0.06265  -21.36429  0.78828 
  -17.35451  0.03715  2.41483     13.63167  1.57006  1.31944  48.50433     0.01     0.01923  2392.07664   5561.34764  2.00704         3570.62176     17.50726  0.00018  59411.89131  1.65561   1.80193  4636234.57654  45.03282   19.1632  59495.08594    51.48296       44.49911    45.3555  69.64696  135.0    0.06584  -21.36001  0.93762 
  -14.93646  0.00163  2.70811     13.75323  1.86993  1.18452  26.88581  0.01288     0.10741   1948.0749   6386.14153  2.14921           3737.902     19.22625  0.00935  59414.30936  0.60864   0.04379  3967466.35388  45.07682  19.13902  59492.55725    51.49145       44.48388   48.39373   68.9303  126.0    0.07612  -21.35935  0.99844 
  -18.81097  0.00188  2.32413     13.74679  1.52632  0.75182  39.42497  0.01167     0.29416  2060.69177   6049.02052  2.24932         3639.01145     17.02985    6e-05  59410.43486  0.99868   0.07402  2457025.70395  45.32956  19.14534  59491.26067    51.46318       44.42108   52.95412  75.80327  128.0     0.0645  -21.34731  0.99736 
   -6.07958  0.00557  1.10023     13.90847  1.62604  1.31099  53.91697     0.05      0.1609  3459.62036   9200.59955   4.2285         2854.81562     17.08455    7e-05  59423.16624  3.84955   0.30021   278588.66659  46.95205  19.17905  59500.09766    51.43987       44.42928   42.50484  80.53813   90.5    0.03671  -21.38618  0.99792 
  -19.03262  0.00607  3.23267     13.80442  1.98415  1.03216  45.69121  0.01032     0.33473   2014.7312   6373.59561  3.67402         3491.56806     18.51611  0.00182   59410.2132  1.10635   0.27755  4738811.49094  44.87163  19.15135  59494.08594    51.45911       44.44275   51.44188   73.4817  126.0     0.0678  -21.35795  0.98703 
  -16.62051  0.00117  2.61333     13.98596  1.79659  0.54112  34.47469  0.01037     0.16852  1785.19342   7666.70185  2.29144          3734.6118     18.42861  0.00149  59412.62531  0.65539    0.0403  1215424.84002  45.60418  19.17454  59495.08594    51.52806       44.56665   42.39217   65.6456  122.5    0.07324  -21.34867  0.99858 
  -18.08487  0.02719   2.8888     13.82323  1.91629  0.97111   48.3564  0.01004     0.09526  2342.78714   6594.31825  2.24273          3586.4196     17.87332  0.00041  59411.16095  1.58324   1.31488   3351528.4845  45.10463  19.16248  59495.08594    51.41065        44.3574   56.33402  78.31678  132.0    0.06818  -21.36953  0.95083 
    -5.7056  0.08078  1.56897      14.2957  2.06123  0.87271   78.5364  0.01056     0.28454   1719.4481   7618.50369   3.1784         3733.76073     16.17956    1e-05  59423.54022  1.38508   6.34404   120719.61572  47.10996   19.1522  59494.08594    51.45154       44.43819   50.69617  73.57343  107.5    0.04371  -21.31768  0.94141 
  -16.97445  0.00104  2.26203     13.70118  1.75438  1.27079   32.7312  0.01098     0.21332  2018.38533   6736.89618  1.53784         3919.42495     18.46866  0.00163  59412.27137  0.79542   0.03418  3300461.67788   45.2854   19.1341  59494.08594    51.58887       44.67919   41.07134  54.11284  134.0    0.07232  -21.34646  0.99907 
  -15.93757  0.00144  3.13778     13.77774  2.05239  1.21827  39.22344   0.0116     0.20121   2430.9428   6277.82341  2.65683         3456.64692     17.79196  0.00034  59413.30825  1.38268   0.05666  5221998.31002  44.87002  19.12101  59492.55725    51.41549       44.37173    52.3202  76.61166  133.5    0.07251  -21.37545  0.99762 
  -17.56816  0.00104  2.26045     13.91849  1.73886  0.58329  18.52869  0.02169     0.18144  2223.99281   5964.95741  1.42823         3836.74187     17.08816    7e-05  59411.67766  0.54669   0.01935  1200872.10098  45.72122  19.14844  59494.08594    51.58472       44.65289   43.39291  56.43441  142.0    0.06854  -21.33858  0.99947 
  -10.25356  0.05048  1.89518     14.10546  1.87138  0.96842  80.22985  0.01171     0.47909  1606.28613   7986.72815  4.22293         3578.30335     16.28714    1e-05  59418.99227  1.23484   4.05014   384014.36902  46.40136  19.17861  59500.09766    51.34272       44.29188   47.01989  89.95248  107.0     0.0426  -21.31491  0.93605 
