 log(Bfield)      Mns    Pspin  cutoff_power  cutoff_wavelength  fnickel    kappa  kappagamma   mejecta  log(nhhost)  temperature  texplosion  thetaPB     vejecta      A_V        MJD_0   log(KE)      M_Ni  Peak_mag     Peak_MJD 
    14.15149  2.00095   4.9691       1.06155         3273.19889  0.11672  0.03763     0.23344   9.14654     19.37034   5251.63053   -12.70672  1.44659  4623.33787  0.01303  53609.12055  51.92118   7.63452  19.46508  53656.48599 
    14.05604  1.84922  5.39737       4.08406         2943.44462  0.09425  0.02753     0.20262  10.87269     17.47798   3297.16289    -11.6856  1.31082  4336.51369  0.00017  53610.14167  51.88184   6.40047  19.49029  53659.19999 
    14.50638  1.75215  1.96978       4.91329         2903.80714  0.02006   0.1141     0.06161   9.45546     18.92767   5048.18136    -3.94923   0.8402  4633.90669   0.0047  53617.87804  51.92634   1.32199  19.51043  53659.19999 
      14.599  1.85929  1.65133         4.885           2883.188  0.01611  0.05789     0.02205  18.04362     19.90383   9795.75272    -2.97146  0.75801  4529.15045  0.04452  53618.85581  51.96408   1.21185  19.46043  53659.19999 
    14.50193  1.51043  2.50266       4.66937         2859.55037  0.45584  0.13265     0.20889   6.06377     19.82629   8865.19917    -5.84666  0.67407  4747.15227  0.03724  53615.98061  51.90276   27.1066  19.48554    53661.914 
    14.50976  1.58538  3.39976       4.96787         2847.34058  0.09354  0.01291     0.13083  50.45753     16.75988   9077.85697    -5.83881  1.03525  5213.07474    3e-05  53615.98846  52.16458   8.42859  19.42342  53654.75412 
    14.82117  1.66647   3.5187       4.58881         2923.45259  0.46374  0.08968     0.15252   7.27716     18.04231   9153.71346    -6.28502  0.35618  4858.20145  0.00061  53615.54225  51.94169  28.79979  19.47732    53661.914 
    13.86114   1.5845  4.53404       4.53316         2809.08721  0.00313    0.023     0.12789  15.23943     19.11413   3430.86103   -14.35537  1.29517   4803.6829  0.00723   53607.4719  52.00086    0.2278  19.45212  53656.48599 
    14.09064   1.7291  5.88532       4.85535         2822.20335  0.16555  0.02071      0.0499  17.86366     16.97359    5785.6559   -12.96693  1.52516  4706.98508    5e-05  53608.86034   51.9967  12.43122  19.45611  53656.48599 
    14.08363    1.857  6.34412       4.83117         2837.15323  0.21982  0.02199     0.12952  12.78108     18.14394   7836.69098   -12.32437  1.13606   4719.0311  0.00077   53609.5029  51.96997  15.44224  19.47654  53659.19999 
    13.90527  1.67111  4.37199       0.98224         3258.43283  0.02606  0.06465     0.23905   4.29941     17.33473   5745.19413   -14.79503  1.38404  4877.59169  0.00012  53607.03224  51.88837   1.42003  19.44888  53654.75412 
    14.13025  1.68031  4.16073       1.64773         3132.25588   0.0738  0.02457      0.4558   18.3529     19.85213   7100.82088   -12.01888  1.16633  4561.50037  0.03952  53609.80839  51.97168   5.57027  19.46968  53656.48599 
    14.22645  1.80464  5.88473       4.92703         2857.09172   0.3609  0.05309     0.02513   6.86699     19.28192   4164.40606   -11.97288  0.83698  4837.56569  0.01063  53609.85438  51.93209  22.11002   19.4241  53656.48599 
     14.3156  1.56992  2.66978       4.88899         2821.25387   0.1234  0.04606     0.17125   20.2071     17.40793    4534.1588     -6.1217  1.51953  4957.48588  0.00014  53615.70557  52.05193   9.48636  19.45848  53656.48599 
    14.16754  1.38224  3.08641        1.4749          3306.9443  0.09932  0.01681     0.02364  33.37484     18.29977   5876.64975   -10.21847  1.54932   4540.5304  0.00111   53611.6088  52.01479   8.35568  19.48031  53659.19999 
    14.34307   1.8567  4.58123       0.92169         3314.00699  0.23089  0.02926     0.01272  13.70032      18.5273   7831.02278   -13.27848  0.86557  4451.02004  0.00187  53608.54879  51.92535  16.45195  19.43903  53656.48599 
    13.88808  1.48206  4.09165       1.10025         3280.12273  0.02006  0.01257     0.31496  27.74129     17.05776     5978.267    -15.0156  1.39007  4759.20957    6e-05  53606.81166  52.04162   1.63389   19.4623  53656.48599 
    14.32273  1.49965  4.86564       4.23473         2930.07436  0.43198  0.07666     0.03178   5.42169     18.17835   9156.37005   -11.23798  0.55559  4713.22517  0.00084  53610.58929  51.88454  24.98834  19.44201  53654.75412 
    14.43012   1.6491  4.79639       4.95466          2851.4438  0.00818   0.0131     0.08357    21.373     18.76059   5544.80591   -13.90365  0.25653  4926.36158   0.0032  53607.92361  52.05101   0.63563  19.50809  53659.19999 
    14.34938  1.50525  5.64239       4.75961         2932.02449  0.13098  0.01138     0.04825  25.55717     16.76547   3300.73925   -12.90245  0.42715  4256.91149    3e-05  53608.92482  51.93837  10.51348  19.47729  53659.19999 
    14.07322  1.48597  4.36876       4.79144         2882.88703  0.02644  0.02187     0.06387  13.34965     19.94988   6459.96472   -13.21214  0.56265  4709.89849   0.0495  53608.61512  51.97216   1.87383  19.43687  53659.19999 
     13.8624  1.62215  4.69505       4.55434         2895.67332   0.0255  0.04835     0.05872   5.75587      17.9901   9642.28987   -13.55595  1.21699  4700.90885  0.00054  53608.27132  51.88872   1.49717   19.4539  53656.48599 
    14.51181  1.76097  4.14261       0.89654         3546.93342  0.00532  0.01616     0.08167  16.05685       20.268   6883.42174   -13.97779  0.26211  4578.66842  0.10297  53607.84948  51.96368   0.39096  19.47041  53659.19999 
    14.48582   1.7895  1.59119       1.31886         3275.61504    0.143  0.03764     0.02821  19.50705     19.32847   7713.65941    -4.98109  1.33528  4877.19702  0.01184  53616.84618  52.03485  10.91985  19.48544  53656.48599 
    13.91685  1.82709  5.49893       4.94026         2836.82872   0.0553  0.01252     0.07556  22.38238     18.08337   7007.82468    -14.1473  1.55873   4844.3258  0.00067  53607.67997  52.04014   4.33263  19.45667  53659.19999 
    14.82361  1.58674  3.12459       4.73854         2942.55462  0.46044  0.13163     0.11798   6.36872     18.67247   5967.77899    -7.33704  0.31691   4982.6277  0.00261  53614.49023  51.94996  27.70715   19.4732  53659.19999 
    13.99642  1.44508  4.47022       1.96632         3117.48935  0.21277  0.02082     0.08266  14.67059     20.08847   7611.88725   -12.48077  1.04862  4515.08471  0.06811   53609.3465  51.94375  15.37084  19.42471  53656.48599 
    14.04185  1.71334  5.18683        4.8253         2901.25954  0.16658  0.04946     0.01537    6.5835     16.09316   7401.79035   -15.15409  1.04243  4165.49471    1e-05  53606.67318  51.79782  10.10368  19.45807  53659.19999 
    14.56884  1.99094   4.4156        4.8373         2861.57761  0.16226  0.04961     0.40468  13.68098     18.69417    6484.5684    -8.82279  0.71328  4612.37316  0.00275  53613.00448  51.95616  11.55833   19.4722  53656.48599 
    14.56201  1.84628  2.75971       4.85015         2895.66077   0.0097   0.0377     0.08331  26.68352     19.57174   6204.10922    -6.17333  0.65179  4785.92042  0.02072  53615.65394  52.04347   0.78455  19.46936  53656.48599 
    14.48711  1.22495  4.32151       2.35417         3201.17314  0.45662  0.05046     0.01004    5.8051     18.73201   9148.87346   -13.68223  0.19926  4572.85364    0.003  53608.14504  51.86564  26.86496  19.44509  53656.48599 
    14.39498  1.68057  2.19566       4.73138         2923.33418  0.04384  0.11036     0.23506    8.7618     19.15398   8289.68812    -5.00537  1.02406  4436.97745  0.00792  53616.82189   51.8813   2.84062  19.47902  53659.19999 
    14.40338  1.79162  2.98536       4.99786         2935.22914  0.03462  0.13113     0.27252   6.12439     19.74214   8500.54701    -6.86688  0.93055  4229.99315  0.03068  53614.96039  51.80362   2.06361  19.48433  53659.19999 
    14.31561  1.66609    3.207       4.98654         2912.90944  0.02052  0.02853      0.0375  28.99505     18.49236   9501.64994    -7.95501   1.0003  4572.82598  0.00173  53613.87225  52.01032    1.6849  19.45759  53656.48599 
    14.14857  1.33392  3.50251       4.66334         2915.95405  0.00817  0.04578     0.01245  11.66453     19.16082   8631.51583   -11.19098  0.68699  4165.37301  0.00805  53610.63628  51.85332   0.56301  19.49223  53659.19999 
    13.90269  1.80859   5.3746       4.38927         2859.85841  0.29625  0.06571     0.01337   4.59718     17.34938   6879.39893   -14.14005  1.30425  5164.73381  0.00012  53607.68722  51.94571  16.43026  19.47026  53659.19999 
    14.83519  2.01121  3.63032       4.94553         2896.81993  0.24064  0.03218     0.02621  18.94195     19.98867   7554.03398    -5.57865  0.54363  4647.96191  0.05413  53616.24862  51.99061  18.27413  19.43675  53653.77199 
    14.09321  1.48306   3.9978       4.40354           2900.568  0.00331  0.02694     0.12038  18.47736      19.5698   4632.42404   -14.59924  0.75115  4104.07188  0.02063  53607.22803  51.88046   0.25027    19.507  53659.19999 
    13.87002  1.43349  4.26158       4.61431         2917.58332  0.02598  0.02598     0.17327   11.2489     18.04717    9088.9983   -14.61149  0.90943  4359.92741  0.00062  53607.21578  51.88965   1.77691  19.47083  53656.48599 
    14.14886  1.82611  5.31389       4.76326         2916.05109  0.11392  0.02386     0.23591  10.12284     19.90696   8193.49392   -13.47084  0.63092  4261.78438  0.04484  53608.35643  51.86008   7.61859  19.45323  53659.19999 
    13.82794  1.91418  4.94099       4.23809         2917.79653  0.00499  0.08865     0.01573    3.2551     17.12797   4713.04636   -16.53264  1.40338  4999.27488    7e-05  53605.29463  51.87646   0.25169  19.48696  53659.19999 
    14.33377  1.45309  3.21569       4.70317         2826.38484  0.48094  0.11636      0.1623   6.11542     17.42505   9591.14042     -7.4845  0.95629  4853.78977  0.00015  53614.34277  51.92295  28.65797  19.42865  53656.48599 
    14.00676  1.91397  4.89227       1.30425         3256.27684  0.00291  0.04441     0.06732   6.03761     16.51874   6063.52056   -14.85509  1.32448  4352.44785    2e-05  53606.97218   51.8269   0.17282  19.47517  53659.19999 
     14.0323    1.882   5.4365       4.94717         2860.98456  0.05587  0.02091     0.15851  14.39625      19.1442   5141.33403   -13.97278  1.05587  4528.69124  0.00774  53607.85449  51.94472   4.02069  19.49964  53659.19999 
    13.93762  1.55546  5.13871       4.72085         2877.95187  0.29955  0.04544     0.04227   5.99661     19.35501   8981.96408   -12.26718  1.13924  4750.78627  0.01258  53609.56009  51.90224  17.76474  19.46561  53659.19999 
    13.97562  1.37961  3.99321       4.03553         2968.59309  0.13152   0.0279     0.36855  14.34249     20.20994   8792.02757   -11.75211  1.18236  4288.17267  0.09009  53610.07516  51.89699   9.45804  19.45493  53656.48599 
    13.98051  1.15965  3.56346        3.7754         2833.08086  0.11934  0.03648     0.01901  12.67739     17.40075   5750.36369   -12.64852  0.86499  4333.26858  0.00014  53609.17875  51.89517   8.36924  19.45111  53656.48599 
    14.55421   1.8593   3.6459       4.60186         2885.10238  0.08869  0.01273     0.11731  52.71583       19.187   8385.14882    -6.89003    1.131  4845.58082  0.00855  53614.93724  52.10412   8.04806  19.45148  53659.19999 
    14.29942  1.51528  3.94314       0.89876         3373.01346  0.26915  0.02163     0.41476  16.24927     20.10534   5993.36701   -11.22858  0.74792  4775.18663  0.07081  53610.59869   52.0012  19.84193  19.48783  53659.19999 
    13.85732  1.79201  4.88111       2.25293         2969.37248  0.17391  0.03656     0.01052   5.67213     20.05416   4255.58384   -12.69183   1.5562  5257.87881  0.06293  53609.13544   51.9844  10.17388  19.44018  53656.48599 
    14.35805  1.86133  6.30536       4.53425         2735.67522  0.32591  0.04007      0.3421  11.70665     18.33514   6479.07222   -12.48003  0.85573  5211.25088   0.0012  53609.34724  52.04823  22.48095  19.41475  53656.48599 
    13.78508   1.3859  3.77993       1.07009         3188.83201  0.00709  0.01918      0.0914  14.12637     18.21434   8802.89444   -15.25045  1.54449  4416.60079  0.00091  53606.57682   51.9213   0.50837  19.42584  53656.48599 
    14.28388  1.32015  2.35672       4.62802         2936.85772  0.01349  0.06204     0.03609  13.13262      19.3541   5245.02417    -5.99274  0.73752  4409.06842  0.01256  53615.83453  51.91338   0.95283  19.42378  53656.48599 
    14.23747  1.57964  3.68373       1.03043         3230.73282  0.33632  0.04287     0.08582  11.79167     19.44302   8945.45431   -10.86776  1.37283  4781.99974  0.01541  53610.95951  51.97422  23.23381  19.43715  53656.48599 
    14.17415  1.65208  3.48256       4.98345         2878.09501  0.01958  0.09587     0.08889    7.7736     19.54071   6131.56416    -9.40893   1.4752  4508.10306  0.01929  53612.41834  51.88335   1.23474  19.42884  53659.19999 
    14.54143  1.95036  2.84758       4.73347         2904.41531  0.11034  0.07612     0.23319  11.14349      19.1367   7465.42399    -5.58315  0.86571  4417.82702  0.00761  53616.24412  51.90025   7.53275  19.49359  53659.19999 
      14.213  1.65527   4.9229        4.8885         2904.05777  0.02816  0.01997     0.07271  14.85287     18.67226   3706.12066   -13.55664  0.50904  4468.39119  0.00261  53608.27063   51.9358   2.03971  19.47102  53656.48599 
    14.50245  1.75453  4.96325       4.74671         2834.66358  0.00184  0.01579     0.35437  19.96714     19.41522   4859.08539   -12.94298  0.26907  4913.92662  0.01445  53608.88429  52.04328   0.14135  19.44896  53659.19999 
    14.51004  1.74484  2.66745       1.50729         3200.50226  0.37307  0.07749     0.05532   8.63983     19.89921    7623.5071    -7.26263  0.81294  4808.24782  0.04405  53614.56464  51.94974  24.09525   19.4687  53656.48599 
    13.94583  1.66464  4.39773       1.25206         3301.48935  0.01868  0.02584     0.37333   11.0492     17.78931   4860.28186   -15.76487  1.13345  4313.57417  0.00034   53606.0624  51.87872   1.27317  19.43324  53653.77199 
    14.69471  1.49298  2.94887       4.73408         2893.25873  0.12318  0.01089     0.02211  46.96956     18.56067   8692.39372    -5.98195   0.7013  4721.38963  0.00202  53615.84532  52.07351   10.9718  19.46286  53654.75412 
    14.01019  1.37077  3.92511       4.85891         2867.19778  0.18838  0.10582     0.31809   4.89693     19.71522   8575.04682    -12.1102  0.99121  4646.73108  0.02884  53609.71707    51.861  10.61959  19.48204  53659.19999 
    14.55495  1.76971  2.76423       4.96626         2940.33896  0.12577  0.01947     0.11819  32.36912     20.25573   6795.10259    -5.06232   0.9297  4514.96132   0.1001  53616.76495   52.0076  10.52529  19.47842  53659.19999 
    14.09829  1.66998  4.52228       4.51154         2900.61465  0.12938   0.0627     0.06808   7.29946     19.98077   8466.28412   -12.36115  1.09973  4385.85483  0.05315  53609.46612  51.85316    8.0409  19.43116  53656.48599 
    13.94913  1.77969  4.59925       1.18847          3312.0678  0.03309  0.02693     0.02011   9.27041     18.55267   6885.24114   -14.31266  1.37974  4107.80158  0.00198  53607.51461  51.81978   2.17065  19.45945  53656.48599 
    14.73867   1.5094   2.3637       2.72028         2914.98664  0.45124  0.11046     0.01539   6.73196     18.80343   6837.94699    -5.93861  0.39421  4958.04597  0.00353  53615.88866  51.95142  27.51526  19.47498  53659.19999 
    14.39315  1.59979  2.92279       4.01539          2890.6732  0.07397  0.07331     0.26348  11.30176     19.18947   7408.69665    -8.33856  0.73708  4293.26815  0.00859  53613.48871   51.8767   5.06481  19.45942  53659.19999 
    14.63002  1.93135  4.89923       4.95287         2832.39801  0.37689  0.06856     0.01608   8.47966     19.44373   8870.53358    -9.06117  0.58926  4731.59759  0.01543   53612.7661  51.93396  24.23985  19.42853  53656.48599 
    14.39099  1.52015  1.07035        1.2076         3246.25153   0.2862  0.07399     0.09098  10.66912     19.83314   6885.71218    -5.14959  1.46675  4930.74252  0.03783  53616.67768  51.99163  19.35736  19.45795  53659.19999 
     13.9618  1.76952  4.94018       3.79787         2906.04214  0.02651   0.0511     0.03381   6.10987     18.47151   9619.51532    -13.5582  1.56427  4446.38266  0.00165  53608.26907   51.8467    1.5795  19.41306  53654.75412 
     14.4639  1.67432  2.81015        4.7906         2873.96555  0.42833  0.09892     0.20454   7.34621     19.38506   7074.14724    -5.11911  1.09315  4767.10287  0.01348  53616.70816  51.92621  26.65953  19.45417  53656.48599 
    14.88529  1.92264  5.64029       3.64366         2912.95549  0.24108  0.06297     0.03371   6.65584     17.64074     9869.917   -13.53459   0.1695  4768.51925  0.00024  53608.29268  51.91639  14.66057  19.39629  53656.48599 
    14.24988  1.53905  3.61827       1.47696         3262.52886  0.20909  0.02285     0.04063  18.22148     19.86248   7785.04386    -9.50983   1.1776  4256.08861  0.04048  53612.31744  51.91089  15.76057  19.43511  53654.75412 
    13.90207  1.22529  4.71935       4.85961         2915.27493  0.27626  0.02596     0.04865  12.25788     16.80579   9624.97909   -11.43389  1.46872  4334.48497    4e-05  53610.39338  51.89239  19.24016  19.45011  53659.19999 
    13.81374  1.66771  4.67182       2.37037         2969.50579  0.13314  0.05602     0.01398   4.84174     19.30901   8037.81537   -13.56288  1.55998  5590.07684  0.01132  53608.26439  52.02028   7.48403  19.41654  53656.48599 
    14.37631  1.68296  4.06905       4.82436         2933.54966  0.05593   0.0496     0.01316   11.8307     19.00315   8630.18782   -10.19588  0.65018  4075.41022   0.0056  53611.63138  51.83564    3.8666  19.42511  53656.48599 
    14.44901  2.10542  4.59363       1.54635          3153.0705  0.21149  0.03141     0.17722  17.15497     17.72874   7255.84986    -8.81856  1.57053  5089.28294   0.0003  53613.00871  52.06113  15.75705  19.42992  53656.48599 
    14.23423  1.59518  3.11756       1.26463         3227.83157  0.48915  0.07415     0.01555   7.03825     20.32227   8703.02281   -10.35066  1.12822  4482.70271  0.11668   53611.4766  51.86843  30.14148  19.42473  53656.48599 
    14.48019  1.99698  3.37474        4.8658         2932.30792  0.05366  0.09386     0.04286   8.67276     18.75426   6318.88152    -7.02793  0.90059  4371.22321  0.00315  53614.79934  51.86734   3.46837  19.45798  53656.48599 
     14.2537  1.46198  4.74432       4.93298          2890.9048  0.45964   0.0654     0.14357   7.20524     18.43127   9467.68103   -10.44765  0.89527  4566.56315   0.0015  53611.37962  51.88692   28.4792   19.4601  53659.19999 
    14.52478  1.74427  2.92183       4.91905         2888.18272  0.18488  0.04068     0.08357  17.99251     19.77855   6069.35428    -5.22483  0.91394  4726.67085  0.03336  53616.60243  52.00092  13.90175  19.46083  53656.48599 
    14.16816  1.81373  4.80576       1.08569         3197.89789  0.13484   0.0584     0.16603   4.72354     18.68481   7420.11942   -14.02179  0.66678  4810.37775  0.00269  53607.80548  51.88703    7.5313  19.46771  53659.19999 
    14.57282  1.91663  3.03248       3.74436         2975.22001  0.32677  0.07209     0.36606   9.39141     19.37101   3122.80032    -4.70935  0.98902  4693.56957  0.01305  53617.11792  51.93681  21.49864  19.44321  53656.48599 
    14.52879  1.58336  1.41828       4.99226         2870.54111  0.02552  0.09411     0.22383  11.78057     20.08411   6755.70507    -3.02487  0.67195  4695.85265  0.06743   53618.8024  51.95834   1.76282  19.45647  53654.75412 
    14.00603  1.27905  5.03544       4.83829         2876.31207  0.32035  0.02904     0.05115  12.67312     18.08611   5465.28236   -11.37546  1.28732  4688.36374  0.00068  53610.45181  51.96355  22.46458  19.47461  53659.19999 
     14.5311   1.5682  2.55197       4.87992         2872.03051  0.40758  0.13682     0.06695   5.89787     19.11174   8523.43023    -4.96055  0.70978  5014.50641  0.00719  53616.86672  51.94741  24.07357  19.46777  53659.19999 
