 texplosion  fnickel    Pspin  log(Bfield)      Mns  thetaPB   mejecta    kappa  kappagamma      vejecta  temperature    alpha  cutoff_wavelength  log(nhhost)      A_V         MJD0   kenergy  mnickel           TSD   log(L0)  Peak_mag     Peak_MJD  log(E_rad)  log(Peak_lum)  Rise_Time    E_fold  tau_1  delta_m15     r_peak     frac 
    -1.8501  0.35217  1.03345     14.98983  1.59229  0.78187  21.88637  0.04315     0.08689  11459.30637   4965.00475  1.71116         2790.61063     16.55676    2e-05   54137.8499  17.14421  7.70771    1654.88331  49.22352  23.48368      54185.5    51.04617        44.1063   25.19613  78.49563   95.0    0.16566  -21.08708  0.99599 
   -1.57729  0.27844  0.91954     14.94682  1.57683   1.2615  29.94465  0.02625     0.40013  11524.19328   4795.75742  1.79467         2848.06882     18.11694  0.00073  54138.12271  23.72288  8.33783     1581.6377  49.34038  23.42033      54185.8    51.02667       44.09841   23.25796  72.68114   96.5    0.17154  -21.15151  0.99818 
   -1.92621  0.45995  1.45605     14.98641  1.87153  1.25996  17.45145  0.04503     0.20357   10206.1546   5242.20732   2.1846          2774.3651     19.07356  0.00658  54137.77379  10.84383  8.02685    3922.31394  48.62114  23.34308      54182.8    50.97206       44.17597   22.28888  43.60868   90.5    0.18516    -21.333  0.99094 
   -3.15172  0.49634   3.2897     14.73137  1.95297  1.32126  10.57844    0.063     0.20285   7476.05615   3253.98953  2.85353          2764.4936     19.91605  0.04579  54136.54828   3.52691  5.25045   67620.44617  46.69515  23.47782  54186.63072    51.03582       44.10251   23.44935  75.39699   90.5    0.15358  -20.77987   0.8213 
   -5.44766  0.36402  4.29914     14.66681  1.96064  1.12573  13.28764  0.06883     0.15017   9187.64901   6042.19724   2.2518         2710.84973     18.72713  0.00296  54134.25234   6.69089  4.83693  156086.00178  46.10112  23.44203  54186.63072    50.99629       44.09485   25.00935  75.77516   85.5    0.17176  -20.86232  0.72335 
   -1.63005  0.38312  0.97759     14.94019  1.54096  1.26709  20.74734  0.03569     0.12293  11181.82049   6024.68325  1.92702         2753.46894     16.53365    2e-05  54138.06995  15.47443  7.94868    1801.14346  49.22077  23.37707      54182.8    50.92839       44.10198   22.28888  45.54684  108.0     0.1741  -21.08269  0.99772 
   -1.76525  0.31134  0.82471     15.11893  2.06553  1.13734  28.28414  0.03409     0.09708  11948.68952    6422.2295  2.05248          2679.6184     19.01159  0.00571  54137.93475  24.08855  8.80597     754.39511  49.87367   23.4486  54186.63072     50.9692       44.08775       24.4  71.89883  105.5    0.14609  -21.18225  0.99938 
   -1.86154  0.40494  1.10078     15.04021  1.68023  0.67359  20.86197   0.0552     0.11825  12091.97007   6442.69706  1.68984         2777.58474     16.71912    3e-05  54137.83846  18.19603  8.44784    1571.00945  49.21463  23.45902      54185.5    51.02743        44.0974   24.22705  76.55746  101.0    0.14983  -21.18453   0.9943 
   -1.40685  0.41255  0.84557     14.92631  1.35496   1.0782  17.09938  0.03022     0.01706    9063.8742   4410.52419  2.25536         2753.77615     18.46242  0.00161  54138.29315   8.37983  7.05437    1263.04929  49.44505  23.46846  54184.20801     50.8601       44.08494   23.25796  39.73235   30.0    0.38535  -22.35979  0.99858 
    -5.0324  0.45822  5.15602      14.7588  1.98124  0.95839   9.15231  0.06378     0.07347   8027.79714   7412.95761  2.53604         2724.32423     17.71413  0.00029   54134.6676   3.51844  4.19374  148521.74691  45.96936  23.38925      54182.3    50.91462       44.10099   22.28888  44.57776   82.5    0.20202  -20.70171  0.67913 
   -2.46714  0.27853  0.95754     14.96391  1.91792  1.56813  29.06009  0.03473     0.03809  11243.56921   6104.52805  1.80724         2819.34492     18.75224  0.00314  54137.23286  21.91455  8.09414    1928.17156  49.30422  23.41429  54189.05342    51.10294       44.14048   26.52494   85.2792   97.0    0.13865  -21.09872  0.99825 
    -2.0147  0.25181  1.14735     15.02727  1.84144  1.32827  30.95766  0.02189     0.13774   9882.48902   4888.79348  2.04859          2788.1576      18.7355  0.00302   54137.6853  18.03549  7.79553    1985.28869  49.11679  23.41948  54186.63072    51.03047       44.10471    23.6177  76.55746  103.5    0.16088    -21.039  0.99726 
    -6.3264  0.46058  5.09681      14.5739  1.89805   1.2474   9.06276   0.0856     0.14277   9793.98982   6882.04581  2.08949         2733.83842     18.63632   0.0024   54133.3736   5.18569  4.17412  325772.26269  45.61964  23.44079      54185.8    51.06265       44.11225   25.00935  79.65149   72.5    0.21651  -20.88919  0.66855 
   -1.86409  0.37868  1.01276     14.98985  1.53669  1.15223  22.35735  0.03269     0.14224  11079.41519   8359.75807  2.23095         2695.67492     18.33768  0.00121  54137.83591  16.37122  8.46631    1533.58791  49.25871  23.49404      54185.5    51.06335       44.11069   26.16521  80.43379   94.0    0.15507  -21.10287  0.99757 
    -1.7632  0.40831  1.12099     15.04111  1.63783  1.03822  20.09499  0.03633     0.03573   11436.6238   6771.99369  1.88889         2746.97602     16.95538    5e-05   54137.9368  15.67872  8.20491    1581.47596  49.18485  23.45634      54185.8    51.04416       44.10546      24.72   78.3624   91.5    0.17571  -21.10318  0.99687 
   -1.72353  0.29241  1.38416     15.06657  1.76489  1.01165  25.33994  0.02339      0.0332    9235.0957   7148.71063  2.29406         2797.96963     17.68097  0.00027  54137.97647  12.89186  7.40961     2310.8484  48.86942  23.43661  54186.63072    51.07258       44.12337       24.4   78.6824  106.0    0.16012  -20.93423    0.994 
   -3.57033  0.44665  4.54963     14.79906  2.07188  1.12671  10.19696  0.05357     0.02251   7402.81833   3003.24272  2.90447         2748.94674     18.81384  0.00362  54136.12967   3.33344   4.5545  100463.27784  46.26725  23.42779      54185.5    50.93803        44.0929      22.84   64.7371   76.5    0.19239  -20.69398   0.7348 
   -1.89985  0.43925  1.13431     14.95702  1.75517  1.27459   17.9715  0.04644     0.15174  11381.63905   9729.78817   1.8596         2752.79851     16.61056    2e-05  54137.80015   13.8874  7.89397    2556.06649  48.99613  23.46079      54185.5    51.01488       44.11034   24.22705  75.58838   77.0    0.16524  -21.08592  0.99623 
   -2.18476  0.29364  0.81578     14.88197  1.53833  1.35496  29.73803  0.03108     0.01757  11489.23673   6908.21402  1.96078         2640.80879     18.89458  0.00436  54137.51524  23.41649  8.73215    1637.09945  49.41868  23.45536      54185.8     51.0702       44.10931   26.16521  80.43379   79.5    0.14636  -21.15548  0.99848 
   -4.19527  0.49912  4.30666     14.73824  1.76527  1.07013  11.13381  0.05262     0.03067   8512.04064   5073.73749  2.76655         2746.99901     19.25918  0.01009  54135.50473   4.81214   5.5571   101489.9263  46.24095  23.47762  54186.63072    51.07562       44.13678   27.13429  82.37195   81.5    0.18581  -20.82852  0.66615 
    -1.8536  0.23419  0.81233     15.04707  1.65945  1.10966  32.23395  0.01904     0.22748  10131.63459   6581.35172  2.00681         2845.50476     17.28406  0.00011   54137.8464  19.73784  7.54889     818.65875  49.75625  23.45654  54186.63072    51.02569       44.10406      22.84  75.39699  112.0     0.1633  -20.98159  0.99928 
   -1.61476  0.37451  1.14509     15.05955  1.74252  1.02108  21.68854  0.03561     0.04646  11632.39129   5455.40502  1.87509         2738.16897     17.62368  0.00023  54138.08524  17.50635  8.12266    1612.78161  49.18477  23.46629      54185.8    51.11611       44.14594   28.04935  87.27139   96.0    0.17312  -21.12303  0.99683 
   -2.49562  0.38663  1.17001     14.96872  1.70507  1.25897  21.45456  0.03982     0.15906  11538.58093    5140.9966  1.84897         2773.36708     17.48307  0.00017  54137.20438  17.03929  8.29496    2503.24295   48.9657  23.47221  54186.63072    51.07228       44.11531   26.16521  82.37195  101.5    0.15715  -21.11736  0.99571 
   -5.50941  0.30037  4.59068     14.64989  1.91259  1.18162  13.09288  0.05166     0.26583   7781.65018   3934.82471   2.5498         2734.88723     16.69225    3e-05  54134.19059    4.7294  3.93272   187673.7276  45.95331  23.42504      54185.5    50.98607       44.12266   22.28888  68.80481   76.5    0.18539  -20.67943  0.72998 
   -5.58925   0.4298  4.23062     14.61228  1.79588  1.05944  10.61749  0.07634     0.18796   8925.05729   5234.75381   2.3154         2711.83802     18.45657  0.00159  54134.11075   5.04511  4.56345  177966.39042  46.01998  23.35641      54182.8     50.9222       44.09582   22.28888  48.45409   81.5    0.17954  -20.84099  0.71371 
   -1.90099  0.37871  0.85568      14.9487   1.4614  1.10481  21.04484  0.03274     0.12593  10743.16919   7616.17587   1.9766         2800.51977     16.20324    1e-05  54137.79901  14.48897  7.96991    1258.38283  49.46918  23.43378  54186.63072     51.1099       44.14599   26.52935  85.88414  103.0    0.16522  -21.05002  0.99853 
   -1.71865  0.44672  0.96048     14.97168  1.60748  1.12905   17.4694  0.04283     0.23335  10848.48628   5198.26115  1.84973         2783.42731     17.80789  0.00036  54137.98135  12.26432  7.80394    1568.88289  49.31442  23.40499  54186.63072    50.95382       44.10676   24.22705  65.89756  104.5    0.16229  -21.05043  0.99799 
   -1.59936  0.42807  1.03721     15.07674  1.83485  1.09343  18.06122  0.04331     0.04544  11650.26253   4253.35898  1.92092         2657.27526     17.99707  0.00055  54138.10064  14.62331  7.73156    1287.28693  49.39103  23.34989      54182.8    50.89153       44.09836    21.3198  40.70144   78.5    0.18056  -21.08478  0.99827 
   -2.28843  0.49998  2.40192     14.86533  1.78987  1.20515  13.04073  0.04889     0.19736   8493.85923   5286.00766  2.54771         2768.69228     18.96386  0.00511  54137.41157   5.61228  6.52005   17827.41322  47.50946  23.47138      54185.8    51.02844       44.10871   25.00935   78.6824  107.5    0.15629  -20.86639   0.9205 
   -2.23937  0.35538  1.13689      15.1005  1.77774  0.83987  23.57788  0.03514     0.02928  11287.84521   6686.63257  1.82204         2819.76283     16.00653    1e-05  54137.46063  17.92066    8.379    1343.15452  49.27915  23.49658  54186.63072    51.05131       44.10383   26.16521  79.46471   90.0    0.15576  -21.12669  0.99656 
    -2.3821  0.30128  1.72203     14.99384  1.69259  1.25545  22.57372  0.02052     0.02373    8027.7573   6314.10325  2.51042         2733.24472     18.64043  0.00243   54137.3179   8.67798  6.80096    4794.70988  48.34456  23.47491  54186.63072    51.01074       44.09979   26.16521  77.52654  111.0    0.15598   -20.7755  0.98557 
   -1.42487  0.41356  1.18583      15.0166  1.79447  0.97585  19.67706  0.04726     0.04162   11821.5779   5871.55067  1.77951         2741.26785     17.86262   0.0004  54138.27513  16.40357  8.13772    2170.69857  49.03814  23.37231      54185.5    50.95514       44.08448   23.25796  58.14491   75.0     0.2357  -21.53509  0.99531 
   -1.57368  0.34962  1.24207     15.02568  1.68492  0.96853  20.98257  0.03535     0.11436  10881.30483   5818.78568  2.03871         2684.99289     16.36253    1e-05  54138.12632  14.81998  7.33599    2144.47467  48.97581  23.43209  54186.63072    51.05323       44.13297   26.16521  80.43379  107.0    0.18034  -21.02971  0.99507 
   -8.21185  0.44911  6.39072     14.50487   1.9573  1.21768   7.04838  0.07786     0.13223   8929.36312   6822.19441  2.05461         2719.99103     18.35868  0.00127  54131.48815   3.35241  3.16553  725811.03556  45.08858  23.45889  54186.63072    51.06956       44.11069   25.32935  81.26965   68.0    0.25094  -20.79679  0.63698 
   -1.19873  0.41379  0.87985     15.09163  1.77841   0.7518  21.09436  0.05121     0.01151  12420.12651   8807.79354  1.90721         2658.61863      17.6632  0.00026  54138.50127  19.41089  8.72857     838.31412  49.70665   23.4505  54186.63072    51.03732       44.10019       24.4  76.74424   46.5    0.16848  -21.20634   0.9984 
   -1.24061  0.32159  1.13609     14.86034  1.40442  1.02201  21.70946   0.0298     0.08589   9378.22551   6499.35218  2.18692         2766.33571     18.94166  0.00486  54138.45939  11.38984  6.98162    3202.34545  48.80005  23.41251  54186.63072     51.0774       44.13145      24.72  81.26965  111.5    0.16496  -20.91388  0.99347 
   -1.68913  0.48551  1.37686      15.0951   1.8131  0.86403  15.70129  0.05018     0.07761  11475.65375   8035.39067  1.93234         2730.45673     16.59078    2e-05  54138.01087  12.33438   7.6231    2059.74668  48.93567  23.41047  54186.63072    50.99419       44.11264   24.22705  72.68114   88.0    0.17685  -21.07664  0.99342 
   -5.48955  0.39077  3.87878     14.53236  1.71306  1.23429  11.06214  0.07677      0.2661   9263.33262   5726.85363  2.14217         2751.62486     18.50956   0.0018  54134.21045    5.6624   4.3228  206180.52352  46.01098  23.42954  54186.63072    51.02408       44.10693   24.22705  77.52654   78.0    0.19992  -20.86956  0.74493 
   -4.65164  0.32414  2.36897     14.48236   1.4616  0.95452  15.87716  0.08459     0.03927   9166.01256   4553.15225  2.38335         2711.77353     18.98469  0.00536  54135.04836   7.95721  5.14642   82613.22731  46.76751  23.39179      54185.5    50.95895       44.09933   22.64861  66.86664   69.0    0.13093  -20.93527  0.84517 
   -2.08522  0.44584  1.20954     15.02911  1.63123  0.96832  17.57389  0.04105     0.03008  11022.99292    6366.7772  2.04613         2752.53758     17.23456   0.0001  54137.61478  12.73779  7.83518    1937.95059  49.02877  23.42894  54184.20801    50.96368       44.14255   23.25796  45.54684   87.0    0.16884   -21.0742  0.99533 
   -3.27017  0.29195  3.17264      14.7034  2.00137  1.27803  15.26396  0.06106     0.21804   7897.03988    3308.7645  2.81209         2737.28119     16.41459    1e-05  54136.42983   5.67836   4.4563   73311.73728  46.70216  23.43867  54186.63072    50.97739       44.09427   24.22705  69.77389   77.0      0.141  -20.75408  0.85487 
   -1.65485  0.31207  1.18726     15.04331  1.64302  0.75661  25.57036  0.03068     0.25235   10002.1368   6507.62244  2.20605         2826.93724     17.93219  0.00048  54138.04515  15.25983  7.97976    1761.65996  49.08948  23.45865      54185.8    51.02313       44.10885   23.32935  70.67159  110.0    0.15449  -21.06089  0.99407 
   -2.08751  0.27044  0.89856     14.94628  1.69679  1.48061  30.12031  0.03082     0.06855  12100.52258   9484.16176  1.87832         2749.15245     16.41145    1e-05  54137.61249  26.30842  8.14582    1629.20524  49.37941  23.45183      54185.5     51.0029       44.09296   24.22705   74.6193   77.0    0.17045  -21.15253  0.99851 
   -5.02867  0.43668  3.83759     14.70816  1.79644  0.99551  10.89297  0.07474     0.19882   9050.76889   6784.38594  2.27894         2742.32114     18.48126  0.00168  54134.67133   5.32285  4.75677    94195.7877  46.38111  23.41661  54184.20801     51.0427       44.14088   23.32935  70.67159   86.5    0.18012   -20.7947  0.75045 
   -1.78824  0.29671  0.83378     14.99391  1.75215  1.09915  26.23799  0.03464     0.06166  11232.38231   8204.41237    2.128         2694.60102     17.14438    8e-05  54137.91176  19.74702  7.78513     1163.2272  49.60465  23.47588  54186.63072    50.99211       44.08732   25.00935  74.80608   88.5    0.14679  -21.06933  0.99894 
   -1.42736  0.31126  1.09353     14.92831  1.64892  1.20521  25.26447  0.03137     0.18604  10443.40662   5283.50082  2.00443         2782.72464     19.04061   0.0061  54138.27264  16.43697  7.86379    2547.11256  49.00234  23.48496      54185.5    50.96577       44.12585   24.41843  50.20087   81.5    0.24621  -21.43871  0.99612 
   -2.55016  0.48763  3.09502     14.92791  1.98306  1.45273  12.75646  0.04103     0.01919   8564.99442   5893.64965  2.50013         2771.42392     17.52986  0.00019  54137.14984   5.58228  6.22042   24584.00161   47.1942  23.40247      54185.8    51.00823       44.09151   21.67953  71.71205   82.5    0.18076  -20.82283  0.87713 
   -1.84919  0.49266  1.57747     14.99277  1.78682  1.03983  15.49555  0.04761     0.12533  10411.80459   7052.64723  2.15525         2727.94389     19.22246  0.00927  54137.85081  10.02042  7.63402    4268.44678  48.49474  23.43343  54186.63072    51.02393       44.11236   25.00935   78.6824  105.0    0.15552   -21.0315   0.9861 
   -2.55882  0.39125  1.01779     14.79019  1.69478   1.5245  19.98924  0.06343     0.30201  12062.50798   6397.57416  1.66434         2768.80385     18.06986  0.00065  54137.14118  17.34997  7.82078    4284.11153  48.85078   23.4218  54184.20801    50.95227       44.07552   24.22705  57.17583   98.5    0.14701  -21.13159  0.99525 
   -1.86158  0.26674  0.72085     14.92845  1.67717  1.49594  31.14833  0.03112     0.01802  12408.09569   8603.22742  1.82189         2712.12537     16.91241    5e-05  54137.83842  28.60699  8.30862    1125.07617  49.72655  23.41015  54184.20801    50.95882       44.09187   24.22705  56.20674   67.0    0.16546  -21.15984  0.99932 
   -4.94432  0.42216  3.69171     14.64665  1.67664   0.9853  11.70037  0.06785     0.13276   8766.60059   3506.61709  2.37132          2700.9094     18.72436  0.00294  54134.75568   5.36401  4.93947  107996.97066  46.32542  23.48276      54185.8    51.06773       44.10621   25.32935  80.30057   78.0    0.16479  -20.81377  0.73643 
   -2.05851    0.421  0.94345     15.02551  1.64873  0.97448  20.62861  0.04468     0.02901  12456.71498   9487.28634  2.00769         2697.83502     16.45085    2e-05  54137.64149  19.09432   8.6846    1211.65335  49.45318  23.42064  54184.20801    50.92505       44.09221   23.25796  49.42317   64.5    0.17769  -21.21437  0.99806 
   -2.88065  0.35958  1.65114     14.91012   1.6769  1.49536  19.92953  0.02999     0.01683   8797.85795   5702.53125  2.47286         2729.55113     19.32662  0.01179  54136.81935   9.20191  7.16631    6421.73617  48.25013  23.42503      54185.5    50.91214       44.09605   23.25796  46.51593   88.5     0.1432  -20.87299  0.98297 
   -4.23286  0.38943  4.07468     14.72427  1.75919  1.12659  13.16076  0.04056     0.04422    7024.8155   4340.42338  2.89019         2674.87622     18.36108  0.00128  54135.46714   3.87416  5.12525   96555.09266   46.3092  23.47772      54185.8    51.03955       44.11378   28.04935  79.51873   95.0    0.16349  -20.64874  0.70869 
   -1.38488  0.38238   0.7904     15.03239  1.64408  0.81427  22.16088  0.04161      0.1032  11354.58551   6041.66351  1.95362          2780.9493     19.26207  0.01016  54138.31512  17.04342  8.47395     821.59204  49.77442  23.45321  54186.63072    50.99439       44.11875   26.16521  68.80481  105.5    0.14797  -21.14009  0.99883 
   -2.36704  0.44133  1.13428     14.93436  1.65183   1.1734  17.44867    0.048     0.04279  11204.54743   6200.61263  1.99095         2747.14244     17.39035  0.00014  54137.33296  13.06706  7.70067    2669.94339  48.95086  23.44332      54182.8    50.93841       44.07952   22.28888  52.33042   90.5    0.15708  -21.06077  0.99562 
   -1.97936  0.37826  1.87726     14.82486  1.76538  1.43462   17.9958  0.04168     0.05235   8635.64757   5048.24615  2.44232         2701.01743     19.33105  0.01191  54137.72064   8.00549  6.80709   12941.13053  47.85666  23.46372      54185.8     51.0465       44.10508   26.52494  82.37195  100.5    0.16262  -20.94762  0.96241 
   -2.53851  0.25923  0.88387     14.98127  1.69046  1.38512  31.44851  0.02548     0.03479  11558.91232   8905.39092  1.77784         2752.16396     19.19216  0.00865  54137.16149  25.06462   8.1523    1336.75015  49.47803  23.46842  54184.20801    51.11715       44.14547   28.04935   86.3023   80.0    0.16064  -21.09508  0.99878 
