 texplosion  fnickel    Pspin  log(Bfield)      Mns  thetaPB   mejecta    kappa  kappagamma     vejecta  temperature    alpha  cutoff_wavelength  log(nhhost)      A_V         MJD0   kenergy   mnickel            TSD   log(L0)  Peak_mag     Peak_MJD  log(E_rad)  log(Peak_lum)  Rise_Time     E_fold  tau_1  delta_m15     r_peak     frac 
 -109.19736  0.44931  1.69775     14.25152  1.62493  1.12064  47.55795  0.03346      0.1096  4395.79622   5674.73833  2.40328         4072.55914     17.11858    7e-05  58260.29874   5.48183  21.36826   136566.53582  46.88459  18.22436  58347.41199    51.50266       44.36892   54.09251  113.33668  125.5    0.04161  -21.76818  0.74359 
 -135.03393  0.24449  1.07275     14.24085  1.88778  0.73581  71.42831  0.06098      0.0282  4642.00242   5756.36393  1.63722         4143.70534     18.25961  0.00101  58234.46216   9.18139  17.46341    66538.32548  47.66073  18.31699  58350.60731    51.47502       44.29796   61.82001  123.64001  124.0    0.03113  -21.44816  0.91786 
 -165.91272   0.3365  1.15256     14.32213  1.52135  0.62895  93.79308  0.02665     0.05208  3968.44509   5523.90322  1.79335         3869.46259      16.0228    1e-05  58203.58338   8.81127  31.56128    42570.67154  47.69864  18.33138  58356.99796    51.44616        44.2835   56.66834  121.06418  126.5    0.03558  -21.62253   0.7995 
  -64.41284  0.33341  0.85562     14.75153  1.61555  0.77123  49.82958  0.01958     0.10221   5349.9611   5863.67331  3.46882         3911.87862     17.62196  0.00023  58305.08325   8.50777  16.61356     3448.55263  49.07497  18.38758  58372.97456    51.41203       44.28738   51.51667  109.83324  122.0    0.05748  -21.68866  0.98788 
  -101.5851    0.289  1.23889      14.4085  1.75995  0.54833  64.01198  0.04212      0.0412   5008.7019     7025.506  1.85975         4213.82125      20.4051   0.1412    58267.911   9.57941  18.49953    38228.71005  47.74589  18.34644  58360.19328    51.44938       44.29166   54.09251  121.06418  117.0    0.03607  -21.88822  0.87758 
  -95.44926  0.37421  1.80006     14.45881  1.83363  0.81618  49.08549  0.04344      0.1046   4954.0675   5927.65735  2.57817          4006.4387     17.65677  0.00025  58274.04683   7.18628  18.36837    66693.69381   47.1975  18.25166  58347.41199    51.48396        44.3173   64.39584  118.48835  120.5    0.03548  -21.72318  0.78582 
 -108.81634  0.47579  2.35875     14.14533  1.77892  1.31006  39.21437  0.04569     0.09895  4042.45326    5904.8477  2.21751         4050.87368     17.27308   0.0001  58260.67975   3.82263  18.65769   470632.86836  46.10096  18.40164  58379.36521    51.32469       44.23182   43.56092   103.2616  125.0    0.03898  -21.69135  0.65563 
  -31.17185  0.22305   1.1408     14.70851  2.00082  1.42138  55.86271  0.02195     0.36772  7776.34644   6991.41151  2.99592         4208.81776     19.68991   0.0272  58338.32424  20.15118  12.46012     9256.07122  48.48921  18.22369  58350.60731    51.46294        44.3539   61.82001  105.60918   98.0    0.10266  -21.81517  0.98309 
 -113.38512   0.3071  1.51273      14.0642  1.84195  1.10895  42.74465  0.10671     0.09311  5427.53643   6403.62097  1.96177         4018.89577     17.82406  0.00037  58256.11098   7.51129  13.12683   291219.90325  46.71038  18.39053  58372.51562    51.39457       44.28904   61.82001    102.238  115.5    0.03144  -21.65807   0.8744 
 -145.85584   0.3827  0.79405      14.2922  1.70685   1.1091  78.07307  0.02245     0.03364  4132.56935    5384.9664  1.68495         3962.26807     16.66424    3e-05  58223.64025   7.95369  29.87849    26020.02187  48.28603  18.39802  58369.49609    51.39896       44.27312   61.82001  108.93353  129.0    0.03848  -21.69678  0.94124 
  -94.79105  0.19928  0.86101     14.34326   1.8801  0.97656  74.92169  0.03842     0.13342   4681.6053      6773.31  2.49978         4080.81781      18.0798  0.00067  58274.70504   9.79545  14.93017    26637.56359  48.24752  18.35173  58356.99796    51.47115        44.2855   66.97167  123.64001  117.0    0.04338  -21.72398  0.96541 
  -92.84119  0.47855  1.99319     14.50138   1.9255  1.11734  39.37626  0.03794     0.28514  4400.19921   6198.79041  3.25208         4039.02974     18.79793  0.00349   58276.6549   4.54785  18.84332    70582.72513  47.10559   18.3989  58366.58392    51.42924       44.26726   64.39584   118.4338  123.5    0.04142  -21.74301   0.7668 
 -146.82576  0.28835  1.12775     14.05542  1.76076  0.94262  60.54518  0.07847     0.04416  4660.17731   6498.32334  1.78813         4012.41785     19.04869  0.00621  58222.67034   7.84353  17.45827   161097.69959  47.20303  18.23925  58341.02135    51.56628       44.39176   74.69918   120.8609  127.0    0.03072  -21.42361  0.89889 
 -135.84468  0.28031  1.27823     14.22605  1.93541   0.8845  67.39669  0.05442     0.03971  4196.32194   5756.77533  2.45899         3960.95271     19.25986  0.01011  58233.65141   7.07951  18.89189    103681.8098   47.3267  18.26171  58344.21667    51.48083       44.31923   59.24417  118.48835  124.0     0.0307  -21.47187  0.88191 
  -42.10118    0.248   1.0383     14.45641  1.69798  1.01351  46.18086  0.04986     0.09752  7785.92159   6867.71142  2.84808          4094.3716     16.10392    1e-05  58327.39491  16.69972  11.45284    20776.87202  48.14855  18.39976  58375.46875    51.34918       44.25107   41.21334  105.60918   96.0    0.07265  -21.79364  0.96311 
  -79.34766  0.47953  1.64369     14.65045  2.14077   0.7084  33.61796  0.04712     0.05635  4723.30546   6065.44874  2.83414         4136.93382     18.59666  0.00219  58290.14843   4.47394  16.12082    26861.00038  47.73865  18.34362  58360.19328     51.4662       44.32024   56.66834  115.91251  118.0    0.04684  -21.75043  0.87529 
  -117.9016  0.43035  1.03136     14.45881  1.58604  0.89099  59.22614  0.02544     0.04312  4848.93565   5832.86249  1.93368         3880.91994      18.4394  0.00153  58251.59449   8.30679  25.48789    18937.58596  48.16502  18.28598  58350.60731    51.48115       44.32303   56.66834  120.13661  129.0    0.04356  -21.72904  0.91241 
 -108.76983  0.30431  1.51604     14.10101   1.8222  1.32189  52.62939  0.06013     0.05371  5055.55449   7163.65599  1.80246         4243.35826     19.85718  0.03999  58260.72626   8.02404  16.01563   244242.03501   46.7802    18.351  58360.19328    51.43537       44.29235   56.66834  113.33668  114.0    0.03514  -21.75522  0.84924 
  -76.18469   0.3833  1.90705      14.3614  2.19204  1.10695  33.69763  0.09434     0.12532  6621.58165   6711.51233  1.88404         4173.96416     18.42112  0.00147  58293.31141   8.81353  12.91632   140150.25259  46.90238  18.37107   58363.3886    51.45303       44.30608   77.27501  110.76085  102.0    0.04709  -21.76766   0.8549 
 -119.38543  0.29171  1.55571     14.02124  1.85255  1.25124  46.30775  0.09173     0.04016  5110.59642   6860.91388  1.79988         4085.24719     19.82712  0.03731  58250.11067    7.2148  13.50863   377531.32546  46.57581  18.30488  58350.60731    51.48673       44.32328   66.32739  118.48835  117.5    0.03386  -21.60598  0.86555 
  -78.01337   0.4065  1.46655     14.73723  1.76592  0.60025  46.19942  0.02743      0.1823  5238.62701   5789.21946  3.21532         3781.16509     19.76879  0.03262  58291.48272   7.56308  18.77993    11828.14178  48.11031  18.34327   58363.3886    51.44683       44.30294   56.66834  113.33668  123.0    0.04828  -21.73737   0.8786 
 -148.68334  0.35899  1.73139     14.10865  1.82028   0.9356  59.83166  0.04736     0.06602  3754.67816   5730.00901  1.88538          4067.4621     17.75457  0.00032  58220.81276   5.03157    21.479   307210.39796  46.56476  18.31717  58353.80263    51.52199       44.35247   61.82001  120.91124  125.5    0.03293  -21.51247  0.76071 
  -115.0593  0.40653  1.47587     14.52157  1.74229  0.56046  57.17379  0.03343     0.16141   4332.1207   6037.57367   1.9661         4116.27026     20.15646  0.07965  58254.43679   6.40067  23.24269    31907.23975  47.66798  18.36084  58383.45703    51.31256       44.25604   35.49647   95.87105  127.5    0.03784  -21.70131  0.80222 
  -91.29271  0.24704  0.73063     14.35798  2.06362  1.50135  60.95103  0.04648     0.17443  4948.50151   6776.96196  2.65277         4067.07003      19.6103  0.02265  58278.20339   8.90339  15.05714    19673.72429  48.56219  18.17413  58337.82603    51.51798       44.39596   46.36501   112.3788  112.0    0.03407  -21.77132   0.9849 
  -66.44826  0.40703  1.51164     14.41008  1.95582  1.03489  32.33435  0.08822     0.36712  6811.12262   6746.02432  2.46191         4116.21239     18.75398  0.00315  58303.04783   8.94806  13.16102    62789.64509  47.40339  18.21801  58337.82603    51.51258       44.39669   48.94084  109.79491  104.0    0.05395  -21.74892  0.89373 
 -118.75961  0.48119  1.53418     14.57133   1.6349  0.38984  45.91497  0.03926      0.0597  4282.00513   5773.11028   2.1809         3894.04304     19.38368  0.01344  58250.73649   5.02199  22.09404     25728.1466  47.70018  18.29955  58366.58392    51.41387       44.29367   46.36501  110.76085  126.5    0.03961  -21.66179  0.77543 
 -102.89517  0.34851  1.82356     13.94708  1.76133   1.4631   31.3659  0.11113     0.05427  5079.98792   6986.24195  1.68517         4341.74596     19.69843  0.02774  58266.60093   4.82848   10.9314   693966.57421  46.15151  18.38971   58363.3886    51.43773       44.27256   59.24417  121.00963  107.0    0.03831  -21.81592  0.84222 
 -105.40187   0.4356  2.73734     14.34565   2.0886  1.12696  41.98885    0.036     0.05933  3691.40087   6241.96215  2.71883         4186.46312     17.72928   0.0003  58264.09422   3.41306  18.29025   295819.28008  46.24302  18.26216  58341.02135    51.51741       44.34002   66.97167  123.64001  126.0    0.04042  -21.73583  0.64797 
   -80.1021   0.3695  1.17221     14.44807  1.34438  0.51694  44.70138  0.04507     0.06925   5905.6223   6783.34957  1.97779         4256.51886      17.8938  0.00044  58289.39399   9.29992  16.51736    21788.03569  47.92114  18.35891  58366.58392    51.39223        44.2741   46.36501  110.76085  112.0    0.05043   -21.7817  0.86721 
 -120.06404  0.41922  0.99901     14.20367  1.70632  1.18466  48.65548  0.05475     0.03776  4598.17503   6416.44601  2.16888         4024.28083     18.40164   0.0014  58249.43205   6.13663  20.39721    61897.40448   47.7101   18.3043  58353.80263     51.4722       44.36313   46.36501  110.76085  122.5    0.03443  -21.60833  0.91413 
  -103.4809  0.27953  1.04773     14.25895  1.49048  0.75224   62.0376   0.0503     0.06064  5682.43216   6533.76165  3.13349         3670.42369     17.27894  0.00011   58266.0152  11.94953  17.34164    46104.09811  47.73794  18.36615  58360.19328    51.45532       44.29416   56.66834  120.26884  116.5    0.03585  -21.80622  0.89811 
 -108.50749  0.38594  1.11143     14.63604  1.86019  0.75356  60.21735  0.02136     0.11147  4631.60242   5746.62327  2.55933         3955.20095     18.28074  0.00106  58260.98861   7.70569  23.24012    11403.93921  48.38958  18.36252  58386.44531    51.32941       44.32663   26.64088   85.53776  128.5     0.0447  -21.77829  0.93321 
   -88.6311  0.37303  1.48313     14.40554  1.88342  0.92377  45.43243  0.05222     0.17053  5272.79005   5871.70059  2.19043         4185.55273     18.96259   0.0051    58280.865   7.53484  16.94774    59434.28183   47.4274  18.30242  58347.41199     51.5343        44.3515   70.03682  121.06418  114.5    0.03646  -21.75546  0.86354 
  -88.17778  0.29932  1.14222     14.41472  1.73635  0.77941  52.18014  0.04486     0.07347   5511.1215   6780.71723  2.93714         3959.87082     18.44438  0.00155  58281.31832   9.45393  15.61835    31154.26343  47.89946  18.36715  58366.58392    51.43337       44.29709   69.54751  107.02697  112.5    0.04875   -21.8088  0.91872 
 -162.96687   0.4178  1.70898     14.53873   1.8105  0.59174  75.50232  0.02642     0.06081  3676.84725   5625.89411  2.50659         3806.83565     16.41768    1e-05  58206.52922    6.0889  31.54466    41079.78742  47.44754   18.3709  58353.80263    51.49531       44.31681   72.12334  121.70096  129.5    0.03739  -21.64915  0.69839 
  -99.12064  0.49408  3.71553     14.26599  1.65096  0.68988  37.43157  0.03754     0.04613  4442.13254   6226.17179    2.431          4090.1889     19.73361  0.03008  58270.37545   4.40604  18.49411   621730.76343  45.55294  18.32566  58350.60731    51.49811       44.32431   75.18849   118.9477  123.0    0.04808  -21.76812  0.40628 
   -98.1079  0.37677  1.56202     14.33409  1.86949   1.2954  50.25501  0.04422     0.12267  5168.86249   6029.76556  2.43021           4007.783     18.89402  0.00435  58271.38819   8.00933  18.93466    90937.40221  47.19445  18.27252  58347.41199    51.45772       44.28618   77.27501  118.48835  118.5     0.0402   -21.7825  0.83369 
 -138.67562  0.28292  1.36844     13.98283  1.34855  0.71097  65.87988  0.04729     0.02847  3910.55198   6113.66861  2.20314         4031.06172     19.62556  0.02346  58230.82047   6.00975   18.6387   253786.70309  46.72179  18.38449  58376.16989    51.33808       44.23725   40.98508  108.41327  127.0    0.03094  -21.53134  0.78885 
 -104.88408  0.44804  2.10166     14.38235  1.99009  1.35403  44.66138  0.04055     0.04619  4385.55945   6065.06886  2.40655         4067.13537     17.60637  0.00022  58264.61201     5.124  20.01021   140319.54218  46.77547  18.32388  58350.60731    51.48934       44.32124   66.32739  120.13661  124.5    0.03634  -21.71562  0.73302 
  -86.97448  0.37305  1.26257     14.26364  1.93572  1.02101   33.1362  0.11255      0.2071  6128.30138   6928.76654  1.96086         4130.95258     17.79705  0.00035  58282.52161   7.42352  12.36134     85092.0658  47.42329  18.33048  58353.80263    51.51415       44.36307   61.82001  113.33668  103.0    0.04366  -21.78352  0.92352 
 -105.40588  0.26204  1.33066     14.38292  1.72545  1.06195  78.64165  0.02201      0.1039  4559.55594   5955.77575  2.88321         3955.19262     17.57078  0.00021  58264.09022    9.7527  20.60694    48641.77368   47.5706  18.29526  58353.80263    51.45945       44.34062   48.94084  110.76085  125.0    0.03976  -21.76841  0.86184 
 -137.01902  0.44026  1.83577     14.52746  1.80024   0.4431  61.67302  0.02159     0.17702  3696.77418   5420.45029  2.13136         4012.72152     19.82479  0.03711  58232.47707   5.02769  27.15232    49644.30525  47.30067  18.32887  58360.19328    51.41512       44.28686   54.09251  112.08475  134.5    0.04119  -21.73703  0.68975 
  -93.26786  0.23248  1.19392     14.18964  1.95928  1.45204  59.50551  0.05472     0.12163  5289.50878   6996.45409  2.53946         4007.43742     20.04436  0.06153  58276.22823    9.9315  13.83374   108286.36375  47.37242  18.40516  58369.49609    51.39306       44.23909   59.24417  118.48835  108.0    0.03766  -21.84892  0.92521 
 -107.12786  0.49784  3.20186     14.28904  1.76023  0.49789  32.45365  0.05165     0.05485  4124.15956   5811.85015  1.87625         4298.03589     17.08665    7e-05  58262.36823   3.29277  16.15658   442693.60652  45.85751  18.33542  58356.99796    51.46193        44.3204   54.09251  114.95345  121.0    0.04429  -21.73764  0.53635 
  -79.01109  0.31439  1.57286     14.43681   2.0434  1.38978  50.96107  0.04424     0.45223  5962.22464   6571.99838  2.64874         4035.04519     17.67498  0.00026    58290.485  10.80643   16.0214     62795.4261  47.38789  18.31161  58356.99796     51.4879       44.34554   61.82001  110.76085  113.5    0.04214  -21.74848  0.87796 
  -86.97458  0.49888  1.73632     14.87387  1.90563  0.43527  39.14561  0.02829     0.14707  4830.04694   5924.77203  2.40413         4204.44634     19.35442  0.01256  58282.52151    5.4477   19.5289     9535.99945  48.09026  18.39151  58369.49609    51.41111        44.2735   54.09251  113.33668  127.5    0.05312   -21.7912  0.82357 
  -122.1034  0.37712  1.75048     14.07326  1.81257  1.41238    44.205  0.05985     0.02896  3763.30403   6518.78907   2.5499         4119.08631      16.0396    1e-05  58247.39269   3.73454  16.67061   368053.41866  46.47492  18.25227  58347.41199    51.49738        44.3376   72.12334  113.33668  125.5    0.03253  -21.54729  0.79978 
  -107.8728  0.48143  5.43726     14.24085  1.83867  0.83045  42.27995   0.0207     0.04205  3916.79653   6110.96729  2.59783         4156.77065     18.91593  0.00458  58261.62329   3.86922  20.35481  1664854.41747  44.84121  18.31214  58353.80263    51.45871       44.31946   48.94084  118.48835  132.0    0.05418  -21.80846  0.25189 
  -45.22082  0.29653  0.70856      14.9143  1.41245  0.44864  51.90915  0.02567     0.17117  8495.78933    6299.0673  3.45176         3930.74579     19.81006  0.03587  58324.27527  22.35005  15.39238      977.08893  49.72814  18.29209  58347.41199    51.54035       44.35923   72.12334  121.06418  110.0    0.10469  -21.84184  0.99344 
 -139.33128  0.29166  1.03334      14.3765  1.63594  0.96259  95.74357  0.01764     0.06834  4136.95661   5558.48058  2.41672         3822.01997     16.72611    3e-05  58230.16481   9.77459  27.92465    28646.59748  47.99706   18.3487  58369.49609     51.3916       44.29036   46.36501  108.18501  127.5    0.04062  -21.69486   0.8927 
 -118.68611  0.33718  1.42671     14.49311  1.91625  0.62565  59.89206  0.03826     0.08817  4161.90492   5622.71564  2.57247         3971.57223      18.1986  0.00088  58250.80998   6.18843  20.19429    37386.22735  47.66992  18.32473  58356.99796    51.44644       44.32903   46.36501  112.37762  122.0    0.03557  -21.59407  0.85192 
  -75.79665   0.3055   1.5067     14.49226  2.15473  0.90546  45.43716  0.05232     0.04149  5470.89309    6981.7076  2.27315         4182.00629     17.29715  0.00011  58293.69944    8.1125  13.88096    47069.75615  47.57344  18.26642  58341.02135    51.54715       44.35969   62.30932  126.21585  110.0    0.04451  -21.71818  0.90377 
 -115.99413  0.43709  1.82116     14.32083  1.62189  0.71912  47.39538  0.04834     0.12974   4517.8273   5558.80256  2.26006         4019.29674     17.35387  0.00013  58253.50197   5.77062  20.71588   113990.72121   46.9013  18.25522  58344.21667    51.50963       44.33727   69.54751  121.06418  121.0     0.0369  -21.66204  0.71735 
  -107.2174  0.47784  3.39734      14.1686   1.9433  1.24302  37.73893  0.04462     0.04784  4100.72767   6270.15162   2.3471         4146.64878     18.64656  0.00246  58262.27869   3.78563  18.03313   958167.50774  45.51367  18.35596  58366.58392    51.44102       44.31322   46.36501  115.11717  122.5    0.04022  -21.73803  0.51818 
  -94.77148  0.35389  1.53545     14.52871  2.12927  0.94338  53.90965  0.03243     0.18804  4553.84197    6142.0237   2.2984         4088.67304     19.74398  0.03081  58274.72462   6.66883  19.07782    40841.85093   47.6135  18.40229     58383.51    51.32829       44.23686   40.84338  103.40331  124.0    0.03912  -21.73984  0.87144 
  -92.80329  0.46689  1.61403     14.69108  1.94252  0.69079  44.74666  0.03694     0.03582  5371.69289    5923.3809  2.61442         3854.45641     19.63933  0.02421   58276.6928   7.70212   20.8918    19491.45746  47.85154  18.33223  58350.60731    51.52574       44.35149   64.39584  121.06418  123.0    0.04249  -21.78183  0.84358 
 -115.94292  0.34912  1.45102     14.43373  1.92443  1.15697   67.5527  0.02679     0.01809  4813.38474   5603.69483  2.08435         3945.26944     18.86027  0.00403  58253.55317   9.33622  23.58413    51051.50425  47.52179  18.23856  58337.82603     51.5256       44.34158   72.30719  123.64001  123.5    0.04135  -21.71152   0.8434 
  -116.9452  0.36373  2.21201     13.89144  1.79249   1.3436  31.68212  0.09823     0.02814  4692.98661   7132.95617  1.66031         4266.36119     19.69066  0.02725  58252.55089   4.16236  11.52377  1342655.06568  45.70476  18.23876  58350.60731    51.50243       44.36595   51.51667  115.30615  111.0    0.03863  -21.71641  0.77813 
