 log(Bfield)      Mns     Pspin  cutoff_power  cutoff_wavelength  fnickel    kappa  kappagamma   mejecta  log(nhhost)  temperature  texplosion  thetaPB     vejecta      A_V        MJD_0   log(KE)      M_Ni  Peak_mag     Peak_MJD 
    13.58331  1.97574   3.68299        3.1189         3943.22534  0.01034  0.15786      0.2684   2.60242     17.28892   8747.32214   -36.36321  1.39468  8453.05966  0.00011  58333.13289  52.30389   0.48819  18.34448  58383.45703 
    13.13765  1.04111   2.27321       3.41391         3885.23866  0.34976  0.14443     0.19004   3.00386     18.41153   8610.47325   -41.05665  1.39898  8142.03331  0.00143  58328.43944     52.29  17.24529  18.35348  58386.44531 
    13.74644  1.73806   3.16982       3.70753         3719.95888  0.00549  0.16554     0.23252   3.25482     17.06281   7891.44516   -46.38967  0.52305  8580.28433    6e-05  58323.10642  52.34564   0.27711  18.35645     58384.21 
    13.92676  1.59625    3.1519       3.49931         3924.98254  0.00106  0.10354     0.15598   4.32895     17.02823   6567.29275    -37.4812  0.33047  8172.04235    6e-05  58332.01489  52.33741   0.05796  18.36239     58384.48 
    13.67403  2.01398   3.95848       2.74165         3958.61643  0.18108   0.0739     0.15162   5.59433     18.77411   8248.81166   -30.77121   1.1391  8954.69728   0.0033  58338.72489   52.4454  10.55677  18.35043  58388.77541 
    13.58541  1.81575   3.62322       3.48104         4081.56843  0.00291  0.08264     0.17915   4.70988     18.50035   7774.53405   -30.81575  1.23715  7887.17729  0.00176  58338.68035  52.31619   0.16229  18.37543   58384.7303 
    13.50955  1.54971   3.35256       3.00697         4100.61994  0.26053  0.07438     0.11985    4.4146     18.64492   5311.79118     -32.866  1.22043   6729.7955  0.00245  58336.63009    52.171  14.29642  18.35701     58386.19 
    13.55386   1.9126   3.58272       2.87943         4012.40836  0.04111   0.1088     0.15376   3.59869     16.04695   5641.09971    -40.1156  1.42993  7852.92514    1e-05  58329.38049  52.28102    2.1344  18.37542  58384.45703 
    13.86769  1.94211   3.65712       2.67045         4056.03862   0.0011  0.10244     0.16947   4.15781     17.71671   8033.35393   -35.54157  0.53138  8271.97798  0.00029  58333.95453  52.34331   0.05914  18.34324  58386.44531 
    13.64686  2.07527   3.93485       3.07246         4100.93956  0.10204  0.06208     0.10632    6.0573     19.92281   7974.32777   -32.45392  1.34842  7805.09569  0.04651  58337.04217  52.33453   6.06614  18.36537     58379.51 
    13.63493  1.55869   3.20407       3.01522         3949.76162  0.31942  0.14173     0.26296   3.01554     18.12616   3599.76475   -36.18012   0.7098  8580.33492  0.00074  58333.31598  52.33604  15.76765  18.35689     58386.19 
    13.38539  1.36722   2.89418        2.8405         4110.67618  0.00146  0.08612     0.17184   4.73333     16.47031   4357.91452   -34.36619  1.35222    7495.227    2e-05   58335.1299  52.27248   0.08184  18.33561  58386.44531 
    13.71226  2.08354   4.34301       2.96437         3930.65664  0.29646  0.04517     0.08878   8.92709     17.94167   8796.19087   -30.62926  1.14788  9098.43471  0.00049  58338.86683  52.50687  19.28725  18.34609   58384.7303 
    13.54665  1.73571   3.41327        3.3967         3958.78697    0.035  0.04766     0.06946   8.04324     18.72942   5278.51039   -33.68697  1.05124  8013.86415  0.00298  58335.80913  52.38643   2.22428  18.35486     58386.19 
     13.5055  1.69285   3.19697       2.85095         3925.12061   0.0586  0.06264     0.09832   7.72826     16.65022   6450.40274   -38.14756  1.01656  9611.96109    2e-05  58331.34853  52.54041   3.69046  18.34498  58388.77541 
    13.51452  1.64446   3.25139       2.98655         3877.69375  0.01038  0.13911     0.27749   3.15201     17.83115   9718.98353   -32.03387  1.09769  9427.70992  0.00038  58337.46223  52.42344   0.51906  18.38076     58384.21 
    13.70859  2.11701   3.91345        3.5169         3892.12721  0.00391   0.2262     0.37129   1.94103      16.1743   4960.59196   -33.81451  0.96232  8196.82972    1e-05  58335.68158   52.2363   0.16826  18.32995  58386.44531 
    13.48634  1.61484   3.21384       2.77649         4042.08141  0.03256    0.088     0.14858    4.5398      18.7716   7699.46988   -34.01278  1.18594  8108.41269  0.00328  58335.48331  52.33606   1.79969  18.31951  58386.44531 
    13.61315  1.58148   4.71004       3.69712         3804.37232   0.3499   0.0212     0.06111  28.48671     19.76627   3586.38721   -42.19842  1.26726  8567.01476  0.03243  58327.29767  52.55425  28.63596  18.31666     58386.19 
    13.68842  1.57043   5.90486       3.53468           3872.129  0.38485  0.01921     0.06561  29.66652     19.93074   4019.23721   -32.32137  1.34398  8532.34537  0.04737  58337.17473  52.55383  31.72161  18.35813  58386.44531 
    13.62332  1.72639   3.35189       2.62709         4106.86375  0.02533  0.03852     0.05835   9.72041     16.03404   6034.63259   -38.84344  0.83064  7566.59457    1e-05  58330.65266  52.35488   1.67883  18.36341     58384.52 
    13.55586   1.7629   3.47747       2.75453         3978.76063   0.0863  0.05814     0.12155   8.63932     18.35875   9442.23558   -35.53467  1.19545  8851.70647  0.00127  58333.96143  52.47981   5.57335  18.35901  58386.44531 
    13.52872  1.87702   3.51907        2.3175         4156.65085  0.03296  0.04334     0.06589   9.09033     18.41513   4009.49031    -36.2663  1.51928  8667.05431  0.00144   58333.2298  52.46642   2.15315  18.35961  58384.45703 
     13.5461  1.77792   3.44622        2.9484         4089.45133  0.00446   0.0971     0.16013   3.67976      17.4105   5709.72934   -36.84746  1.19455  7596.25448  0.00014  58332.64863  52.25484   0.23309  18.34163   58384.7303 
    13.66479  1.86724   3.40401       3.62743         3961.99909  0.00109  0.08976     0.10488   3.39296     18.10135   5600.38825   -43.10413  0.72308  7212.98811   0.0007  58326.39196  52.20001   0.05581  18.37349     58384.53 
    13.46579  1.62377   3.21668       2.90095         4107.71311  0.02804  0.04909     0.07163   7.41478     16.30471   8049.03917   -34.75439  1.22582   8080.6859    1e-05   58334.7417  52.38553   1.74896  18.34583  58386.44531 
    13.74383  2.07695   4.00157        2.8547         4173.79864  0.00162  0.06777     0.12958   5.23907     18.30794   4472.75942   -29.84887  0.94805  7919.93058  0.00113  58339.64722  52.33161   0.09299  18.36538   58384.7303 
      13.367  1.41562   2.91903       4.08681         3858.72122  0.00164  0.11605     0.18411   3.44805      19.3182   5681.58833   -34.16361  1.56478  7962.60385  0.01156  58335.33248  52.28787   0.08391  18.32933  58386.44531 
    13.47823  1.43484   2.94779       2.84204          4007.0081  0.00411  0.15948     0.29982   2.53155     16.43135   8210.35111   -37.87389  0.97982  7681.43829    1e-05   58331.6222  52.21706   0.19257  18.37712     58379.46 
    13.77155  1.94077   3.75497       3.82264         3981.35462  0.00256  0.05403     0.09111   6.49692     19.75364    5792.2057   -32.57149  0.74043  7039.67851   0.0315   58336.9246  52.25222   0.15508  18.34637   58384.7303 
    13.49599  1.63728   3.20124       3.33704         4007.06909  0.12885  0.12079     0.25319   3.45306     20.23321   3866.03962   -33.30272  1.38435  7931.76033  0.09505  58336.19337  52.28467   6.61297  18.36129   58384.7303 
    13.68816  1.93429   3.44614       2.51628         3871.82286  0.00408   0.1543     0.18181   3.21914     17.31097     7791.957   -41.25625  0.74336  8756.94898  0.00011  58328.23984  52.36197   0.20519  18.35016   58384.7303 
    13.57363  1.89181   3.75883       2.69399          4056.6693  0.31994  0.08427      0.1583   5.22346      16.7533   5388.48491   -37.20863  1.39319  8670.28668    3e-05  58332.28746  52.40991  18.33531  18.35818   58384.7303 
    13.65508  2.18032   4.01645       3.01059         4088.20225   0.0019  0.13985     0.24708   2.68962     19.63039    3419.2466   -32.75899  1.43013  8404.93113  0.02372   58336.7371  52.30329   0.09049  18.34134  58386.44531 
    13.58281  1.84456   3.85748       3.65067         3969.70862  0.15095  0.03915     0.08056  10.82932     16.37803   4052.25753    -31.5202  1.44941   8199.7492    1e-05  58337.97589  52.43479  10.24238  18.35208     58386.19 
    13.44519  1.35166   2.74012       3.03722         4154.77091  0.00656   0.0511     0.08897   6.48552     20.42072   9759.11239   -31.19328  0.99265  6992.75288  0.14637  58338.30281  52.24623   0.39617  18.33608  58386.44531 
    13.51273  1.46024   2.86082       3.04414         3888.81382   0.1158  0.21329     0.31763   2.20382     17.28199    5304.0522   -38.19388  0.74227  9109.79359  0.00011  58331.30222  52.34619   5.19103  18.37108  58386.44531 
    13.53682  1.44697   3.12018       3.22033         4159.25227  0.02108  0.04184     0.08966   8.08972     16.02584   9362.70984   -29.69164  0.93074   7066.4568    1e-05  58339.80445  52.27772   1.34144  18.35957     58384.21 
    13.64282  1.99076   3.81055        2.6107         4169.32235  0.03129  0.04886     0.09088   8.09722     17.23423   8609.55424    -33.5719  1.30424  7992.92396   0.0001  58335.92419  52.38482   1.99171    18.334     58386.19 
    13.56454  1.55113   3.05001       3.25451         3942.32284   0.0084  0.17517     0.29602   2.57121     19.17349   6832.44497   -42.88939  0.81059  7188.70178  0.00828   58326.6067  52.16156   0.39544  18.34941     58384.21 
     13.8153  1.86807   3.62996        3.2828         3974.50296  0.00796  0.15585     0.26567    2.4839     19.13826   3556.46579   -31.96747  0.60032  8282.56581  0.00764  58337.52862  52.27995   0.37073  18.37122  58388.77541 
    13.38502  1.32525   2.85078       3.77953         3911.78562  0.00126  0.18598     0.36559   2.14204     16.07996   6983.07221   -35.53965   1.2521  6727.05728    1e-05  58333.95644  52.07882   0.05584   18.3678     58382.48 
    13.50911   1.7754   3.36208       2.84159         3974.53827  0.00187   0.0772     0.11889   5.46563     19.28549   5453.01529   -40.77624  1.48924  7417.19187  0.01072  58328.71985  52.27926   0.10831  18.36658     58382.48 
    13.51787  1.78327   3.43953       2.69889         4065.34816  0.09555  0.15166     0.26311   3.00102     18.02667   8215.09387   -38.20679  1.50411  7971.70446  0.00059  58331.28931  52.27152   4.70973  18.35486   58384.7303 
     13.8938   1.5983   3.22112        2.9306         3997.66647  0.00272  0.18101       0.338   2.13782     17.45323   7766.49298   -33.96727  0.38819  7897.35505  0.00016  58335.52883  52.21786   0.12065  18.34595     58386.19 
    14.25278  1.67885   3.45842       3.13689         4197.03603  0.00123    0.078     0.16292   4.38808     16.34191   3163.00118   -31.14191  0.19267  6776.29511    1e-05  58338.35418   52.1763   0.06714  18.35678  58386.44531 
    13.49949  1.68405   3.33011       2.94195         4090.13721  0.00433  0.24235     0.49715   1.47706     19.68962    4485.5289   -31.26411   1.4886  8089.49868  0.02719  58338.23198  52.18299   0.16894  18.34508  58383.45703 
    13.48907  1.67905   3.36007       2.97801         4043.81828  0.20382  0.13524     0.27306   3.27778     17.80227   6309.82269   -36.60356  1.44707  8041.81263  0.00035  58332.89254  52.29022  10.30699  18.38058     58382.51 
    13.56456  1.80513   3.53898       3.19954         4037.01916  0.00852  0.18273     0.35056   2.29884     16.07163   5554.94483   -35.74738  1.25387   7366.7019    1e-05  58333.74871  52.16759   0.38696  18.37699     58380.46 
    13.37643  1.44718   2.96459       2.51635         4046.03255  0.08204  0.05437     0.09652   7.93632     18.45611   7850.76752   -35.40155  1.46176   9308.5841  0.00159  58334.09454  52.51519   5.19798  18.39143     58382.51 
    13.51912  1.57461   3.13298        3.3896         4011.45046  0.00276  0.06163       0.088   5.87314     19.48218   3743.68907   -37.01361  0.95735  7411.61972  0.01686  58332.48248  52.28633   0.16277  18.36751  58383.45703 
    13.58898  1.90975    3.7053        2.3251         4053.56976  0.16287  0.06242     0.12522    6.5428      16.8369   8750.19373   -38.03292   1.5369  8029.86807    4e-05  58331.46317  52.36727   9.86419   18.3896     58384.21 
    14.18777  1.70823    3.3937       3.05341         4087.43158  0.00118  0.08036     0.13493   4.44876     17.29482    6843.4483    -34.2587  0.20397  7787.34537  0.00011  58335.23739  52.29866   0.06503  18.37193     58386.19 
    14.14542  1.78428   3.32643       3.42767         3943.73091  0.00101  0.05729     0.07738   6.66506     18.19553   9824.19589   -37.81054  0.21067  8337.94237  0.00087  58331.68555  52.40188   0.06142  18.31185     58386.19 
    13.69316  1.37429   3.04354       2.99236         3838.48875  0.08432  0.01569     0.03701  34.58366     19.42797   9625.03918    -39.7177  0.50943  8621.04504  0.01488  58329.77839  52.57435   7.13709  18.37806   58384.7303 
    13.75621  1.89603   3.54392       2.72845         4181.80552  0.01545  0.01932     0.03666  19.27573     20.25397   8474.74772   -32.82485  0.70969  7995.93716   0.0997  58336.67124  52.46327   1.17691  18.35159     58386.19 
    13.50782  1.67695   3.29198       3.22461         3939.35792  0.00868  0.06974     0.12629   5.63999     17.09644   4957.23426   -33.70273  1.15189  8589.57353    7e-05  58335.79337  52.41011   0.50679  18.37583     58382.51 
    13.61652  1.93828   3.71855       3.36117         3953.51112  0.07767  0.09695     0.19256   3.86083     20.12332   8132.65755   -29.97884  1.31645  7699.03087   0.0738  58339.51725  52.27225   4.11173  18.32783  58376.64009 
    13.57219  1.73592   3.45555       3.06446         3988.43884  0.27953  0.13547     0.25729   3.38465     19.83496   7748.15127   -33.62992  1.13841    7820.175  0.03799  58335.86617  52.26991  14.26516  18.34955   58384.7303 
    13.74128   1.8611   3.48724       3.20739         4012.65484  0.00103  0.15935     0.27524   2.35512     20.20719   4826.34986   -35.90209  0.75031  6850.74689  0.08952    58333.594  52.10786   0.04714    18.353  58388.77541 
    14.00945  1.61965  10.51214       2.91747         4167.87668  0.45294  0.01542     0.09457  27.90553     19.94111   6346.69078   -22.25032  1.56331  8385.48502  0.04851  58347.24577  52.53406  36.93327  18.34036     58386.19 
    13.87716  1.59688   8.82756       3.13514         4048.55429  0.41335  0.01798     0.07728  32.93903     19.99939   5447.30036    -29.5222  1.38967  8556.09398  0.05548  58339.97389  52.56415   34.6968  18.36118  58388.77541 
    13.59598  1.93857   3.41244       2.37709         4087.35838  0.04251  0.08247     0.10681   4.65158     19.37171   8129.00888   -44.28689  0.95428  8159.91327  0.01307   58325.2092  52.34432   2.36472  18.34242     58383.51 
    13.60916  1.78505   3.50126       3.39116         4048.95643  0.00155  0.05136     0.08578   7.61835     16.32182   3025.98762    -36.4891  0.99401  7092.14889    1e-05    58333.007  52.27491   0.09728  18.33316  58388.77541 
    13.51102  1.78737   3.48452       3.10782         4102.92231  0.00598  0.09678     0.13169   3.88011     17.84948   5859.08859   -32.11739  1.55379  7754.13983  0.00039   58337.3787  52.27904   0.31688  18.35961  58386.44531 
     13.7371  1.91408   3.75215       3.20118         3976.91932  0.00674  0.13923     0.32376   3.07997     16.51997   6695.14866   -29.46663  0.81179  8792.80463    2e-05  58340.02946  52.35996   0.33468  18.36245   58384.7303 
     13.4573  1.68565   3.26076        3.5392         3959.87678  0.04901  0.09856     0.12954   4.03392     18.86003   8033.65102   -38.79089  1.50753  7657.08664  0.00402   58330.7052  52.27268   2.62557  18.36984  58388.77541 
    13.33031  1.27688   2.79914       3.76711         3972.32025  0.00947   0.1255     0.24796   2.95265     18.52034   3529.47179   -28.55101  1.44946  8402.15644  0.00184  58340.94508  52.31512   0.46462  18.36673     58382.48 
     13.8691  2.13636   4.00238       3.98914         3926.26748  0.00589   0.1536     0.28773   2.42104     19.84452   6227.09792   -31.50533  0.64143  7903.87778  0.03884  58337.99076  52.23583   0.27186   18.3602     58384.21 
    13.52493  1.75303   3.48089       3.27686         4047.67388  0.01293  0.17494     0.32797   1.87012     16.81546   4871.17941   -34.58374  1.46587  7647.56706    4e-05  58334.91235  52.17058   0.54879  18.36969  58386.44531 
    13.58432  1.72572   3.31896       2.49252         4151.05126   0.0119  0.07572     0.10985   6.03433     16.92792   7119.76504   -39.80648  0.95021   7631.3849    5e-05  58329.68961  52.31458   0.70671  18.35895   58384.7303 
    13.58518    1.681   3.21882       3.24045         3979.00513  0.00457  0.23545     0.49022   1.84716     20.12819   7441.15671   -32.49038  0.90069  8703.58201  0.07463  58337.00571   52.2811   0.19328  18.36206     58384.21 
    13.73462  1.88664   3.52832       2.91664         3903.89119   0.0488  0.15358     0.26292   2.99369     17.21639   5217.91948   -38.16985  0.69642  8579.64454    9e-05  58331.32625  52.33504   2.40378  18.36582   58384.7303 
    13.63322  1.63685   3.45846       3.18232         4130.50882  0.03134  0.06872     0.14098   4.54591      16.2281   3885.24132   -28.14767  0.86701  7236.27093    1e-05  58341.34843  52.23737   1.73309   18.3712  58388.77541 
    13.50188  1.64941   3.16481       2.78552         4063.45388  0.00458  0.10315     0.25011   3.87706     20.31628   5609.85711   -32.12631  1.55787  7569.07876  0.11508  58337.36978  52.25797    0.2426  18.35105  58388.77541 
    14.17696  1.63479   3.29176       3.22591         3957.37843  0.00217  0.06809     0.14016   6.00399      16.4747   7753.45529   -30.59025  0.19959  8379.48448    2e-05  58338.90584  52.39528   0.12889  18.36052  58388.77541 
    13.43451  1.53692   3.08153       3.32919         3965.16805  0.04477  0.12333     0.19924    3.8342     18.34241    9242.3738    -40.5533  1.37379  7082.53494  0.00122  58328.94279  52.19894   2.36569  18.37055     58382.48 
    13.42307  1.43249    2.9767       3.66862         3895.42836  0.07223  0.07796     0.13023   5.47081     16.19531   8410.36116   -32.17761  1.11952  8337.01267    1e-05  58337.31849   52.3809   4.18789  18.36601     58386.19 
    13.72474  1.56869   3.13748       3.38232         3937.82056  0.00119  0.04761     0.06833    7.4234     19.45295   8363.96967   -34.11813  0.54179  7523.14431  0.01576  58335.37796  52.32355   0.07401  18.36647  58383.45703 
    13.79094  1.61601    3.2717       3.11875         3997.65909   0.0048  0.17565     0.30388   2.21635     18.38018   6916.66271   -32.06504  0.50873  7859.28644  0.00133  58337.43105  52.21873   0.21569   18.3528     58382.48 
    13.54008  1.72181   3.63074       3.37646         3951.33724  0.10945  0.02383     0.04151  17.04818     18.43397   5743.98327   -34.53921  1.39563  7722.63743  0.00151  58334.95689  52.42282   8.14439   18.3331  58375.46875 
    13.39951  1.46654   2.99714        2.8443         4180.04652  0.00224  0.16046     0.27321   2.37153     17.48709   6245.99565   -35.15444   1.4501  7642.43148  0.00017  58334.34166  52.20379     0.103  18.36564     58383.51 
    13.62876  1.91131   3.70664       3.04478         4009.68892  0.00538  0.13465     0.22058   2.55699     16.21665   5253.35832   -34.08884  1.12277  7297.34986    1e-05  58335.40725  52.17385   0.25289  18.33208  58386.44531 
    13.56557    1.718   3.47274       3.10019         4099.28688  0.00161  0.16048      0.3125   2.32728     18.65182   3086.41508   -33.31945  1.26285   6763.7813  0.00249  58336.17664  52.09512   0.07333  18.35612   58384.7303 
    13.69962   1.5152   3.07769       3.22096         3964.35432  0.00551   0.1231     0.21522   3.17309      17.2611    8462.2337   -34.67823  0.54949  7904.64895   0.0001  58334.81786  52.27122   0.27608  18.35821     58382.51 
