 log(Bfield)      Mns    Pspin  cutoff_power  cutoff_wavelength  fnickel    kappa  kappagamma   mejecta  log(nhhost)  temperature  texplosion  thetaPB     vejecta      A_V        MJD_0   log(KE)      M_Ni  Peak_mag     Peak_MJD 
    13.92679  1.80079  1.56552       2.61454         2717.37908  0.01354  0.08671     0.01463   14.9736     19.30514   4472.99374   -15.11055  1.41945  4656.19087  0.01122  58707.31945  51.97226   0.98228  19.90819     58776.29 
    13.90433   1.5808  1.97684       1.19609          2946.5265  0.02534  0.02567     0.07436  28.44683      19.7832   7506.83952   -21.48913  0.62879  5591.70896  0.03372  58700.94087  52.18357   2.07312  19.88143   58773.4532 
    14.01918  2.17374  1.89877       1.26216         2644.07646  0.00534  0.04162     0.04328  37.25711     17.97195   8924.01966   -18.64476  1.33052  6329.80419  0.00052  58703.78524   52.3115   0.45763  19.90349     58774.22 
    14.02013  1.84866   2.0139       2.14507          2545.9996  0.21452  0.08859     0.37447  13.69005     18.84885   4675.10906   -18.55776  0.89254  6161.68171  0.00392  58703.87224  52.20776  15.28274  19.84462  58775.24643 
    14.10655  1.92308  1.04085       0.02374         2635.64143  0.00395  0.01993     0.01015  54.06293     20.06211   6300.27814   -19.72439  0.78086  5821.60798   0.0641  58702.70561  52.26526   0.36009  19.86744  58775.41905 
    13.76451  1.49962  1.61014       2.39562         2459.97209  0.00562   0.0891     0.11896  13.80469     19.15439   6077.81613   -17.66175  1.49042  5832.84423  0.00793  58704.76825  52.16086   0.40071  19.84211  58775.24643 
    13.81909  1.55599  1.57374       2.32142         2686.91983  0.00299  0.08483     0.12192  13.94227     19.55654   8545.67424    -16.0127  1.44704  5386.69778  0.02001   58706.4173  52.09262   0.21361  19.90715   58773.4532 
    13.79383  1.43682  1.41842       0.60037         2599.96945  0.02116  0.02398     0.13092  44.76993     16.43032   6153.09653    -17.4579  1.26217  6526.40973    1e-05   58704.9721  52.35132    1.8701  19.87045   58773.4532 
    13.98732  1.70277  0.94741       0.11521         2799.03574  0.01015  0.02036     0.05496  67.17889     16.64543   6078.62506   -16.09696  1.21442  6770.36942    2e-05  58706.33304  52.41112   0.95624  19.90531  58778.86527 
    13.78564  1.43869  1.80628       3.73228         2578.23963  0.10151  0.16129     0.01048   7.68303     16.82945   9939.44155   -19.34791  0.99505  5933.12057    4e-05  58703.08209  52.12076    6.3835  19.86777   58773.4532 
    13.95751  1.52513  1.44621       2.91334         2417.62213  0.01838   0.0446      0.2783  28.08868     16.07802   8750.27782   -12.74608  0.84322  5761.08983    1e-05  58709.68392  52.20852    1.5002  19.86086     58774.22 
    13.91915  1.96876  2.31876       3.45288          2455.9924  0.04764  0.06445     0.04878  14.51372     19.74547   4955.55042   -19.55349  1.08112  5449.82077  0.03092  58702.87651  52.10625   3.43422  19.90494   58773.4532 
    13.97597  1.96748  1.72603       2.53716         2553.92853   0.0024  0.07718      0.4009  17.82995     19.19262   9061.37722    -14.7703   1.4421  5527.63535  0.00866   58707.6597  52.13613   0.18035  19.88005  58771.62758 
    13.76718   1.4147  1.58357       0.97729         2754.74493  0.02848  0.07949      0.0748  12.86224     19.52337    3148.6572   -21.43102  0.75331  5593.76795  0.01854  58700.99898  52.11824   2.00364  19.83998     58774.22 
    13.91183  1.57489  0.86286        1.5987         2473.48067  0.00174   0.1234     0.07127   13.4652     19.67178   5831.32128   -10.68411  1.48685  5786.77374  0.02609  58711.74589  52.15178   0.12324  19.86814  58775.24643 
    13.75282   1.3186  1.19516       3.06637         2556.34696  0.00476  0.09505     0.01099  15.45874     18.83008    4930.1605   -13.30484  1.30093  5440.46439  0.00376  58709.12516  52.11022   0.34761  19.86591     58774.22 
    13.80599  1.57316  1.65606        1.9521         2537.78781  0.00464  0.08052     0.01144  13.69159     19.36122   7156.29596   -15.99905  1.56486  5986.69068  0.01276  58706.43095  52.18275   0.33044  19.86061     58774.22 
    13.92132    1.801  1.71951       1.22419         2134.05798  0.05484   0.0456     0.01302  23.26335     19.61869   9250.02342   -16.90918  1.24112  6680.75662  0.02309  58705.52082  52.32241   4.32765  19.86436     58776.29 
    13.87472  1.78783  1.72031       1.35114         2654.15262  0.29019  0.12923     0.08335  11.74832      18.1319   6394.54073   -20.56808   1.2839  5878.99733  0.00075  58701.86192  52.15327  20.03158  19.89199   58773.4532 
    13.93771  1.74718  1.86378       0.96242         2717.25194  0.00858  0.13892     0.43839   8.78546     17.52665   5649.82282   -19.17476   0.8644  6594.90942  0.00019  58703.25524   52.2258   0.55592  19.90963   58773.4532 
    13.89927  1.79395  1.93363       4.00747          2486.4915  0.00216  0.04331     0.24062  26.83086     17.43212   5971.78823   -16.73984  1.22855  5255.91136  0.00015  58705.69016  52.12527   0.17486  19.87709  58771.62758 
    13.79358  1.48995  1.58736       2.31258         2464.16177  0.17214  0.10549     0.04225  10.58309     18.92438   8970.83525    -16.0605  1.35658  5554.30759  0.00467   58706.3695  52.09432  11.62273  19.88047     58774.22 
    14.20344  1.71412  1.66485       2.30078         2689.57289  0.02207  0.05969     0.09375  21.56908     18.43926   4402.71272   -15.44573  0.53174  5733.66664  0.00153  58706.98427  52.18356   1.71738  19.88595  58775.41905 
    13.77387   1.3838  1.16082       0.46883          2815.7327  0.00476  0.15796     0.23286    8.2797     16.39985    5779.5888   -16.63414  1.39318  6705.16713    1e-05  58705.79586  52.23442   0.30478  19.85541   58773.4532 
    14.06986  1.69588  1.51307       1.32376         2489.61623  0.19902  0.10434     0.01361  11.75379     17.73265   4969.11988   -15.29792   0.7883  6443.96422   0.0003  58707.13208  52.23301  13.74005  19.87504  58771.62758 
    13.89346  1.62898  1.89082       2.51097         2485.23968   0.0044  0.09877     0.18046   13.8539     18.27415   9174.20268   -22.68471  0.77936  6194.21886  0.00104  58699.74529  52.21339   0.31396  19.84266     58774.22 
    14.14151  1.94484  1.85171       1.59418         2686.67249  0.01164  0.03518     0.48495  33.09862      19.6627   5523.71291   -22.03486  0.56133   5011.3313  0.02555  58700.39514  52.09986   0.97785  19.89377   58773.4532 
    14.29297  2.11722  2.25915       2.71888         2504.92509  0.00297  0.03378     0.16445  28.69386       19.629   8927.21958   -19.56664  0.44744  5211.68791  0.02364  58702.86336   52.1231   0.24366  19.87543   58773.4532 
    14.03724  1.94564  1.45055       1.35637         2760.56138  0.00352  0.04386     0.04149  31.39321     17.78268   8404.75803   -15.10997  1.21138  5459.63268  0.00034  58707.32003  52.17031   0.29324  19.86239  58775.41905 
    13.68783  1.27803  1.42462       2.43489         2130.91169  0.01953  0.03774     0.39848  28.81095     16.81527   5207.78535   -16.56999  1.22885  6063.61519    4e-05  58705.86001  52.25492   1.60132  19.87657  58771.62758 
    13.84303  1.70086  2.03272       1.74352         2678.09726  0.00279  0.14322     0.01274   7.30406     18.59971   6609.48552   -21.19057  1.09522   6119.2176  0.00221  58701.23943  52.14251   0.17348  19.87519  58771.62758 
    13.86669  1.84835  2.06539       2.04811         2609.74024  0.04323  0.13006      0.0107   8.62587     16.61098   5622.22353   -20.08073  1.34143  5652.00972    2e-05  58702.34927  52.09001   2.79133  19.86782  58775.41905 
     13.9394  1.86265  2.12563       3.05549         2255.20543  0.44914  0.14904     0.01002    7.7268     17.69813   8308.07554   -18.76214  1.02887  6213.70273  0.00028  58703.66786  52.16146  28.28262  19.85922     58774.22 
    14.13763  1.41872  0.95657       0.41388         2877.57488  0.03587  0.10072     0.02997   14.6088     19.39053   5197.14088   -16.75532  0.47932  6368.01285  0.01365  58705.67468  52.24206   2.58926  19.90051  58777.41088 
    13.79311  1.43869   1.4022       2.04709         2703.60436   0.0536  0.09268     0.01472  12.39452     20.01823   5574.92746   -16.97786  1.11552  5387.63197  0.05794  58705.45214  52.08231   3.74165  19.88362     58774.22 
     13.9175  1.89296  2.19915       0.67378         2727.25453  0.00249  0.14382     0.01252    7.1325     18.62989   5623.01393   -23.53283  0.78413   6679.2672  0.00237  58698.89717  52.21616   0.15422  19.88816   58773.4532 
     14.1144  1.76866  2.06796       2.70619         2536.25407   0.0015  0.07669     0.01063  13.62913     17.77417   7413.26707   -18.74034  0.53094  5696.88203  0.00033  58703.68966  52.13925   0.10668  19.85014   58773.4532 
    14.03971  1.71467  1.93651       2.21405         2751.41515  0.03748  0.05868      0.0124  14.84012     18.16693   4161.59209   -16.18953  0.70815   4868.5591  0.00082  58706.24047  52.01022   2.71356    19.868     58774.22 
    13.92305  1.56354  1.78502       1.87203         2480.19379   0.0084  0.10363     0.01017   9.91826     19.57611   9648.62088   -19.60581  0.74714  5890.05255  0.02093  58702.82419  52.13922   0.55947  19.91424   58773.4532 
    13.99094  1.84331  2.20599       4.31601          2214.6962  0.11466    0.082     0.08686  12.04672     17.22339   4103.25552   -18.08814  0.83426  5915.32834    9e-05  58704.34186   52.1609   7.95656  19.86699     58774.22 
    13.88504  1.82223  1.88962       3.91306         2385.58303   0.0026  0.04874      0.4774   22.4673      19.7341   9591.54545   -16.24335  1.56431  5267.08263  0.03012  58706.18665  52.11312   0.20392  19.86201  58768.00873 
    14.20679  2.02925  1.96172       1.97493         2609.65811  0.03771  0.02504     0.02577  54.56681     16.51919   6169.89715   -14.99336  0.67874  6373.84054    2e-05  58707.43664  52.34461   3.44091  19.89672   58773.4532 
    13.76616  1.64561  1.81373         1.112         2750.75379  0.00192  0.13291       0.023   9.02805     19.81405   9491.01447   -24.01472  1.09212  6227.48456  0.03621  58698.41528  52.17864   0.12536   19.8495  58775.41905 
    13.87553   1.4203  1.14707       2.51331          2561.1316  0.00312  0.13182     0.01062   9.98268      19.5375   6590.38249   -11.66382  1.13346  5370.87414  0.01915  58710.76618  52.05968   0.20811  19.87817     58774.22 
    14.05522  1.62451  1.37556       0.00305         3557.82552  0.00311  0.09867     0.01756  10.83843     19.18682   4204.81986   -24.04344  0.57914  6167.76089  0.00854  58698.38656  52.18752   0.21111  19.88642  58771.62758 
     13.8876  1.70115  1.81214       1.38211         2702.25416  0.02658  0.02185     0.46352  44.04275     17.41191   4744.70906   -17.63104  1.11358  5604.95625  0.00014  58704.79896  52.21795   2.34241   19.9049  58778.86527 
    13.75161  1.60001  1.70569       0.00172         3693.20276  0.01356  0.05272     0.01605  20.16249     19.48095    6958.9096   -22.64779   1.1462  7361.79991  0.01681  58699.78221  52.39519   1.04211  19.85452     58774.22 
    13.95625  1.81376  1.79089       2.80477         2426.22204  0.00143  0.11489     0.05937  10.62039     19.05621   4376.95496   -17.32131   1.0354  5482.81284  0.00632  58705.10869  52.08339   0.09633   19.8747   58773.4532 
    13.87983  1.67336  1.52469       1.14558         2909.71414  0.14014  0.05476     0.05721  17.91692     19.91831   7215.83637   -14.47325  1.45514  5653.50166  0.04603  58707.95675   52.1561  10.52895  19.88887  58777.41088 
    13.94283  1.78439  1.69922       1.83214         2178.12849  0.18731  0.08774     0.06395  12.29129     20.31623   6438.30479   -18.72869  0.84178  6532.61264  0.11507  58703.70131  52.24893  13.05231  19.88478     58774.22 
    14.01014  1.80907  1.21983        1.2352         2077.42153  0.09993  0.17853     0.02206   8.84322      17.0223   7840.02313   -13.40839  1.48612  7394.22605    6e-05  58709.02161  52.32581   6.48741  19.89611   58773.4532 
    13.89903  1.53595  1.04852       1.25102         2501.78639  0.00485   0.0798     0.22693  19.69535     18.56098   5589.78591   -11.79929  1.46156  6488.04213  0.00202  58710.63071  52.28353    0.3708  19.89731  58771.62758 
    14.25004  1.89795  1.24813       0.50509         2521.45075  0.12116  0.11375     0.04936  14.19824     16.38011   6335.19998   -16.62642  0.63426  7136.40496    1e-05  58705.80358  52.33853   8.69589  19.90838     58777.28 
    13.75246  1.66417  1.77323       1.81375         2653.75643  0.03394  0.03964     0.04414  22.89639     20.14341   3074.45634   -21.30836  1.37923  4919.05916  0.07729  58701.12164  52.05526   2.67037  19.86889     58776.29 
    14.05304  2.08044   2.1264        0.7652         2751.13301  0.00234  0.12613     0.46079   9.24291      17.0996   3064.03295    -18.4498  0.92562  7035.14501    7e-05   58703.9802  52.28682   0.15327  19.90293     58774.22 
    13.84277  1.60628  1.59041       2.51983         2399.06583  0.00159  0.12216     0.01888  11.77586     16.75711   9753.85183    -14.8944  1.49465  6537.35953    3e-05   58707.5356  52.24568   0.10995  19.86942  58775.24643 
    13.68451  1.40746  1.71071       1.07904          2537.0047  0.00159  0.07583     0.01207  11.39512     19.80585   9011.10196   -21.07439   0.9671  6187.61334  0.03553  58701.35561  52.19493   0.10931  19.87028   58773.4532 
    13.94066   1.6749  1.76412       3.53527         2224.63386  0.00152   0.0265     0.07214  40.99354     17.72662   9762.61528   -17.26027   0.8759  5335.88443   0.0003  58705.16973  52.17008   0.13222  19.86603  58777.41088 
    14.16224  1.72209  1.42793       1.37967         2929.26379  0.01304  0.08453     0.04579   12.8486     18.72912   6666.34101   -13.71099  0.63184  5189.49125  0.00298  58708.71901  52.05299   0.91678  19.86815   58773.4532 
    13.88359  1.66198  1.56986       3.19349         2630.38775  0.02426  0.04999      0.1533  26.30897      17.3625   6233.95945   -15.39561  1.53354   4934.7625  0.00013  58707.03439  52.06898   1.95764  19.84886  58775.41905 
    13.92132  1.71191  1.08732       0.05597         3480.35363    0.001  0.13325     0.20127  10.96798     18.28516   7334.00939   -22.21643  1.25948  6354.35452  0.00107  58700.21357  52.21451   0.06818  19.85084  58777.41088 
    14.32888  1.82969  1.37759       0.26925         2733.52981  0.09914  0.04795      0.0161  30.86273     20.16015   3672.26182   -19.36135   0.3768  7131.07524  0.08033  58703.06865  52.40101   8.22809  19.86442   58773.4532 
    13.99233  1.99587  1.67802       1.21651         2580.11568  0.06094  0.10609     0.34926  10.58394     20.05777   5028.99405   -14.39882  1.50924  6323.15393  0.06346  58708.03118  52.20693   4.11485  19.85564  58778.86527 
    13.86736  1.65495  1.46142       1.46973         2803.56917  0.00133  0.05158     0.04809  24.63882     17.90465   8386.29234   -16.75784  1.47982  5306.41146  0.00045  58705.67216  52.12691   0.10584  19.85601  58771.62758 
    13.98553  1.56307  0.85556       0.03929          3045.2559  0.00283  0.05088     0.03017  32.39001     19.74959   6908.24596   -16.42622  0.95866  7555.90153  0.03121  58706.00378  52.45491   0.23654  19.88177     58776.29 
    14.29702  2.09502  1.72051       0.65987         2404.21066  0.01652  0.09334     0.47166  11.87514     16.66486   5988.14052    -17.2127  0.56348  6296.16004    3e-05   58705.2173  52.21379   1.14325  19.86416  58775.24643 
     13.9008  1.70269  2.00124       1.96552         2674.43371  0.00228  0.06232      0.2882  13.90759     17.10226   9595.77051   -18.24069  0.88935  5250.67452    7e-05  58704.18931  52.07018    0.1626  19.87564  58771.62758 
    13.76157  1.49431    1.613        2.7861         2750.73298  0.02548  0.04175     0.03154  20.84599     19.81902   6829.88195   -17.92059   1.3546  4030.45559  0.03662  58704.50941  51.87465   1.97039   19.8517     58776.29 
    13.89352   1.8186   1.6005       0.17758         3298.92017  0.00452  0.04832     0.01114    22.791     18.60497    7145.6157   -20.90041  1.33773  6427.10318  0.00224  58701.52959  52.28715    0.3555  19.87218     58774.22 
     13.8432  1.41176  0.71791       0.07978         4222.81621  0.00356  0.11342     0.03891  15.90196     20.05626   9073.51345   -19.75285  1.29628  7316.33594  0.06324  58702.67715  52.36996   0.26165   19.8887   58773.4532 
    13.98013  1.78272  1.60701       2.58932         2550.70969  0.03768   0.0673     0.08803  20.76697     19.05995   5366.22884   -14.69866  1.08752  5518.77207  0.00638  58707.73134  52.14731    2.9113  19.87827  58775.41905 
    14.02056   1.7325   0.9615       0.22266         2473.56356  0.05082    0.061     0.12824  29.59165     17.00744   3107.25243   -16.70159  1.03493  7090.53562    6e-05  58705.72841  52.39286   4.18686  19.86224   58773.4532 
     14.0048  1.86521  1.55598       2.38586         2710.65577   0.0024  0.08654     0.24183  13.71977     19.46844   3050.49837   -12.87184  1.43217  5151.04105  0.01634  58709.55816  52.05235   0.17119  19.84807  58771.62758 
    14.26708  1.45338   1.4132       2.89334         2745.21476  0.03794  0.06939     0.37619  19.87959     16.75767    8221.6548   -17.31468  0.31525  4692.10406    3e-05  58705.11532   52.0028   2.90761  19.87422     58774.22 
    14.07611  1.97008  1.58015       1.77023         2571.14536  0.00454  0.10807     0.34979  13.29221     17.64041   3125.46737   -13.66211   1.1101   6313.8859  0.00024  58708.76789  52.22635   0.32169  19.88402   58773.4532 
    13.91681  1.73628  1.76384       2.95646         2433.56621  0.01324  0.07085     0.07556  16.14194     17.49487    4236.5924   -16.46849  1.04595  5228.21062  0.00017  58705.96151  52.07936   0.97472  19.87826  58777.41088 
    13.71454   1.4332  1.56253       1.98226         2724.80764  0.00645  0.07238     0.19296  14.55911      19.2673   9600.35045   -19.68741  1.43813  4841.26173  0.01028  58702.74259  52.00367   0.46521  19.86717   58773.4532 
    14.03295  1.94451  1.43889       2.06601         2431.91941  0.03854  0.04738     0.19754  28.40226     18.41227   5121.34047   -13.50057  1.54999    5678.291  0.00144  58708.92943   52.1968   3.15261  19.89932     58774.22 
    13.96174  1.72069  1.27112       1.11483         2318.79465  0.04048  0.05599     0.26048  22.17941     19.32056   5807.57588   -12.82269  1.50825  6702.78795  0.01162  58709.60731  52.32146   3.16663  19.88964  58771.62758 
    13.86962  1.60329  1.66335       1.50021         2240.10946  0.17824   0.0802     0.03924  12.85206     18.82327   4295.75412   -18.27377   0.9991  5951.57861   0.0037  58704.15623  52.17202  12.53512  19.85877     58774.22 
    14.12084   2.1747  1.82724       0.72278         2535.88412  0.00149  0.12149     0.13595   9.89796     19.74347   7597.02302    -18.9399  0.83778   6182.6982  0.03078   58703.4901  52.18114   0.09938   19.8745  58771.62758 
    14.00148  1.51832   1.8542       1.75743         2581.50297  0.01362   0.1101     0.01085   8.33724     19.34497   5847.88273   -18.21569  0.51367  5909.97062  0.01229  58704.21431  52.12545   0.87282  19.87377  58775.24643 
     13.9834  1.85235  1.65446       1.85453         2404.49792  0.00842  0.12272     0.06841  10.18292     18.33915   4172.89079   -14.61614  1.27293  6388.12496  0.00121  58707.81386   52.2122   0.56399   19.8705     58776.29 
    13.90131  1.82228  1.49498       2.27739         2462.92251  0.00362  0.06098     0.01459  25.36393     20.28327   6351.77301   -15.80474  1.35501  6573.31729  0.10666  58706.62526  52.31516   0.29058  19.86733  58771.62758 
    13.93953  1.78379  1.67902        3.7886         2268.56605  0.00276  0.13443     0.03076   9.13803     19.70189   6642.11228   -13.64458  1.19473  5706.79993  0.02797  58708.78542  52.10397   0.18064  19.91219     58776.29 
    13.81329  1.56686  1.61061       4.40074         2304.32625  0.00165  0.14777     0.12982   9.52329     17.16992   8734.01067   -16.28517  1.55893  6041.58214    8e-05  58706.14483  52.15743   0.10869  19.89985   58773.4532 
