 texplosion  fnickel    Pspin  log(Bfield)      Mns  thetaPB  mejecta    kappa  kappagamma      vejecta  temperature    alpha  cutoff_wavelength  log(nhhost)      A_V         MJD0  kenergy  mnickel            TSD   log(L0)  Peak_mag     Peak_MJD  log(E_rad)  log(Peak_lum)  Rise_Time    E_fold  tau_1  delta_m15     r_peak     frac 
   -2.38813  0.00377  2.81912     14.02333  1.42979  1.41886  3.74981  0.03492     0.03822   8734.24833   5992.15621  1.35327         2011.90393     19.16174  0.00806  57356.84987  1.70642  0.01413   947680.18769  45.54723  15.71042  57379.63092     51.1925        44.8243   11.22649  15.71709   52.0    0.37296  -21.12228  0.99921 
   -2.47207  0.03411  3.55963     14.08157  1.58902  1.38454  1.95064  0.08009     0.08788   9760.33742   5996.25146  2.08056          2090.1924     19.94468  0.04891  57356.76593   1.1085  0.06654  1284164.31512  45.25855  15.70308   57377.2655    50.99032        44.5081   13.47179  22.45299   49.5     0.3933  -21.22369  0.99493 
   -2.76879   0.1588  4.01594     14.18717  1.67477  1.11218  6.72723  0.02266     0.01762    9399.8892   5819.54759  2.18755         2048.13137     17.30393  0.00011  57356.46921  3.54576  1.06828  1059263.26788  45.26022  15.76114  57379.63092    51.23657       44.88762   10.20112  15.61936   50.0    0.36804  -21.12521  0.91212 
    -3.0146  0.00831   4.8932     14.15568   1.9216  1.49415   4.1613  0.02956     0.03238   9173.13558   6116.88622  3.09885         2109.28448     18.15821   0.0008   57356.2234  2.08878  0.03459  2085968.00495  44.85402  15.75684   57377.2655    50.99742       44.52643   13.10193  22.82285   53.5    0.33771  -21.07697  0.99622 
   -2.56396  0.12521  3.45703     14.18649  1.66391   1.0853  4.45383  0.02994     0.03013   9273.60611   5856.49887  1.28132          2120.4857     16.91665    5e-05  57356.67404  2.28485  0.55766    782281.3159  45.51921  15.74611  57379.63092    51.11765       44.71467   11.23861  18.00759   51.0     0.3829  -21.13123  0.96383 
   -2.90354  0.00157  4.36922     14.00883  1.56399  1.49098  2.19138  0.05935     0.05315   9063.87053   5672.34612  4.47491         2126.80143     18.11253  0.00072  57356.33446  1.07392  0.00344  2661939.80283  44.75707  15.74192  57379.63092    51.09468        44.6901   11.23861  18.00759   52.0    0.35466  -21.09001  0.99959 
   -2.53569  0.01129   3.5328     14.32272  1.69872   0.7038  3.81289  0.03128     0.03256     8818.502   6107.88339  1.55334         2056.26259     16.87779    4e-05  57356.70231  1.76877  0.04304    445375.1699    45.754  15.75663   57377.2655    51.09902       44.70312   11.23861  18.00759   51.5    0.37264  -21.09061  0.99707 
   -2.76552  0.38211  3.28064     14.37481  1.47345  0.52378  5.16962   0.0307     0.02162   9605.96034    5768.3836  1.78385          2037.9114     20.20977  0.09005  57356.47247  2.84556  1.97537   262090.08202  45.98681  15.74184    57377.132    51.02547       44.59721   12.12993  19.30426   51.0    0.37167   -21.2082  0.87441 
   -2.44516  0.15209  4.17323     14.43005   1.7961  0.55573  3.54425  0.03479      0.0322   9444.42728   5850.66918  2.16986         2006.75607     18.00639  0.00056  57356.79284  1.88583  0.53905   400862.72978  45.67924  15.70351  57379.63092    51.06197       44.63915   12.24573  19.18845   51.0    0.34508  -21.11886   0.9548 
   -2.69219  0.02283  4.32593     14.24844  1.71599  0.77216  3.31202  0.04646     0.04555   9709.37996   5511.52532  2.91132         2112.34495     17.48915  0.00017  57356.54581  1.86253   0.0756   949757.42491  45.25359   15.7433  57379.63092    51.06089       44.64854   12.12993  17.11628   50.5     0.3663  -21.16046  0.99239 
   -2.12432  0.00987  3.84139     14.23007  1.86743  1.18006  4.12217   0.0268     0.03854   9296.96001   5717.57793  1.57873         2003.80747     16.52372    2e-05  57357.11368  2.12537  0.04071   886932.87338  45.42322  15.73612  57379.63092    51.12013       44.72835   11.22649  17.96239   52.5    0.38334  -21.10571  0.99716 
   -2.37103  0.43916  4.16015     14.03428  1.63771  1.34253  2.11926  0.04068     0.02957   8049.12213   5752.11934  3.21486         2093.92442     19.90298  0.04443  57356.86697  0.81904  0.93069  2247499.08841  44.89316  15.75404   57377.2655    51.07456       44.65598   12.12993  19.30426   56.0    0.30993  -21.08289  0.91413 
   -2.58801  0.30598  4.28944     14.06391  1.55432  1.23014  2.42146  0.05287     0.04135   8915.30807   6234.94695  3.80877          2101.4959     17.08807    7e-05  57356.64999  1.14809  0.74093  1978536.13826  44.89924   15.7397   57377.2655    50.97582        44.5031   13.10193  22.82285   52.5    0.35844  -21.09257  0.92094 
   -2.25416  0.00308  3.42219     14.15042  1.48363  0.85858  2.76933  0.04822     0.05737   9604.95515   6035.95373  1.86404         2044.51714     19.56903  0.02059  57356.98384  1.52402  0.00853   807048.55858  45.46466  15.76245   57377.2655    51.11152       44.70997   11.23861  17.95027   50.5    0.36785  -21.15363  0.99933 
    -3.0797   0.0088  3.87331     14.18898  1.80518   1.1989  5.10264  0.03029     0.02856   9129.10424   5997.08397  1.80453         2035.21263      18.9833  0.00535   57356.1583  2.53676  0.04492  1053253.93369  45.32667  15.71526  57379.63092    51.18883       44.81418   11.23861  17.95027   50.0    0.36871   -21.1292  0.99665 
   -2.55709  0.41462  3.70375     14.25238  1.42083  0.71204  5.25665  0.03045     0.01616   9342.87015   5840.10305  2.97896         2006.14517     19.11545  0.00725  57356.68091  2.73714  2.17953   566089.47799  45.53122  15.70213  57379.63092    51.07119       44.63487   13.08484  18.34934   49.0    0.38142  -21.14499  0.82387 
     -2.397  0.13287  3.91135     14.23748  1.92543  1.38458  2.09317  0.07737     0.07859   9349.95032   6002.03998  1.84761           2035.087     19.53813  0.01918    57356.841  1.09157  0.27812   916318.03177  45.40667  15.73523   57377.2655    51.10222       44.72169   11.22649  17.96239   49.5     0.4013  -21.17075  0.98111 
   -2.89932  0.01443  3.87082     14.14779    1.405  0.62763  1.28699  0.09789     0.07854   9234.92076   6051.49292  4.32469         2059.31697     19.03338    0.006  57356.33868  0.65474  0.01857   989748.80693  45.24539  15.74837   57377.2655    51.06328       44.64295   12.24573  19.18845   51.5    0.33422  -21.12425  0.99796 
   -2.49251  0.21314  3.56573     14.16207  1.39761  0.74883  2.20208  0.05583     0.04673   8306.06289   5873.86821   2.3892         2214.14605     18.36345  0.00128  57356.74549  0.90626  0.46935   782278.65034  45.41657  15.68766  57379.63092    50.88675       44.34076   14.01602  30.88995   53.0    0.38482  -21.08535  0.95798 
   -2.36952  0.01009   4.0608     14.24867  1.68112  0.80516  2.19669  0.05768     0.06671    9355.6114   5877.76579  2.61084         2019.01367     17.54355  0.00019  57356.86848  1.14694  0.02215    819024.5882  45.36392   15.7706   57377.2655    51.03589        44.5786   13.10193  21.24442   51.5     0.3698  -21.11114  0.99797 
   -2.73245  0.05437  4.49185      14.0933  1.68959  1.23636   3.9133  0.03124     0.02837   8879.01807   5882.71211  4.05851         2051.10135     18.78353  0.00337  57356.50555  1.84035  0.21275  2059882.64619  44.87793  15.74825  57379.63092    51.01864       44.55859   13.08484  22.83994   53.5    0.33659  -21.07562  0.97667 
   -2.28527  0.00107    3.367     14.47925  1.52124   0.3648  4.21616  0.02331     0.02712   8334.39962   5896.53531  1.60082         2167.67325     18.22423  0.00093  57356.95273    1.747  0.00452   176199.05849  46.15055  15.74389  57379.63092     51.0172       44.56183   13.08484  21.24727   55.5    0.35665  -21.07076  0.99967 
    -3.1375  0.03361  4.57685     14.24861  1.70766  0.67852  1.18517  0.10441     0.09876   9254.61392   5727.35537  3.33753         2173.09966     18.99097  0.00544   57356.1005  0.60551  0.03983  1057120.88261  45.15599  15.72714  57379.63092     50.9918       44.52116   13.81574  22.10904   53.0    0.32756   -21.0981  0.99544 
   -2.47948  0.08625  4.61901     14.08316  1.71248  1.48268  1.23745  0.10606     0.09008   9133.59067   6091.02306  4.37762         2193.96068     16.74408    3e-05  57356.75852   0.6158  0.10674  2313184.90298  44.80916  15.73434  57379.63092     51.0687       44.65458   12.12993  19.30426   50.5    0.37451    -21.151  0.98773 
   -2.28835  0.16104  4.45021     14.24274  1.71582  1.00024   8.7522  0.01599     0.01033   8486.11862    5655.5634  3.89017         2104.78564     16.25226    1e-05  57356.94965  3.75978  1.40945  1031723.29703  45.19299   15.7267  57379.63092    50.97607       44.49159   13.10193  22.82285   51.5    0.39158   -21.1191  0.86901 
   -2.48075  0.02325  4.29939     14.21786  1.79679  1.01216  6.14961  0.01812     0.02488   8978.85927   5481.75211  2.06223         2122.31676     17.64194  0.00024  57356.75725  2.95745  0.14295  1130838.38823  45.20313  15.72485  57379.63092    51.13831       44.76134   11.22649  15.71709   55.0    0.35608  -21.06357  0.98684 
   -2.87723  0.40566  4.08714     14.34951  1.51611  0.46377  3.25283   0.0316     0.02232   8945.21883   6144.30324  2.08469         2224.43855     18.45358  0.00158  57356.36077  1.55264  1.31954   470285.80119  45.55437   15.7365  57379.63092    50.98629       44.51024   13.08484  22.83994   52.5    0.29509   -21.0766  0.87398 
   -2.87068  0.00656  4.24242     14.15981   1.8829  1.49796  2.24956  0.05515     0.05813    9383.2241   5829.41394  1.80627          2113.1429     19.88411  0.04254  57356.36732  1.18148  0.01475  1507454.96683   45.1102  15.71697  57379.63092     51.0963       44.69276   11.23861  18.00759   51.5    0.34737  -21.12877  0.99875 
   -2.76997  0.01344  4.00096     14.04031  1.42133  0.84888  5.03106  0.02344     0.02101   9268.99068   5907.39346   4.2487         2129.20131     17.60706  0.00022  57356.46803  2.57841  0.06761  1754786.95066  44.97299  15.68971  57379.63092    50.99677       44.51641   14.01412  21.91066   52.5    0.32375  -21.12241  0.99222 
   -2.68646  0.04492  3.78444     14.08321  1.57646  1.10226  6.93905   0.0198      0.0161   9053.19585    6167.1459  2.58812         2103.81005     20.05258  0.06271  57356.55154  3.39259   0.3117  1429178.16761  45.15544  15.70694  57379.63092     51.0822       44.66082   12.24573  19.18845   51.5    0.35691  -21.17225   0.9733 
   -2.75918  0.01219  3.77842     13.94587  1.36538  1.46305  1.75019  0.07362      0.0873   9680.22864   5770.64359  3.00978         2089.62909     18.67707  0.00264  57356.47882  0.97833  0.02134  2322434.30281  44.88353  15.71078  57379.63092    51.00992       44.54186   13.47179  22.45299   52.0    0.34751  -21.10468  0.99768 
   -2.29297  0.00981  4.31991     14.25932  1.94885  1.13124  2.67856  0.04665     0.06807   8919.67773   5605.32337  2.16011         2042.19982     19.52329  0.01854  57356.94503  1.27124  0.02629  1023089.45275  45.27776  15.75467   57377.2655    51.05004       44.63507   11.23861  18.00759   54.0    0.38295  -21.08546  0.99782 
   -2.48595  0.49678  4.70038     14.21306  1.66397  0.85764  2.09566   0.0589     0.04466   8736.47775     5696.106  3.47201         2279.01147     17.03306    6e-05  57356.75205  0.95416  1.04107  1279696.27198  45.03862  15.69532  57379.63092    51.14554       44.75452   11.22649  17.96239   52.5    0.36356  -21.10887  0.88428 
   -2.31252  0.00725  4.45111     14.36012  1.87737  0.74415  1.63418  0.08104     0.10018   9446.89195   6102.23254  2.00956         2228.84763     18.24359  0.00097  57356.92548  0.86997  0.01185   657757.97223  45.42739  15.71237  57379.63092    51.00702       44.55953   13.08484  20.59464   50.0    0.39611  -21.12768  0.99889 
   -2.64509  0.00143  5.35173      14.2958  2.16674   1.0634  1.44898  0.09177     0.08065   9108.50988   6103.78257  4.82625         2010.35353     17.60297  0.00022  57356.59291  0.71711  0.00207  1475720.59364  44.97866  15.73955  57379.63092    51.11467       44.73109   11.22649  17.96239   51.0    0.36944  -21.10755  0.99977 
   -2.35759  0.06632  4.22952     14.37492  1.82141  0.71371  7.77216  0.01996     0.01751   9228.52272    5993.2678  2.51025         2102.64203     18.45124  0.00157  57356.88041  3.94851  0.51543    538224.5911  45.54571  15.71053  57379.63092     51.0349       44.59842   12.24573  19.18845   49.5    0.39766  -21.14873  0.95652 
   -2.73107  0.00786  3.76158     14.04532  1.52525  1.39108  2.22971  0.06242     0.07733  10063.71676   6032.73684   1.9639         2030.04955     18.62168  0.00232  57356.50693  1.34708  0.01752  1626489.89081  45.09019  15.71044  57379.63092     51.1486        44.7645   11.22649  17.96239   50.0    0.36703  -21.13363   0.9984 
   -2.12083  0.00367  3.96079     14.09338  1.51843  1.03567   1.2445  0.08598     0.11445   8935.82891   5880.15048  3.17138         2075.28563     18.08387  0.00067  57357.11717  0.59278  0.00456  1438864.51616  45.09666   15.7331   57377.2655    50.87041        44.3409   14.01602  26.39936   54.5    0.38216  -21.08673  0.99953 
   -2.80142  0.00652  3.81218     14.20153  1.71036  1.02793  6.55769  0.01969     0.03134   9462.69933   5897.24604  1.41161         2149.77885     19.34225  0.01222  57356.43658  3.50274  0.04276   912400.08102   45.3794  15.73923  57379.63092    51.07399        44.6461   12.23909   19.1951   52.0    0.37474  -21.10899  0.99665 
   -2.85199  0.32649  3.03795     14.07797  1.34399  0.96237  3.68609   0.0315     0.02787   9244.99154   5787.81045  1.04136         2212.76601      17.3199  0.00012  57356.38601  1.87934  1.20347   804335.10371  45.52664  15.69951  57379.63092    51.02213       44.56728   13.10193  21.24442   52.0    0.34291  -21.10135  0.92064 
   -2.57831  0.20401  3.78387     14.47851  1.51228   0.3664  1.39642  0.08595     0.09649   9286.94444   5947.59276  1.80017         2219.39598     17.68436  0.00027  57356.65969  0.71844  0.28488   221974.33283   45.9463  15.71232  57379.63092    51.15072        44.7747   11.22649  15.71709   52.5    0.35963  -21.10308  0.97404 
    -2.8923  0.00838  4.59442     14.11523  1.65856  0.98522  2.57148  0.04641     0.04931   9388.33107   5701.01334  3.91656         2130.60158     16.85054    4e-05   57356.3457  1.35203  0.02156  1912274.44433  44.88257  15.77483   57377.2655    51.00242       44.53202   13.08484  22.83994   53.0    0.33358  -21.08216   0.9974 
   -2.74995  0.02553  4.80878      14.1425  1.90309  1.39259  2.03786  0.06225     0.05791   9417.82679   5541.49675  4.31288         2001.82154     18.03131   0.0006  57356.48805  1.07821  0.05203  2120052.54097  44.85789  15.77603  57379.63092    51.07324       44.64646   12.12993  19.30426   52.0     0.3392  -21.12539  0.99443 
   -2.45822  0.00146  4.52255     14.32291  1.96624  0.86473  1.00566  0.11749     0.14772   9029.45322   5784.87527  1.93346         2195.99102      18.5939  0.00218  57356.77978   0.4891  0.00147   844106.37744  45.32532  15.74171  57379.63092    50.96358       44.48514   13.08959  22.83519   53.0    0.36029  -21.09547  0.99987 
   -2.37759  0.00248   4.3416     14.22564  1.78959  0.92281  1.31313    0.098     0.09197     8918.448   6233.48123  2.91552         2122.24266     17.25304   0.0001  57356.86041  0.62304  0.00326  1108106.13289  45.20172  15.70213  57379.63092    50.99407       44.52753   13.47179  22.45299   51.5    0.37404  -21.12838  0.99969 
   -2.95805  0.08019  5.34068       14.297  2.16132  0.93903  1.15981  0.09226     0.09307   9396.79631   5891.15967  2.76433         2142.13354     18.02797  0.00059  57356.27994   0.6109  0.09301  1457935.42628  44.98463  15.72165  57379.63092    51.13202       44.74461   11.23861  17.95027   52.5    0.30502  -21.08836  0.98988 
   -2.59121  0.05997  4.04723      14.2896  1.86439  0.85689  2.25547  0.04333     0.04754   8357.76454   5595.69621  1.98039         2002.85842     17.44934  0.00016  57356.64679  0.93982  0.13526   747270.64277  45.45159  15.74653   57377.2655    51.00927       44.54859   13.08484  21.26151   56.0     0.3481  -21.03436  0.98956 
   -3.16847  0.02035  4.50648     14.30683  2.05006  1.06361  4.08348  0.03976     0.04165   9051.52167   5789.33933   1.9166         2169.28869     17.38739  0.00014  57356.06953  1.99572  0.08309   941009.29725  45.29934  15.69063  57379.63092    51.09839       44.69894   11.23861  18.00759   50.5    0.37932  -21.12217  0.99308 
   -2.78983  0.00889  4.87034     14.19895   1.8723  0.95075  2.78855  0.04128     0.03808   9194.78805   5827.20093  4.51509         2032.03839       17.026    6e-05  57356.44817  1.40634   0.0248  1649728.61791  44.94869  15.75137   57377.2655    51.05197       44.62943   12.24573  19.18845   53.0    0.33517  -21.09478   0.9972 
   -3.43407  0.01782  4.01044     13.91241  1.42226   1.4882  2.63708  0.05074     0.04023   9309.36531    5484.0573  4.26523         2105.23921     17.69667  0.00028  57355.80393   1.3633  0.04699  3179488.99037  44.71308  15.69136  57379.63092    51.00046       44.53164   13.47179  22.45299   51.5    0.30976  -21.10832  0.99456 
   -2.67934  0.09157  4.13151     14.08952  1.46149  0.75479  3.18101  0.02984     0.02247   8031.10297   5675.31527  3.46722         2361.73508      19.3654  0.01289  57356.55866  1.22389  0.29129  1533857.21657  45.01564  15.76667  57379.63092    51.00225       44.53754   13.08484  21.26151   54.5    0.32427  -21.09158  0.96657 
    -3.2713  0.02996  2.04831     14.09616  1.37648  1.04201  5.20353  0.02488     0.03577    9290.4899   5716.30718  0.33574          2170.7998     18.79731  0.00348   57355.9667  2.67918  0.15592   344393.88857  46.24777  15.71273   57377.2655    51.11454       44.71891   11.23861  17.95027   50.0    0.39559  -21.12041  0.99517 
   -3.00006   0.0039  4.46212      14.4504  1.62873  0.39868  1.53001  0.07991     0.09066    9118.7908   5521.54513  2.40079         2395.25046     17.05815    6e-05  57356.23794  0.75892  0.00597   378389.12954  45.60367  15.74975   57377.2655    51.08377       44.68185   12.12993  17.11628   53.0     0.3476  -21.08768   0.9993 
   -2.59746  0.08989  4.96498     14.14477  1.81661  1.33014  3.76713  0.03323     0.03485   9281.26665   5988.28417  4.42972         2113.40986      18.9924  0.00546  57356.64054  1.93576  0.33863  2134858.52927   44.8069  15.72841  57379.63092    51.03635       44.60037   12.24573  19.18845   53.0    0.37137  -21.09673  0.95999 
   -2.76899  0.46972  3.49341     14.36934   1.4784  0.51149  3.42251  0.03945     0.02718   9247.94885   5525.23777  1.49591         2142.56415     17.19603    9e-05  57356.46901  1.74608  1.60761   305787.93323  45.86672  15.73853  57379.63092    51.08467       44.68643   11.23861  18.00759   50.5    0.35042  -21.12319  0.88328 
   -2.63555  0.11214  5.48999      14.2567  2.02708  1.03657  6.82368  0.01753     0.01532   9336.65311   5720.94967  3.90014         2147.55626     17.72797   0.0003  57356.60245  3.54837  0.76521  1739484.08658  44.85615  15.74327  57379.63092     51.1545       44.77685   10.20682  16.73677   53.0    0.33933  -21.09181  0.91086 
   -2.71456  0.24116  3.95312      14.0998  1.52273   1.3224  6.17215   0.0216     0.02042   9808.21994    5831.4486  1.69645         2180.33655     18.11732  0.00073  57356.52343  3.54196  1.48849   1395444.8095  45.11288   15.7151  57379.63092    50.97516       44.48063   13.83093  24.33916   52.0    0.36159  -21.11322  0.86944 
    -2.6256   0.2587  4.24444     14.40825  1.98407  0.90362   6.6544    0.024     0.01604   9303.99883   5729.41519  1.78157         2024.14417     17.43569  0.00015   57356.6124  3.43618  1.72148   506418.18221  45.60625  15.74048   57377.2655    51.15526       44.79644   10.20682  16.28761   49.5    0.38049   -21.1076  0.88187 
   -2.59254  0.28367  3.52814     14.11536  1.42628  1.03568  5.65728  0.02278     0.01823   9385.79572   5648.62217  1.67485         2129.47693     18.90932  0.00451  57356.64546  2.97288  1.60479   969150.38574  45.34157  15.75638  57379.63092    50.95098       44.45091   13.47179  24.69829   51.5    0.36703  -21.11053  0.87566 
