 log(Bfield)      Mns    Pspin  cutoff_power  cutoff_wavelength  fnickel    kappa  kappagamma   mejecta  log(nhhost)  temperature  texplosion  thetaPB      vejecta      A_V        MJD_0   log(KE)      M_Ni  Peak_mag     Peak_MJD 
     14.1065  1.68071  4.50867       2.26937         2150.03056  0.10604  0.07033     0.05205   2.28236     17.98545   6395.24206    -2.85256  1.27858   9128.51886  0.00054  57356.38544  52.35285   4.80743  15.69745  57379.89256 
    14.33998  1.55805   4.5998        4.2042         2160.94969  0.11733  0.02647     0.02337    5.7879     19.82916   6198.61889    -2.27429  0.53433   9618.47488  0.03749  57356.96371  52.51116   6.89811  15.68377  57379.89256 
    14.09171  1.47286  3.28186       0.92587         2148.38976  0.00716  0.03942     0.03494   3.67413     17.44312   6650.57765    -2.51675  1.08401   8510.57779  0.00015  57356.72125  52.35338   0.37402  15.66822  57379.89256 
    14.07343  1.65642  5.06379       4.27106         2362.64339  0.29475   0.0494     0.02687   3.56893     16.16921   6502.14404    -3.16277  1.31873   8963.87136    1e-05  57356.07523  52.39494  15.26802  15.69326  57379.89256 
    14.30983  2.06298  4.14469       0.46765         2145.77611  0.01074  0.04756     0.05762   3.61244     17.63336   5915.99812    -2.44784  1.18244   9900.19212  0.00024  57356.79015  52.48271   0.55822   15.6502  57379.89256 
    14.19328  1.95373  5.29987       3.78505         2135.46075  0.00161  0.09848     0.10512   1.85052     17.67573   4288.38873    -2.85448  1.42136    9528.5379  0.00026  57356.38352  52.36003   0.06802  15.68311  57379.89256 
    14.37612  1.88396   4.5222       2.31171         2007.13081  0.01682  0.04741     0.04368   3.47607     17.15156   5702.64424     -2.3528  0.70893   9042.57411    8e-05   57356.8852  52.39933   0.86491  15.67845  57379.89256 
    14.25513  1.67882   3.3055       0.73717         2010.47929  0.03954  0.03616     0.02853    3.9977     19.93122   6053.57181    -2.32153  0.78875   8954.14535  0.04742  57356.91647  52.40754     2.113  15.68904  57379.89256 
    14.35243  2.06943  4.02358       0.71738         2308.21764  0.12151  0.04257     0.04055   3.43367     16.80381   6388.06355    -1.99984  1.10063   8501.04545    4e-05  57357.23816  52.34419   6.22618  15.65929  57379.89256 
    14.28313  1.80036  4.69183       2.73798         2072.94309  0.00828  0.03963     0.03723   3.98074      18.6778   5068.15699    -2.45668  0.80684   9361.46401  0.00265  57356.78132  52.44568   0.44178  15.67667  57379.89256 
    13.98485  1.54792  4.35187       4.81038         2106.09754  0.06387  0.03788     0.02457   3.41621     18.87028   6958.79922    -2.74989  1.44553    8558.1509  0.00412  57356.48811  52.34938   3.26815  15.72843  57379.89256 
    14.22481  1.65355  3.69134       1.70405         2193.67229  0.01447   0.0583     0.03007    2.2814     17.97619   4427.10792    -2.62748  0.80675   7050.78376  0.00053  57356.61052  52.12847   0.65569  15.66251  57379.89256 
    14.03157  1.63907   4.6191       4.73759          2064.2884   0.4069  0.07812     0.04016   1.96552      17.1045   6764.44008    -2.74753  1.54003   8941.54357    7e-05  57356.49047  52.31366  17.56689  15.70061  57379.89256 
    14.07448  1.60925  4.41687       4.81447         2040.55389   0.0055  0.04992     0.03658    2.7216      18.3344   5786.70742    -2.56879  1.25531   7823.92912   0.0012  57356.66921  52.24263   0.26352  15.67205  57379.89256 
    14.13611  1.72899  3.03686       0.18035         2259.12637  0.03648  0.07375     0.06362   2.16341     19.86142   6050.13649    -2.88381  1.51481   9264.48808  0.04038  57356.35419  52.35822   1.62545  15.70225  57379.89256 
    14.45847  1.80215  3.95501       0.99145         2180.58733  0.16153  0.02896     0.02174   5.48448     20.29725   4848.54691    -2.70612  0.51032   9615.47893  0.11015  57356.53188   52.5051   9.37083  15.68769  57379.89256 
    14.13229  1.78919  3.70444       1.71288         2102.66369  0.16424  0.05943     0.04536    2.8746     20.48991    6168.9526     -2.5762  1.54256   8758.34175  0.17165   57356.6618  52.34774   7.99387  15.66178  57379.89256 
     14.0901  1.48945  4.40161       4.74339         2025.67499  0.06743  0.03526     0.03145   4.51483      18.8735   6331.18157     -2.3704  0.94514   9917.91281  0.00415   57356.8676   52.5104   3.72232  15.68269  57379.89256 
    14.15921  1.65303  3.85322       2.15194         2033.54648  0.00436  0.04313     0.03289   3.70685     19.47153   5072.03381    -2.68529  1.11017   7992.84124  0.01645  57356.55271  52.29993   0.22842  15.66975  57379.89256 
     13.9349  1.29704  3.70471       4.33729         2021.96115  0.00735  0.02648     0.02419   5.48807     18.80233   4260.85763    -2.04375  1.33224   9001.75374  0.00352  57357.19425  52.44788   0.42655  15.68015  57379.89256 
     14.1427  1.61461  3.58776       1.53971         2060.28113  0.02625  0.02693     0.01796   4.84634     19.95958   4945.47145    -2.13538  0.94173   8258.64632  0.05062  57357.10262  52.35937   1.47601  15.68978  57379.89256 
    14.35657  1.94748  4.85658       1.58487         2437.48943  0.01455   0.0345     0.02745   4.29807     19.25788   6779.49368    -2.65218  0.73923   8727.09206  0.01006  57356.58582  52.39367   0.79272  15.65493  57379.89256 
    14.22744  1.85544  4.63265       1.45928         2166.60964   0.1301  0.07733     0.08037   2.20198     19.15984    7265.7584    -2.72295  1.20174   9864.93701  0.00803  57356.51505  52.41525   5.83059  15.68688  57379.89256 
    14.18746  1.66597  3.99622       1.68583         2133.02533  0.05596  0.03756     0.04885   5.13094      18.2975   6012.11437     -2.0827  1.30756   9186.81542   0.0011   57357.1553  52.45821   3.19257  15.67914  57379.89256 
    14.07585  1.83828  4.75596       3.07087          2206.9101  0.03332  0.05271     0.03267    2.0998     18.01382   7095.13412    -2.68444  1.38744   8171.77061  0.00057  57356.55356  52.24498   1.47057    15.713  57379.89256 
    14.26494  1.83318  4.30009       1.35321         2081.24497  0.04986  0.02732     0.02166   5.67812      16.4612   5195.08882    -2.71654   0.9323   9050.22766    2e-05  57356.52146  52.45621   2.91728  15.67631  57379.89256 
    14.42451   1.7806  4.60824       2.88845         2042.28822  0.16023  0.05927     0.04458   2.42839     19.63742   5782.35488    -2.29789  0.50804   9018.50241  0.02411   57356.9401  52.35083   7.40757  15.70875  57379.89256 
    14.23222  1.92065  4.58142       1.81375         2297.42335   0.3376  0.04531     0.02648   3.15125     19.96422   6932.15787    -2.67063  1.23193   8110.60754  0.05116  57356.56737   52.2927  16.88003  15.68977  57379.89256 
     13.9921  1.40244  3.95835       4.56615         2093.65742  0.05692  0.03938     0.03008   4.41771     19.59528   4822.12212    -2.64131  1.51267   8616.49468  0.02188  57356.59669  52.38574   3.12394  15.65738  57379.89256 
    14.52757  2.01903  5.45331       4.12008         2153.85729  0.01069  0.03117     0.03472   5.44759     18.65726   7809.09148    -2.40864  0.51028   9762.20014  0.00252  57356.82936  52.51752   0.61889  15.64149  57379.89256 
    13.87172  1.12621   3.1159       1.98087         2135.98646  0.40329  0.07697     0.05726   1.75099     19.22495    6946.5499     -2.4091  1.37617   8419.46167  0.00933   57356.8289  52.24426  16.73702  15.71002  57379.89256 
    14.31658  1.84527  4.65696        1.9638         2189.14601  0.09072  0.03742     0.02955   3.94596     19.65617   4146.00282    -2.66128  0.76267   8879.01469  0.02517  57356.57672  52.39869   4.83077  15.70221  57379.89256 
    14.12038  1.57455   3.8276       1.84937         2110.70482  0.05607  0.08724     0.06202   1.98404     17.44689   6362.69932    -2.93899  1.08543   8287.13775  0.00016    57356.299  52.24901    2.4281  15.67324  57379.89256 
    14.23852   1.9174  5.33392       4.57179         2163.51055  0.04286   0.0525     0.04153   3.36902     17.46322   4151.33578     -2.7814  0.95116   9862.70024  0.00016   57356.4566   52.4709   2.18446  15.70594  57379.89256 
    14.17071  1.77087  4.46443       4.72179         2015.31777  0.00176  0.05746     0.04187   2.78091     19.78974   6868.58233    -2.50138   1.0375   8543.15598  0.03423  57356.73662  52.32183   0.08479  15.66469  57379.89256 
    14.22858  1.77022  4.58915       1.16792          2535.4806  0.07963  0.08862     0.07954    1.6758     18.31524   4595.99532    -2.85521  0.91316   9158.53507  0.00115  57356.38279  52.31065   3.25435  15.69795  57379.89256 
    14.14873  1.64848  4.10076       1.94659         2081.31454   0.0076  0.05873     0.05547   2.81638     19.05949   6811.12255    -2.36539  1.09618   9147.91231  0.00637  57356.87261  52.38289   0.36774  15.68289  57379.89256 
    14.40491  1.98233  4.53447       1.75025         2295.46864  0.06682  0.04932     0.03736   3.32261     16.68055   5749.99291    -2.29562  0.72915   8377.65348    3e-05  57356.94238  52.32744   3.39233  15.68303  57379.89256 
    14.33958  1.83905  4.94664       2.26678         2106.99031  0.37604  0.05908     0.04989   3.26815     19.55867   5898.10883    -2.47864  0.88767  10011.31967  0.02011  57356.75936  52.48013  19.00007  15.70945  57379.89256 
    14.31366  1.86387  3.44686       0.32015         2104.52113  0.03046  0.03698     0.03837    3.5619     19.63213   4257.09679    -2.30228  0.85324   9056.26076  0.02382  57356.93572  52.40361   1.57719  15.67055  57379.89256 
    14.38372  1.57779  3.98746       1.60817         2121.34504  0.42652  0.06351     0.04457   2.07185     17.01703   6182.13462    -2.51843  0.52563   8466.00478    6e-05  57356.71957  52.27379   18.7392  15.66148  57379.89256 
    14.39779  1.68458  4.45266       1.74899         2046.75457  0.14158  0.03509     0.03667   4.97472     16.78906   5638.35778    -2.25818  0.59524  10449.79301    3e-05  57356.97982  52.56668   8.01391  15.60767  57379.89256 
    14.34698  1.94445  4.61583       1.24476         2015.47504  0.31625  0.03593     0.02632   4.46315     17.12436   6769.30359    -2.38758   0.9567   9503.03683    7e-05  57356.85042  52.47198  17.40396  15.72534    57377.132 
    14.14519   1.8537  4.60666       1.05936          2276.7982  0.00425  0.10056     0.08714   1.45353     16.69929   6450.32786    -2.85982   1.4315   9496.88881    3e-05  57356.37818  52.31972   0.16504  15.70416  57379.89256 
    14.28075  1.95367  4.57184       2.34056         2003.77461  0.21054  0.08159     0.05413   2.18971     18.42243   6551.16761    -2.24761  1.02457   9172.36833  0.00147  57356.99038  52.35124   9.41849  15.71041  57379.89256 
    14.14157  1.74641  4.48293       2.93066         2004.76199  0.00223  0.06187     0.05872   2.76817     18.88383   4348.25045    -2.46442  1.27511   9515.53861  0.00425  57356.77358  52.41486   0.10719  15.67354  57379.89256 
    14.57268  2.10382  4.30154         1.357         2177.49059  0.17951   0.0733     0.05885   2.02305     20.10758   5629.71307    -2.18228  0.51586   8449.71117  0.07117  57357.05571   52.2687   7.82464  15.66726  57379.89256 
    13.92754  1.35831  4.20761        2.5672         2575.78145  0.02283  0.01469     0.01169  11.48113     18.82608   5348.64754     -2.6162   1.5255   9500.89176  0.00372   57356.6218   52.5681   1.56849  15.60383  57379.89256 
    14.26188  2.09019  5.40097       3.81297         2156.92031  0.00297  0.07918     0.08653   1.98554      17.0307   5459.03957    -2.32523  1.44942    8556.9443    6e-05  57356.91277  52.27695   0.12881  15.69099  57379.89256 
    14.30618  1.96677  5.23521        2.8968         2027.24974  0.03833  0.02715     0.02505   6.50076     16.49692   5672.52695    -2.97405  0.88571  10094.28874    2e-05  57356.26395  52.56533   2.31785  15.63991  57379.89256 
    14.17455  1.51466  4.29176       3.72325         2122.10248  0.46185  0.05685     0.03138   2.59007     18.09433   5859.76338    -2.16864  0.89969    8451.5031  0.00069  57357.06936   52.3031  21.78226  15.64235  57379.89256 
    14.23585   1.9645  4.42106       1.62359         2039.02049  0.06334  0.01586     0.01221    8.8372     18.23864   5724.73146    -2.24179  1.24336   8680.26309  0.00096  57356.99621  52.46502   4.11181  15.67666  57379.89256 
    14.32347  1.68916  4.35491       2.00154         2326.98498  0.00218   0.0767      0.0573   1.90572     16.84984   6426.72849    -2.48898  0.61077   8620.74075    4e-05  57356.74901  52.27741   0.09314  15.67018  57379.89256 
    14.31165  1.76332   4.9361       3.80597         2009.12812  0.33832  0.04406     0.03483   3.49375     17.59511    6898.5572    -2.33497  0.79452    9280.2493  0.00022  57356.90303  52.42248  17.42085  15.70812  57379.89256 
    14.30142  1.94942  4.72578       2.38472         2096.99343  0.06166  0.04465     0.03203    2.9335     19.70794   7906.16868    -2.55328  0.82275   8578.07519  0.02836  57356.68472  52.33228   3.01915  15.66542  57379.89256 
     14.2448  1.95972  3.99971       0.84318         2100.94673  0.12154  0.03916     0.03544   3.38971     16.21108   5595.98156    -2.20091  1.42138   8692.99895    1e-05  57357.03708    52.362   6.20509  15.76453  57379.89256 
    14.11628  1.54903  3.94531        2.2307         2084.55351  0.19821  0.04704     0.03769   3.10094     17.97035   4972.69007    -2.18257  1.13847   8799.14637  0.00052  57357.05543  52.36145   9.86435  15.71425  57379.89256 
    14.48422  1.86317  4.22592       0.93006         2159.32287  0.43185  0.04218     0.02743   3.81201     16.64888   5873.02738    -2.43385  0.61965    9067.9798    2e-05  57356.80415  52.41289  22.78111  15.69498  57379.89256 
    14.04445  1.52748  3.43249       1.28674         2092.67537  0.01198  0.06038     0.04605   2.14209      19.0637   5352.82997    -2.07562   1.4933   8287.45173  0.00643  57357.16238  52.26002    0.5323  15.67234  57379.89256 
    14.28785  1.98121  5.20187       0.87008         2348.59202  0.45714  0.03927     0.03401   3.86133     19.00749   5897.06372    -2.41737  1.43525  10290.04664  0.00565  57356.82063  52.52423  24.20031  15.69302  57379.89256 
    14.28186  2.04646   4.5197       1.67673         2145.87393  0.13362  0.08648     0.08249   2.02791     18.24966   6335.78082    -1.92382  1.40567   8728.65806  0.00099  57357.31418  52.29725   5.82898  15.69137  57379.89256 
    14.07261  1.73391  4.75085       4.58755         2136.01675  0.02438   0.0772     0.05076   1.64699     19.05649   6890.93556    -2.50724  1.42641   8121.78308  0.00633  57356.73075  52.20363   0.99009  15.65887  57379.89256 
       14.57  1.81222  3.47809       0.48676         2021.83323  0.03051  0.04435     0.04678   3.28154      18.1469   5857.08125    -2.09967  0.43567   9092.57444  0.00078  57357.13833  52.39703   1.54332  15.71261  57379.89256 
    14.28694  1.92547  3.50225       0.46812         2015.47626  0.01078  0.06007     0.06301   2.46398     16.47961   6174.98853     -2.4725  1.11325   8746.90248    2e-05   57356.7655  52.32624   0.50083  15.71851  57379.89256 
     14.0988  1.80633  4.88727        4.3676         2147.30452  0.01086  0.02485     0.01689   5.96172      19.4092    5039.6729     -2.5747  1.24402   9240.24204  0.01425   57356.6633  52.47946   0.64312  15.69954  57379.89256 
    14.07947  1.22454  3.17951       0.95311         2456.39254  0.13764  0.08235     0.08539   1.59188     18.72557   6083.12587    -2.46578  0.73587   9031.76215  0.00295  57356.77222  52.29057   5.52265   15.6596  57379.89256 
    14.15651  1.66158  4.44113       2.10188         2167.35884  0.07254  0.02897     0.02556   5.78072     19.12824   5086.46486    -2.26923  1.10766   9617.93696  0.00746  57356.96877  52.51098   4.26347   15.7221  57379.89256 
    14.20516  1.72689  3.60043       0.59915         2146.08243  0.31702  0.06697     0.07714   2.39629     19.31053   6796.52359    -2.50484  1.48338   9118.21994  0.01136  57356.73316  52.35857  14.59531   15.6827  57379.89256 
    14.35897  1.63842  3.75927       1.17408         2005.20348  0.04857  0.03645     0.03163   4.18004     18.58441   7085.49751    -2.24684  0.59898    9171.8579  0.00213  57356.99115  52.43362   2.62694  15.70101  57379.89256 
    14.22067  1.72291  4.63179       4.30385         2064.86055  0.04389  0.04634     0.03916   3.32022     17.24694   5257.29771    -2.27332  0.93773   8572.51424   0.0001  57356.96468  52.34732   2.22738  15.69813  57379.89256 
    14.25862  1.87075  4.67329       2.32477          2019.7696  0.26549  0.04692     0.03422   3.37246     20.02629   6157.94301    -2.58761  0.93267   9687.66516  0.05902  57356.65039  52.45547  13.53486  15.67365  57379.89256 
    14.14959  1.64826  4.13107       2.12066         2149.60207  0.00675  0.09136     0.07726   1.60133     18.31756   6080.42626    -2.61322  1.12507   8182.61776  0.00115  57356.62477  52.20574    0.2715  15.64599  57379.89256 
    14.39627  2.06975  4.89002       2.63623         2039.90488  0.12556  0.02538     0.01758   6.58046     20.15788   5834.58985    -2.40432   0.7661   9262.75877  0.07991  57356.83368  52.49192   7.61515  15.65721  57379.89256 
    14.15128  1.63328  4.45541       2.62469         2099.72874  0.21858  0.05501     0.04039   2.76242     16.27655    5017.0452    -2.76477   0.9628   9527.13149    1e-05  57356.47323  52.41565   10.5128  15.62615  57379.89256 
    14.24793   1.9728  4.94778       2.97728         2148.96455  0.02229  0.07696     0.05651   2.22325      16.6295   5686.58536    -2.69945  1.08138   8520.81966    2e-05  57356.53854  52.28937   1.00198  15.67127  57379.89256 
    14.17589  1.86087  5.10885        4.2858         2124.68984  0.03115  0.03811     0.03769   4.36914     18.55617   6095.63048    -2.29745  1.15434    9957.8405    0.002  57356.94054  52.51014   1.70477  15.65891  57379.89256 
    14.10749  1.75733   4.9501       4.86771         2031.59195  0.07463  0.03397     0.02794   4.54751     16.17994   6161.00061    -2.62526  1.25625   9763.87808    1e-05  57356.61274  52.49763    4.1273  15.69757  57379.89256 
    14.44002  1.73303  3.75011       2.17459         2019.95689  0.00566  0.02146     0.01708   7.21384     19.79918   4940.04176    -2.10345  0.53983   7897.04202  0.03499  57357.13455  52.36279   0.35062  15.68486  57379.89256 
    14.16528  1.61785  3.97371       3.24658         2152.98942  0.33275  0.07025     0.03964   2.31619     20.18799   5515.20375    -1.97525  1.04473   7691.69162  0.08565  57357.26275  52.20613  15.15579   15.6668  57379.89256 
    13.99557  1.28744  3.66918       3.04421         2092.76944   0.0192  0.04958     0.04408   3.16591     18.75545   5549.00983    -2.35795  0.91553   9385.46225  0.00316  57356.88005  52.42009   0.96115  15.65632  57379.89256 
    14.43883  1.77871  4.34058       3.02066         2042.44278  0.23167  0.08094     0.05407   1.97823     20.26959   5409.90239    -2.97338  0.46625   8848.84299  0.10335  57356.26462  52.30555  10.02357  15.70175    57377.132 
    14.11803  1.52341  3.90019       2.09643         2338.34391  0.00176  0.05895     0.05311   2.51552     16.54563   6100.51344    -2.18843  1.04062   7906.65651    2e-05  57357.04957  52.24131   0.08204  15.68341  57379.89256 
    14.31366   2.1176  5.03976       2.44497          2128.1108  0.23224  0.08558      0.0667   1.75811     16.67124   3350.77544     -2.4282  1.30914    8126.0953    3e-05   57356.8098  52.21407   9.65201  15.69335  57379.89256 
    14.14031  1.68036  4.55602       4.45988         2075.67485   0.0733  0.05013     0.02769    2.4859     17.73514   6061.58883    -2.61721  0.80986   8798.27935   0.0003  57356.62079  52.33253   3.41348  15.70096  57379.89256 
     14.0454  1.43949  3.38985       0.88136         2219.65379  0.11849  0.04982     0.04415   2.76052     18.74704   5221.17856    -2.33178  1.23603   8733.81926   0.0031  57356.90621  52.34005   5.69739  15.67359  57379.89256 
