 texplosion  fnickel    Pspin  log(Bfield)      Mns  thetaPB   mejecta    kappa  kappagamma     vejecta  temperature    alpha  cutoff_wavelength  log(nhhost)      A_V         MJD0  kenergy   mnickel              TSD   log(L0)  Peak_mag     Peak_MJD  log(E_rad)  log(Peak_lum)  Rise_Time     E_fold  tau_1  delta_m15     r_peak     frac 
   -9.98194  0.47241  4.20189     13.26001  1.90025  1.14596  18.24598  0.01273      0.2821   6615.9794   9967.47537  4.26114         2864.27993     21.09578  0.69263  59278.48077  4.76412    8.6195   94078888.20396  43.32727  19.72352  59318.41287    51.38505       44.21689   23.39682  115.87649  145.5    0.11802  -21.10014  0.42313 
  -11.32049  0.24062  4.68355       13.599  1.80532  0.95801  11.38253  0.01956     0.35715  7409.24489   9373.26672  4.07852         2991.46253     20.88363  0.42497  59277.14221  3.72747   2.73887   23309217.30214  43.81672  19.68445  59324.42168    51.16704       44.00576   24.85028  127.01254  140.0      0.099  -20.92605  0.72342 
  -12.05487  0.08828  4.40768     13.63925  1.72161  0.81464  13.19013  0.01691     0.25118  6844.60208   9532.13555  4.89822         3153.55503     20.83579  0.38065  59276.40783  3.68615   1.16438   16355751.31253  44.00269  19.74975  59321.30577    51.12088       43.94499   23.39682  137.96563  147.0    0.10087  -20.88674  0.86957 
  -15.52554  0.37577   4.0855     13.30572  1.41081  0.65334  17.30686  0.02397      0.2259  6581.65217   9596.26796  3.59243         3227.14219     20.90791  0.44941  59272.93716  4.47214   6.50336   53497163.32303  43.46749  19.71751  59325.28301    51.21709       44.06974   23.28195  128.58087  143.0    0.09494  -20.90159  0.38536 
  -14.15202   0.0435  3.72854     13.56058  1.42505  0.70078   7.73142  0.02528      0.4936  8570.51609   9004.80773  4.46338         2811.57308     20.77651  0.33207  59274.31069  3.38767    0.3363   13917539.46536  44.13604  19.69272  59323.36742    51.23149       44.04103   29.10828  142.08253  140.5    0.09497  -20.85186  0.96057 
  -11.07475  0.35053  4.51331     13.33056  1.90987  0.99034  20.41662  0.01139     0.34589  6946.25203   9654.08076  3.44508         2775.05926     20.97086   0.5195  59277.38795  5.87641   7.15672    78827778.9371  43.34418   19.6505  59324.42168    51.19889       43.99635   28.12013  143.07069  146.5    0.10637  -20.94553  0.43585 
   -7.51926  0.31882  4.74294     13.67981   1.8963  0.75161  12.45753   0.0123     0.24266  6178.87944   9945.38563  3.87207         3223.63801      21.0105  0.56915  59280.94345  2.83712   3.97175   17306423.34403  43.95645  19.72386  59321.36847    51.32936       44.16816   24.29212  123.26462  147.5     0.1157  -20.99455  0.64978 
  -13.40258  0.16165   3.9838      13.4103  1.57081  1.48271  10.50262  0.02045     0.34166  7353.51567   9626.59745  3.26597         3282.83084     20.92971  0.47254  59275.06012  3.38778   1.69775   34988953.50119  43.72044  19.72664  59325.34658    51.17491       43.94593   27.61142  151.86282  144.5    0.09665  -20.95455  0.82737 
  -10.01271  0.27208  5.10207     13.68925  1.85751  0.60819  14.28203  0.01688      0.1505  6667.25294   9846.21611  2.46583          3662.5574     20.80668  0.35597     59278.45  3.78714   3.88591   18782120.09655  43.84854   19.7247  59326.45323    51.19148       44.01958    23.3342  142.33433  157.0     0.1093  -20.82624  0.58498 
  -15.33426   0.0861  3.69349     13.67102   1.6185  0.56731    13.773  0.01533     0.46414  6785.20097   9928.69148   3.0669         3620.69395      21.0359  0.60343  59273.12844  3.78252   1.18581    9327274.72441  44.37333  19.70918  59320.38705    51.18711       44.03793   23.30535  121.49025  150.5    0.09435  -21.12369  0.89446 
   -15.8049  0.08836  4.15947     13.72309  1.77283  0.64431  13.30278  0.01725     0.45348  7243.60374   9728.43856  2.19296         3134.19803     20.90586  0.44729   59272.6578   4.1637   1.17539   10194569.34605  44.27107  19.71824  59325.34658    51.31389       44.13198   27.61142   124.2514  132.0    0.07496    -20.973  0.88716 
  -13.09947  0.11065  4.32338     13.54861  1.64975  0.96023   8.88943  0.02101     0.20714  6992.42505   8937.12335  3.82186         3261.26522     20.78049  0.33514  59275.36324  2.59273   0.98362   22890782.43868  43.85496   19.7039  59334.43775    51.21833       44.05105   23.30535  132.53482  156.5    0.10132  -20.80785  0.88337 
  -10.57731  0.11616  3.64882     13.54695  1.63874  0.85588  13.53683  0.01114     0.21318  6800.37461   9125.73575  3.73859         2851.27803     21.01735   0.5782   59277.8854  3.73431   1.57243    16320107.4961  44.14633  19.70621  59322.90537    51.26913       44.06614   27.61142  138.05711  144.0    0.06475  -21.08218  0.87214 
   -12.2444   0.1385    3.587     13.58428  1.51904  0.65756   9.42656  0.01772     0.36381   6831.2412   9746.98974  3.28653         2935.73156     20.95485   0.5007   59276.2183  2.62409   1.30562   12310582.66398  44.25067  19.71702  59326.32918    51.25172       44.05795   29.10828  136.56025  141.0    0.06316  -20.97251   0.8815 
  -10.86831  0.16978  4.16192     13.59341  1.78224  0.90827  12.43924  0.01105     0.27055  6958.28826   9365.29546  2.88572         2819.13031     20.94371  0.48802   59277.5944  3.59274   2.11193   18644784.53261  44.01066  19.71308  59328.37783    51.11631       44.00517   21.73702  100.96945  138.0    0.05141  -20.98174   0.8132 
  -11.96748  0.38356  4.88815     13.36687  1.87734  1.01224  13.32148  0.02701     0.36555    8347.479   9246.86234  3.86174         2693.44594     20.74408  0.30818  59276.49523   5.5372   5.10961   76897466.81045  43.27819  19.68356  59325.28301    51.21914       44.00936   29.10828  142.08253  143.5    0.11406  -20.80505  0.48078 
  -11.48608  0.21025  4.65608     13.48124  1.46158   1.0043  12.47622  0.02295     0.30808  7507.92224   8766.32211   3.4646         3024.67662     20.50917  0.17943  59276.97662  4.19517   2.62314   32078068.08968  43.59142   19.7222  59324.42168     51.2868       44.10753   24.23186  135.91438  145.5    0.10628  -20.68996  0.66011 
   -9.10833  0.45179  4.52052     13.37974  1.74491  0.89031  14.30752  0.02229     0.48299  7517.93502   9581.23163  4.38137         2826.33246     20.92565  0.46814  59279.35437  4.82379   6.46398   57607179.33411  43.43977  19.73052  59325.34658    51.21998       43.99602   34.63057  142.08253  143.5    0.10869  -20.96728  0.45095 
  -13.32597  0.43119  3.94035     13.21313  1.68654  0.89593   18.1508  0.02374     0.27671  7239.17721   9804.63366  4.18719         2965.06114     20.99198  0.54539  59275.13673  5.67416   7.82642   91120844.71755  43.34516  19.68102  59325.28301    51.27293       44.08856   27.61142  129.77368  143.0     0.0897  -21.07021  0.40714 
   -10.6471  0.12232  3.90616     13.62314  1.57966  0.66984  10.06091  0.01527     0.38283  7674.75204   9332.84268  2.98962          2908.4545     20.87082  0.41262  59277.81561  3.53503   1.23069   12693872.88391  44.18031  19.67429  59332.42253    51.28401       44.12116   26.09534  131.28976  140.0    0.06761  -20.91394  0.87547 
   -7.62432  0.25236  4.57538     13.63411  1.87067    0.818  12.98166  0.01052     0.16398  6082.23514   9725.44008  3.79348         3153.00565     20.99569  0.55007  59280.83838  2.86473   3.27605   19608216.03438  43.92755  19.68036  59326.45323    51.25699       44.07719   26.55246  136.35492  150.0    0.09709   -20.9417  0.70385 
  -10.89574  0.30665  4.67868     13.59407  1.83721  0.91446  13.19006  0.01607      0.3102  6976.64842   9606.65792  3.61391         2823.64858      20.9104  0.45199  59277.56697  3.82972    4.0447   24215127.15327  43.80867  19.74275    59329.753    51.22648       44.05732   27.61142  127.01254  140.0     0.0774  -20.95556  0.63972 
  -11.50166  0.18952  4.45407     13.62585  1.79548  0.74271  15.09463  0.01407       0.212  6664.47258   9749.73861   3.4173          3172.2415     20.93516  0.47851  59276.96104  3.99927   2.86075   18527462.74806   43.9577  19.62881  59326.45323    51.20751       43.97579   39.38623  145.61029  150.0    0.08458  -20.91072  0.72617 
  -12.24613  0.20614  4.80711      13.6239   1.8818  0.94045    11.933  0.01737     0.41964  7708.08458   9147.65738  2.14222         2946.69703     20.82166  0.36846  59276.21658  4.22931   2.45991   22822138.82221  43.82129  19.73247  59333.17681    51.18857       43.98206   34.63057  147.60482  143.0    0.07207   -20.8605  0.74526 
  -14.50701  0.11337  4.32022     13.82696   1.7526  0.49017  11.15562   0.0208     0.49734  7078.33594    9383.3722  2.65421         3135.96369     20.84541  0.38917   59273.9557  3.33414   1.26476    6738872.56225  44.41293  19.67851  59322.90537    51.19225       44.02027   25.83705  123.26462  139.0    0.07978  -20.89326  0.86794 
   -9.30797  0.23231  4.82336     13.72899  1.87039  0.59155  16.70508  0.01003     0.21314  6510.75795   9957.08417    2.915         3536.69284     20.97342  0.52258  59279.15474  4.22415   3.88071   14075843.42315   44.0256  19.68026  59326.32918    51.14987       43.94784   32.27187  133.39666  152.0    0.11576  -20.94433  0.63133 
  -12.38642  0.12775  3.89946     13.69085  1.72222  0.62415  11.29283  0.01542     0.38258  6712.94138   9967.17458   3.2841         3295.24265     21.03797  0.60631  59276.07628  3.03568   1.44267   10097718.42566   44.3187  19.74525  59323.30713    51.33149       44.16427   23.39682  121.39878  142.0    0.08382  -21.08099  0.87403 
  -14.13411  0.12103   4.3502     13.54714  1.82452  1.09568  15.97893  0.01552     0.33543  6387.90586   9701.65139  4.66658         3394.06692      21.0281  0.59269  59274.32859  3.88948   1.93392    25804508.4186  43.84128  19.75104  59318.41287    51.26829       44.06564   24.23186  138.67553  156.5    0.09959  -21.05057  0.81548 
   -9.76941  0.40692   3.9972     13.38816  1.52886  1.03523  12.01756  0.01775     0.35794  7800.98611    9986.5934  3.36693          3067.8832     21.02205  0.58449   59278.6933  4.36257   4.89018   37963617.86112  43.67033  19.72616  59313.26471    51.33678        44.2278   19.94343   107.0691  141.0    0.11212  -21.06237  0.59221 
  -12.53416  0.17457  4.54227      13.5746  1.77904  1.02328   9.52101  0.02607     0.41094  8214.61596   9649.74918  3.93146         3214.12224     20.86931  0.41119  59275.92854  3.83252   1.66208   24173517.16413  43.82114  19.74023  59321.30577    51.23926       44.10379   22.08914  121.49025  137.5    0.11048  -20.95154  0.81943 
  -11.84836  0.11882  4.07016     13.64282  1.71721  0.76086  13.39241  0.01555     0.30915  6894.81148   9752.28093  3.71762         3128.35333     20.97755  0.52756  59276.61435  3.79779   1.59133   13684629.77973  44.14821  19.64304  59326.32918     51.2125       43.97727   33.86395  148.37143  138.5    0.08873  -21.03289   0.8525 
  -13.74526   0.2186  4.29218     13.59622  1.86251  0.97307   6.97703  0.02093     0.45569  7745.25479   9699.51497  2.89322         2447.22903     20.83221  0.37752  59274.71745  2.49672   1.52515    20456835.0837  43.96275  19.66899  59325.28301    51.18325       43.97904   31.46199  142.48996  137.0    0.04233  -20.92414  0.85777 
  -11.27044  0.44106  4.40591     13.35193  1.62648  1.08894  10.82512  0.02692     0.35087   7787.7923   9131.32479  3.81486         2712.01468     20.81887   0.3661  59277.19226  3.91641   4.77451   57980115.10677  43.42874  19.66911  59326.45323    51.08186        43.8613   38.65599  149.10168  151.0    0.09399   -20.8514    0.542 
  -15.74479  0.11418  3.76316     13.66323  1.49719  0.57282  12.84725  0.02149     0.39904  7120.77242   9493.65554  2.27962         3384.21817     20.92018  0.46228  59272.71792   3.8859    1.4669    9284026.88603  44.32528  19.65985  59326.32918    51.09642       43.86959   33.13371  151.86282  137.0    0.08608  -20.98884  0.85596 
  -13.70547  0.09979  3.69828     13.59823  1.59313  0.67639   12.2961  0.01395     0.44695  6970.68237   9815.56123  3.87225         3282.76658     21.03081   0.5964  59274.75723  3.56406   1.22707   12870669.66584   44.2255  19.70872  59324.42168    51.24363        44.0503   26.55246  136.35492  150.5    0.09261  -21.06191  0.88845 
  -11.46275  0.11393  4.31431     13.73368  1.85731  0.71177  10.20059  0.01643     0.36935  6236.30524   9682.65301  3.76386         3086.95652     20.96008  0.50676  59276.99995   2.3665   1.16211   10943718.17512  44.22874  19.68531  59317.26061    51.09425       43.88269   26.52008  152.95416  140.5    0.08083  -20.97071  0.88929 
  -12.78773  0.48369  5.10623     13.48124  2.02822  1.47857   10.1696  0.03239     0.24503  7972.73258   9818.63362  3.61087         3103.51876     20.91139  0.45302  59275.67498  3.85607   4.91889   53535921.10345  43.43112  19.76945  59321.36847    51.22723       44.10876   20.54421  110.44569  142.0    0.10866  -21.01383  0.56071 
   -9.18172  0.43314  4.29826     13.54384  1.74009  0.71654  14.43541  0.01103     0.18608  6315.22576   9783.22633  3.37342         3060.46988      21.0613  0.63978  59279.28098  3.43427   6.25253   24394586.63574  43.85554  19.72155  59324.42168    51.24098       44.10367   21.78927  123.00633  148.0     0.1134  -21.04903  0.53206 
  -11.57214  0.13072  3.83598     13.63721  1.62894   0.7077  13.42734  0.01388     0.20716  6249.42211   9202.79761    3.918          2722.0738     20.94374  0.48805  59276.89056  3.12822   1.75528   11831660.68264  44.23995  19.74736  59319.48155    51.22754       44.06627   24.23186  133.15324  140.0     0.0614  -20.96951  0.84625 
  -10.67436  0.24107   4.6424      13.4091  1.78957  0.67455  18.47852  0.02184     0.14049  7822.08134   9278.14981   2.7401         3579.25352     20.62491  0.23423  59277.78834  6.74433   4.45466   54429935.36962  43.45227   19.6795  59321.30577    51.16508        44.0007    23.3342  142.33433  152.0    0.12912  -20.77504  0.49245 
  -11.42228  0.40936  5.70053     13.48975   2.0881    1.225  12.22609  0.02568     0.35984  7202.04016   9190.50911  4.02159         3058.09859     20.78269  0.33684  59277.04043  3.78291   5.00484   66054889.01636  43.25686  19.71682  59320.38705    51.30008       44.12763   24.94175  135.20449  157.0    0.11391  -20.82708  0.48229 
   -7.96185  0.31486  4.78668     13.66665  1.76805  0.49242  15.66835  0.01078     0.08805    6118.536   9719.43954   2.8138         3276.81637     20.83779   0.3824  59280.50085  3.49901   4.93335     17461191.906   43.9142  19.74156  59326.32918    51.22114       44.02903   26.55246  139.11606  153.0    0.12067  -20.77493  0.51451 
  -17.68408  0.15865  4.44798     13.55218  1.97397  1.49923  11.66222  0.02989     0.44456  6725.89272   9982.25849    4.766         3190.82717     21.01522  0.57537  59270.77863  3.14708   1.85024   28518397.31915  43.81273  19.69463  59324.42168    51.27763        44.0807   29.10828  136.56025  140.5    0.09163  -21.10226  0.83513 
  -12.75587  0.09961  4.28427     13.73261  1.68067  0.56242  15.64334  0.01144     0.35718  6635.03446   9442.12512  3.19261         3369.81805     20.91137    0.453  59275.70684  4.10812   1.55826    9813628.47069  44.23875  19.63772  59324.42168    51.16703       43.95481   30.37256  151.86282  153.0    0.09071  -20.87376  0.83288 
  -10.18305  0.31854  4.65522     13.44611   1.6238  0.91952  14.31852  0.01907      0.3302  6830.23672   9254.47498  2.98448         3197.13298     20.81327   0.3614  59278.27965  3.98471   4.56108   41880605.29987  43.52149  19.66184  59323.30713    51.10073       43.88626   30.37256  143.57939  152.5     0.0991  -20.81984  0.53502 
   -11.8384  0.45497  4.44365     13.26032  1.72578  1.12383  15.47809  0.02091     0.37224  7879.61092   9376.13635  3.12479         2743.53259     20.91328    0.455   59276.6243  5.73263   7.04207   95419671.61712  43.23071  19.69385  59323.36742    51.26189       44.06268   28.12013   137.5484  137.0    0.10355  -20.96707  0.41153 
  -12.02879  0.13513  4.21927     13.50496  1.88988  1.43951   7.25329  0.01975     0.36597  8228.66034   9754.07263  4.43564         2405.62603     20.87807  0.41956  59276.43391  2.92968   0.98016   30535819.16084     43.81  19.76865  59336.60063    51.22805        44.0684   21.73702  128.58087  143.0    0.04982  -20.93282  0.90772 
  -11.32287  0.12044  3.97154     13.72467  1.61963  0.54615  10.96322  0.01016     0.37457  7602.74122   9488.98812  1.64457         3328.00007     20.87417  0.41581  59277.13984  3.78012   1.32038    8429472.44673  44.35454   19.6796  59324.42168     51.2797       44.10354   27.61142  135.29596  137.0     0.0522  -20.94054  0.86899 
  -16.74909  0.04982  4.62431     13.84873  1.58791  0.48876  15.89274  0.02078     0.49918  8615.03873     8715.071  4.22196         2394.65503     19.99754  0.05524  59271.71362  7.03624   0.79181    6328116.86559   44.3383  19.68532  59322.90537    51.18356       43.95579   30.37256  149.10168  125.0     0.1023  -20.70336  0.88966 
  -15.10982  0.12757  4.12686     13.53883  1.64102  0.95024  11.76998  0.02601     0.39667   8126.3446   9745.50887    4.712         3072.58713     20.88862  0.42988  59273.35288  4.63653   1.50146   21701929.23283  43.91622  19.74121  59325.34658    51.18423       43.99805   26.55246  130.83264  133.5    0.10473  -20.99925  0.84495 
   -14.2723    0.104  4.06857     13.57476  1.66665  0.77455  18.08662  0.01593     0.23056  6636.38859   9828.98831  4.58942         3610.08412     21.00966  0.56804   59274.1904  4.75169   1.88109   18156243.36174  44.01278  19.62923  59324.42168    51.25518       44.07507   31.86942  128.27682  157.0    0.10663  -21.08221  0.81661 
   -9.76707  0.10363  4.53574     13.74513  1.77088  0.59702  11.18908  0.01353     0.18828  5729.55909   9821.87661  4.17622         3753.87345     20.90335  0.44471  59278.69563  2.19111   1.15957   10940817.06659  44.16469  19.68055  59322.90537    51.07782       43.85155   26.57519  143.07069  168.0    0.11568  -20.90164  0.86527 
  -11.86208    0.156  3.90743     13.60427  1.68969  0.75727  12.02333  0.01739      0.3601  7309.21951   9879.98751  3.91539         2953.42064     21.00111  0.55697  59276.60063  3.83172   1.87561   14820296.38843  44.14201  19.69049  59323.36742    51.21705       44.01308   31.86942  144.84367  136.5    0.07933  -21.05926  0.83644 
  -18.79064  0.22104  4.43135     13.22724  1.81716  1.06441  33.00456  0.01158     0.14277  5291.20337   9811.91847  3.82113         3274.60382     20.95118  0.49649  59269.67207  5.51201   7.29517  116358067.86942  43.16937  19.67073  59324.42168    51.15814       43.92566   36.86491  145.37047  154.5    0.07596  -20.91308  0.38728 
   -14.9205  0.15623  4.34012     13.49519  1.67858  1.17503  10.12338  0.02569     0.30427  7605.79571   9312.57576  3.45815         3399.15218     20.87916  0.42062   59273.5422  3.49335   1.58159   30017501.09848  43.74141  19.67086  59325.28301    51.14822       43.91416   38.65599  151.86282  149.0    0.10566  -20.92696  0.82622 
  -14.78524  0.36155  3.96864     13.29766   1.4308  0.87375  16.45318  0.02438     0.41158   7195.3222   9746.63479   4.0402         3228.67008     20.95372   0.4994  59273.67746  5.08133    5.9486   53131363.50452  43.50179  19.68681  59328.37783     51.1896       43.98337   33.13371  140.81825  148.5    0.09956  -21.01695  0.47817 
   -9.41764  0.48618  4.36254     13.38928  1.78357  0.91296  16.68069  0.01128     0.20608  7018.03896   9468.46548   3.1873          2545.5854     21.01663  0.57724  59279.04506  4.90086   8.10982   52484278.01962  43.52063  19.68832  59332.42253    51.34579        44.2058   20.91968    128.182  145.0    0.08493  -21.05172  0.43291 
  -11.32865  0.22305  4.16758     13.51517  1.55084  0.81365  12.03176  0.01658      0.2925   7142.3819    9439.1415  2.44246         3519.37088     20.88924  0.43049  59277.13406  3.66136   2.68369   23324836.33366  43.85183  19.73679  59321.30577    51.14199       43.95079   25.83705  150.87604  151.5     0.0986  -20.88576  0.72095 
