 texplosion  fnickel    Pspin  log(Bfield)      Mns  thetaPB   mejecta    kappa  kappagamma      vejecta  temperature    alpha  cutoff_wavelength  log(nhhost)      A_V         MJD0  kenergy  mnickel            TSD   log(L0)  Peak_mag     Peak_MJD  log(E_rad)  log(Peak_lum)  Rise_Time    E_fold  tau_1  delta_m15     r_peak     frac 
  -11.49178  0.47507  5.87591     14.36077  1.79039  0.49791  14.22593  0.01951      0.2689   8119.50909   3631.49652  4.69195         2867.32797     17.23202    9e-05  58816.05419  5.59458  6.75838  1089863.10189  44.94627  19.52342  58853.65528    51.22795       44.36941   22.17719  53.03024  102.0    0.21886  -21.46942  0.45153 
  -10.98031  0.21168  3.54138     14.03889  1.68015  0.74821   4.52596  0.04324     0.03039   8285.46368   3429.29961  1.57347         2815.81193     16.95056    5e-05  58816.56566  1.85341  0.95806  1635772.23805  45.18213  19.52615  58854.43359    51.18205       44.50981   22.98005  39.27575   65.0    0.22476  -21.45049  0.93627 
  -13.62571  0.06826  3.55468     13.89497   1.7087  1.02229     6.354  0.03988     0.21807   9054.71059   4447.32325  3.21989         2416.90217     19.96496  0.05125  58813.92026  3.10759  0.43371  3251898.04367  44.88777  19.53384  58852.52197    51.16166       44.49247   19.89268  38.01496   82.5    0.21652  -21.54409   0.9704 
  -15.36376    0.449  4.34074     13.97068  1.73408  0.88338   5.87387  0.04486     0.02374    7557.5093   3510.04981  4.02307         2868.89949     18.21078   0.0009  58812.18222  2.00129  2.63734  3472521.35536  44.69214  19.55509  58853.49486    51.21856       44.46308   26.15996  40.27402   71.0    0.20144  -21.45729  0.78529 
  -12.39654  0.02704  3.48295     13.83913  1.65806  1.23193   5.04252  0.04508     0.02622   8059.96125   9471.27035  3.60577         2441.60214     19.87418  0.04158  58815.14943  1.95407  0.13633  3917830.33456   44.8115  19.52577  58854.43448    51.24637        44.6223   20.89095  29.84319   55.5    0.22064  -21.48832  0.99047 
  -10.53898  0.08167  3.81643     13.99831  1.72806  0.78649   4.68381  0.03956     0.11019   8743.56729    9626.1521  3.05784         2548.66391     18.96544  0.00513  58817.00699  2.13601  0.38254  2355398.31085  44.97103  19.50508  58854.43359    51.21299       44.57866   20.89095    33.356   65.5    0.22261  -21.46082  0.97036 
  -11.88531  0.02815  2.72779     13.56637   1.1283  1.26066   6.29848  0.03424     0.19724   7158.18136    7514.9073  3.59872          2853.4471     20.16199  0.08067  58815.66066  1.92517  0.17728  5742858.89853  44.69052  19.54452  58852.52197    51.46494       44.79996    23.3053  36.19155   80.5    0.23041  -21.51632  0.98643 
  -11.75445  0.13098  4.76912     13.91736     1.95  1.26198  11.92581  0.01667     0.02709   7229.06113   5380.84378  3.66949         3129.93428     18.50558  0.00178  58815.79152  3.71774  1.56201  6025598.69678    44.422  19.53563   58852.4375    51.20005       44.42539   22.06438  44.78667   88.0    0.21214  -21.43588  0.85802 
  -11.94804    0.008  2.99745     13.96601  1.59459  0.83044   3.94812  0.04089     0.12707   9779.04314   8186.08373  0.72774         2282.41725     19.02569  0.00589  58815.59793  2.25222  0.03159  1555776.16519  45.32604  19.52178  58854.43448    51.21066       44.55635   22.98005   33.4308   64.5    0.18761  -21.45523  0.99827 
   -14.8755   0.4196  3.85578     13.93119  1.70529  1.46734   4.87839  0.07204     0.02634    7944.0104     5159.321  2.70368         2747.50176     16.34381    1e-05  58812.67048  1.83647  2.04696  3231976.19951  44.81895  19.50752  58853.65528    51.27784       44.63884   20.89095  31.82268   60.0    0.21879  -21.46981  0.85596 
  -12.94376  0.13613  4.63829     14.04016  1.98142   0.7409   5.85641  0.03157      0.0624   7297.53133   6454.51678  4.62826         3004.32951     18.36714  0.00129  58814.60221  1.86042  0.79724  3289920.74334  44.71592  19.53037  58852.52197    51.19522        44.5149    23.3053  39.14793   90.0    0.21913  -21.45146  0.92731 
  -11.65695  0.02739  3.63696     13.86889  1.76439  1.25525   6.33901  0.02897     0.03494   9243.77168   9992.59729  1.18738         3198.80264     19.91731  0.04592  58815.88903  3.23108  0.17362  3963821.99968  44.79585  19.54388  58853.49486    51.30208       44.54375   20.89095  42.06109   54.5    0.20791  -21.53079  0.98797 
  -10.72662  0.12638  3.37513     13.89771  1.45529  0.82153   7.22503  0.02691     0.02623   9018.55181   9650.60052  1.81805         2836.27477      17.4286  0.00015  58816.81935  3.50543  0.91311  2465612.86065  44.98329  19.53536  58854.43359    51.18183       44.48684   22.06438   39.4246   55.5    0.22839  -21.47064  0.93152 
  -14.85099  0.07283  2.72564     13.83762  1.42489  1.25756   6.72059  0.04665     0.06786   8025.34291   3429.12901  1.73651         2330.63462     18.01492  0.00057  58812.69498  2.58203  0.48946  2076280.09679   45.2344   19.5301  58852.48285    51.20767       44.57995   18.80186  33.42553   71.5    0.22648  -21.44353  0.97458 
  -13.89997   0.1093  4.06127     14.02571  1.85459  0.84868    6.8156  0.03577     0.06545   7656.41224   9881.42319  2.89814         2775.34674     17.43573  0.00015    58813.646  2.38332  0.74493  2523289.36898   44.9178   19.5323  58852.52197    51.18296       44.37973   24.13741  45.16407   64.5     0.2178  -21.44841  0.94289 
  -12.75361  0.33629  3.98863     14.18577  1.77689   0.4655   3.89063  0.04724     0.14362   8593.30066   5551.83372  2.55321         2717.94812     17.10779    7e-05  58814.79236  1.71383   1.3084  1115774.83338  45.26928  19.50899   58855.3617    51.17462       44.51383   22.98005  35.51462   91.0    0.19469  -21.45225  0.90071 
  -11.83968  0.39526  4.07806     14.07179  1.92032  1.06127   6.94205  0.03916     0.05507   8574.98664   5980.98874  3.48682         2145.06293     18.12414  0.00074  58815.70629  3.04496  2.74389  2130687.44838  45.00279  19.52554  58853.65528    51.19185       44.49946   22.04831  37.35157   82.5     0.2125  -21.43198  0.82599 
  -12.19125  0.24499  4.30104     13.93904  1.93816  1.09016   8.15879  0.02374     0.01684   7856.23937   8194.93084   3.4631         2797.69596     20.05623  0.06324  58815.35472  3.00388  1.99884  4408270.03102  44.64482  19.44847   58852.4375     51.1965       44.49623   19.97528  37.93245   68.5    0.21286  -21.52077  0.85301 
    -12.918  0.00229  3.91543     14.03908  2.11655  1.56653   8.43188  0.03231     0.07009   7618.29262   7349.65567  4.15045         2153.13729     19.58905  0.02157  58814.62797  2.91922  0.01932  2516820.02359  45.00806  19.48118  58853.65528    51.20246       44.56196   21.98177  32.33471   72.5    0.22542  -21.43752  0.99882 
   -13.7693  0.05502   3.5763     13.91372  1.65062  1.05947    8.1077  0.03312      0.1015   8138.04652    5697.8816  2.35831         2706.52546     18.44043  0.00153  58813.77667  3.20306  0.44605   2916741.2432  44.91472  19.49009  58854.43359    51.09411       44.37541   24.93214  42.25603   76.0    0.23295  -21.46349  0.96781 
  -10.72621  0.29601  2.92482     13.97739  1.29645  0.59604   4.60812  0.05178     0.04122   8860.23626   3214.75025  3.68312         2114.39648     16.05865    1e-05  58816.81976  2.15795  1.36406  1142865.84883  45.39141  19.52247  58855.48387     51.2405       44.56238   22.98005  32.70857   67.5    0.23342  -21.45627  0.91136 
  -15.76835  0.01709  3.79064     13.80732  1.70326   1.3548   7.52017  0.04186     0.10179    8034.4932   3629.98812  4.53988          2705.1813     16.03289    1e-05  58811.77762  2.89582  0.12848  5519201.84847  44.60083  19.52876  58852.52197    51.19906       44.49062   22.98005  42.06109   81.5    0.20267  -21.49815  0.98968 
  -14.07305  0.27379  3.50668     14.02364  1.38214  0.60153  11.41718  0.02235     0.05279   7468.74353   9457.23436  3.12261          2726.6187     19.17583  0.00833  58813.47292   3.7991  3.12589  1415421.34542  45.16872  19.53379  58853.49486     51.1631       44.47146   23.78631  40.60848   73.0    0.21727  -21.43993  0.77344 
  -11.69159   0.3345   3.9023     13.82834  1.64771  1.12748   6.81534  0.02618     0.01755    8535.6037   9634.19876  3.06723           2668.215     19.08872  0.00681  58815.85438  2.96199  2.27976  5136380.35981  44.59243  19.51587   58852.4375    51.12045       44.44163   22.06438  41.47608   58.0    0.19176  -21.45644  0.82869 
  -12.61835  0.02215  3.38741     13.92014  1.83508  1.32032    5.4506  0.02988     0.16915   8904.07079   4030.62543  1.46896         2211.28481     17.60126  0.00022  58814.92763   2.5778  0.12072  2824348.93877  45.02185   19.4933   58852.4375    51.10402       44.40057   22.98005  42.06109   84.0    0.18876  -21.43356  0.99319 
  -12.00482  0.03885  3.49947     13.86828  1.70999  1.37371   2.68397  0.09808     0.40388   8229.47347   8463.09172  4.86187         2403.58226     20.20821  0.08973  58815.54115   1.0843  0.10427  3566635.80644  44.86158  19.53776  58854.43448    51.15494       44.43529   24.13741  40.62455   66.0    0.24619  -21.57936  0.99299 
  -12.52758  0.12028  3.30064     13.89887  1.59241   1.0186   3.53173  0.06982     0.07152   9488.98431   3751.51297  2.60989         2078.31935     16.51499    2e-05  58815.01839  1.89694   0.4248  2566457.24188  45.02437  19.51722  58850.75143    51.19543       44.56719   18.80186  34.79766   66.5    0.21514  -21.46717  0.97239 
  -12.83339  0.19134  4.56626     13.93725  2.01364  0.99096   6.13515  0.03437       0.013    8216.6776   7310.27468  4.04604         2923.89574     16.55749    2e-05  58814.71258  2.47084  1.17391  5204925.30246  44.53729  19.52153   58852.4375    51.25888       44.57743   19.89268  34.39535   57.0    0.21789  -21.48833  0.90135 
  -13.21984  0.39588  4.36735     14.26045  1.78857  0.52764   7.24077  0.04505     0.08041   8353.20876   5780.88231  3.89958         2694.16209     17.58932  0.00022  58814.32613  3.01383  2.86651     954660.778  45.26107  19.52145  58853.65528    51.25401        44.6073   20.65053  31.57685   79.5    0.23326   -21.4948  0.77956 
  -13.85883  0.41381  4.47157     14.30413  1.85612  0.41429   5.73061  0.04905     0.04842   8283.26785   5762.17808  4.29406         2715.88408     18.19287  0.00087  58813.68714  2.34548  2.37137   849327.87202  45.30746  19.52663  58853.49486    51.09568       44.31985   26.65406  52.36439   78.0    0.20999   -21.4857   0.8098 
   -11.9348  0.04126  2.44532     13.75957  1.32056   1.3047   5.20903  0.03695     0.05089  10281.62858   4264.96425  0.36132         2241.46684     19.58384  0.02131  58815.61118  3.28479  0.21494  2218675.36464  45.26684  19.52562  58852.52197    51.46446       44.98394   12.53457   19.5047   60.0    0.20468  -21.50703  0.98977 
  -13.55938  0.13186  2.73639     13.78557  1.08249  0.64401   6.14886  0.04169     0.03807    7914.5935   7622.32044  2.68432         2828.34451     18.21192   0.0009  58813.98659  2.29762   0.8108  2020507.37557  45.12345  19.52458  58853.49486    51.20078       44.54318   21.98177  33.70684   70.0    0.22725  -21.46061  0.93721 
    -11.867  0.24095  3.53501     14.03579  1.51808  0.56139   4.65461  0.03933     0.06889   8530.52005   9996.06537  3.76267         2378.13884      16.4473    2e-05  58815.67897  2.02051  1.12151  1493862.47526  45.17905  19.53487  58853.49486    51.14769       44.43487   24.70198  42.06109   66.0    0.20831  -21.41552   0.9145 
  -11.81066   0.1393  3.96396     13.96788   1.8703  1.20122   5.51623  0.04306     0.05532   8964.42486   4416.74417  2.55178         2458.16384     16.24871    1e-05  58815.73531  2.64432  0.76842  3163922.61533  44.84427  19.54676   58852.4375    51.32204       44.74687   14.62367  27.15824   71.5    0.23059  -21.46627  0.94484 
  -11.97381  0.11654  3.91816     14.08064  1.88959  0.71508   4.51007  0.04105     0.05751    8617.6753   4625.01886  2.22227         2517.92078     17.60154  0.00022  58815.57216  1.99798  0.52562   1858057.0257  45.08999  19.51698   58852.4375    51.20224       44.40388   24.15348  45.12379   78.0    0.19606  -21.43306   0.9628 
  -14.11262  0.20861  4.33581     14.12351  2.02291  1.17667  10.97167  0.03055     0.08034   7816.50512   4974.43389   2.6674         2652.32746     17.99286  0.00055  58813.43335  3.99876  2.28882  1999503.22535  44.99976  19.48981  58853.65528    51.24215       44.55301   21.98177  35.82015   76.0    0.23468  -21.43481  0.84522 
  -11.47443  0.20332  3.73788     13.99981  1.59982  0.80504   8.28525  0.03257     0.04288   8571.55129   5520.32163  3.30438         2540.33235       18.013  0.00057  58816.07154  3.63121  1.68452  2077421.77674  45.01014  19.53381   58855.3617    51.14391       44.47957   22.98005  37.05884   75.0    0.23653    -21.472   0.8742 
  -11.12182  0.31581   3.6358     14.20893   1.9338  0.70778     4.846  0.04858     0.04237   9965.36812   5578.25107  1.30629         2012.68195     17.64576  0.00025  58816.42415  2.87076  1.53041   906933.15412  45.47648  19.53467  58852.52197    51.32095       44.71231   16.71276  26.93566   60.5    0.22011  -21.47411  0.91582 
  -12.53706  0.02746  3.44733     13.86527  1.63228  1.17691   8.03908  0.03543     0.01401   8796.69021   7687.81714  4.68994         2160.73216     18.60391  0.00223  58815.00891  3.71084  0.22072  3349911.65064  44.88164  19.52214   58855.3617    51.18709         44.402   24.93214  41.91891   53.0    0.22242  -21.47847  0.98468 
  -13.07347  0.11658  4.42522     14.03028  2.11643  1.13872   6.97302  0.04073     0.04415   8643.25072   8972.56016  4.04498         2440.39482     17.93045  0.00047   58814.4725  3.10744  0.81289  3347510.02201  44.77786  19.50696  58854.43359    51.16612       44.41469   24.13741   43.0339   63.0    0.22093  -21.49155  0.93959 
  -10.28363  0.18798   2.6395     13.83789  1.51792  1.34893   6.22722   0.0237     0.15158   9522.78197    3149.6576   0.8959         2036.83322     20.17215  0.08258  58817.26234   3.3686  1.17059  2071659.38394  45.29073  19.52325  58850.75143     51.2698       44.57946   20.89095  33.42553   81.0    0.18634  -21.48506   0.9495 
  -12.47988   0.0244  3.89578     13.95584  1.72553  0.77359   5.23219  0.04311     0.08001   8620.86683   9915.45558  3.67735         2735.80788     17.68871  0.00027  58815.06609   2.3196  0.12767  2980273.18617  44.85032  19.50247  58854.43359    51.12858       44.36785   25.98821  42.92188   64.5    0.21523  -21.48733  0.98935 
  -12.12795  0.05303   3.5105     13.88186  1.78848  1.16691    5.5726  0.03615      0.0709   6976.79047   7441.00563  2.02946         3145.59763     20.42026  0.14621  58815.41802  1.61807  0.29553  3526233.68673  44.88328  19.50858   58855.3617    51.11157       44.45681   22.17719  37.22269   82.0    0.21481   -21.5755  0.98145 
  -11.87814  0.05651  3.84047     13.93784  1.87536  1.19914   8.26348  0.02692     0.04933   8356.29462   8664.05276  3.97076         2189.95777     18.52373  0.00186  58815.66783  3.44205    0.467  3419624.86549  44.83918  19.47373  58854.43448    51.14403        44.3516   25.06914  41.78191   71.5    0.20948  -21.43016  0.96782 
  -13.46742  0.16278  3.63191     13.81937  1.66412  1.43018   4.83772  0.04544      0.0535   8586.41847   8454.03152  3.74057         2393.18769     18.75578  0.00317  58814.07855  2.12761  0.78749  4683064.83833  44.69923  19.50879  58853.49486    51.17066       44.44794   25.39439  39.27575   68.5    0.21314  -21.47697  0.94316 
  -11.89587  0.03191  3.04563     13.92547  1.60572  1.03429   4.80287  0.04129     0.04317   9270.79654   9303.44516  0.91699         2498.54149     17.40929  0.00014   58815.6501  2.46242  0.15327  1949364.28163  45.21727  19.53139  58853.65528    51.20288       44.51554   21.98177  38.01496   53.0    0.21401  -21.46481  0.99152 
  -12.59177  0.41176  3.79878     13.91561  1.76863  1.35252   3.62246   0.0682     0.10547   8335.39104    4543.9872  2.61149         2505.95096     18.47881  0.00167   58814.9542  1.50135  1.49158  3495579.84203  44.81368   19.5331  58850.75143     51.3322       44.80309   14.62367  22.98005   79.5    0.21986   -21.4631  0.89839 
  -13.31628  0.07669  3.22667     13.83691  1.60954  1.52624   4.56201  0.05477     0.21793   9215.83256   8992.48743  0.83857         2865.80476     19.70255  0.02801  58814.22969  2.31128  0.34987  3297677.48053  44.93983  19.50704  58852.52197     51.1919       44.41725   20.89095    43.871   61.5    0.20994  -21.48553  0.97852 
  -12.96126  0.44717  4.76026     14.04514  1.91001  1.41118   8.27723  0.02942     0.03325   7074.27788   5794.87496  2.38891         3086.54602     16.98599    5e-05  58814.58471  2.47102  3.70135  3264566.63254  44.68079  19.51773  58853.65528     51.1692       44.48289   24.47872   39.4246   84.5    0.23357  -21.41157  0.71833 
  -11.78434  0.45216   4.0059     14.02977  1.64257  1.15864   8.51744  0.03397     0.22825   7880.84101   4546.60717  1.84641         3074.09909     18.01901  0.00058  58815.76163   3.1556  3.85122  2133978.51384  44.94978  19.51547  58853.65528    51.13801       44.41746   24.13741  40.62455   83.0    0.24039  -21.45103  0.73567 
   -12.6492  0.30083  4.16108     14.02462  1.60021  0.87167   8.78923  0.03796     0.04764   7628.06303    3885.9812  3.29085         3085.15481     17.43556  0.00015  58814.89678  3.05075   2.6441   2296979.6883  44.87345  19.47847  58854.43448    51.19633       44.54214   22.06438  33.62424   74.5    0.23276  -21.48948  0.78146 
  -12.12002  0.09736  3.42422     13.91318  1.67242  1.18363   9.66395  0.02992     0.19999   8319.52916   3792.30325  2.51457         2573.88904      20.1003  0.06999  58815.42595  3.99006  0.94084  2715943.88697  44.98915  19.51796   58855.3617     51.1879       44.55747   21.98177  32.97337   77.0    0.23256   -21.5392  0.94096 
  -11.31351  0.42192  4.39324     13.95633  1.79555  1.41032  10.64077  0.02431      0.2274   7464.75963   3319.83202  4.73213         2930.61156      20.4854  0.16987  58816.23247  3.53697   4.4896  3934745.23414  44.64255  19.51946  58854.43359    51.18374       44.49654   22.06438   37.2045   87.0    0.25271    -21.684  0.69131 
  -12.74649  0.23636  3.65889     13.93373  1.62423  1.19713   7.37471    0.044     0.09887   8494.73945   5712.59814  3.81419         2366.04499      17.4896  0.00017  58814.79949  3.17448  1.74307  2739705.37257  44.91509  19.50463  58854.43359    51.21263       44.48372   22.98005  37.75859   77.0    0.22866  -21.46388  0.87825 
  -16.89527  0.13238  3.13001       13.826  1.54858  1.11751   4.34879   0.0624     0.06932   8104.74367   5491.90246  1.70423         2663.60447     19.70671  0.02828   58810.6507  1.70402  0.57571  3139353.24685  44.97085  19.51658  58852.52197     51.1436       44.42007   22.98005    43.871   76.0    0.20079  -21.48967   0.9651 
  -10.56717  0.38296  5.17819     14.25114  1.81241   1.2755  13.24367   0.0313     0.01567    6816.6098   4890.01839  4.87657         3206.37359     16.83539    4e-05   58816.9788   3.6709  5.07184  1419551.89056  44.94659  19.51496  58852.52197    51.24092        44.5458   22.37246  35.03809   68.5    0.23869  -21.47294  0.59622 
  -11.34518  0.36824  3.85804     14.06605  1.75001  0.69517   3.91818  0.06401     0.07584   8691.58008   7223.66582  3.07239         2693.95626     20.13378   0.0756  58816.20079  1.76567  1.44282  1784354.20324  45.08767  19.49256  58852.52197    51.17651       44.47448   22.98005  38.50893   71.5    0.23141   -21.5597  0.89666 
  -12.22654  0.11225  3.95972     13.86084  1.61648  1.55646   4.75264  0.06427     0.07043   7411.87287    3493.6253  4.88215         2917.97682     18.22467  0.00093  58815.31943  1.55746  0.53349  4467135.42694  44.63206  19.53473  58853.65528    51.28845          44.67   18.47387  29.57532   67.5    0.24264  -21.48953  0.95189 
