 texplosion  fnickel     Pspin  log(Bfield)      Mns  thetaPB  mejecta    kappa  kappagamma      vejecta  temperature    alpha  cutoff_wavelength  log(nhhost)      A_V         MJD0  kenergy  mnickel           TSD   log(L0)  Peak_mag     Peak_MJD  log(E_rad)  log(Peak_lum)  Rise_Time    E_fold  tau_1  delta_m15     r_peak     frac 
   -0.61618  0.10088   8.40939     15.00214  1.01331  1.18789   1.4891  0.18703     0.23255  11424.09865   6141.77936  4.70491         4380.75192     16.78125    3e-05  58659.59043   1.1593  0.15022   65887.02436  45.60626  16.50868  58671.81054    49.59504        43.1244   10.05405  19.35499   17.5    1.18928  -19.21917  0.90823 
   -0.76217  0.08504  10.07093     14.97845  1.02128  1.55822  1.84336  0.08704     0.06617    7506.5393   6345.65995  4.75993         4641.76218     17.56958  0.00021  58659.44443  0.61961  0.15676  106218.71455  45.24565  16.50065  58671.81054    49.57336       43.10314   10.05405  19.35499   17.0    1.09809  -19.26732  0.85961 
   -0.68493  0.11682   9.53624     14.98374   1.0771  1.49284   1.1546  0.24134     0.35902  11500.27848   6189.91725  4.95728         4354.98738     17.53569  0.00019  58659.52167  0.91091  0.13488   98029.14557  45.35099  16.50193  58671.81054     49.6028       43.13714   10.05405  19.19169   17.0    1.25019  -19.28468  0.89676 
   -0.63336   0.1704   8.38595      14.9866  1.01151   1.3758  0.93072  0.30081      0.3634  11741.54124   5985.44638   4.5025         4370.86725     17.09238    7e-05  58659.57325  0.76541   0.1586   70256.43244  45.58002  16.50068  58671.81054    49.59199       43.11823   10.05405  19.35499   17.0    1.20204  -19.20451  0.90528 
    -0.5419  0.06556   7.19968     14.99876  1.01354  1.49637  2.39804  0.10046     0.12656  10513.76624   6396.13958  3.31459         4573.78005     18.56508  0.00204  58659.66471  1.58125  0.15722   49064.18464  45.86929   16.5028  58671.81054    49.58526       43.12271   10.05405  19.19169   17.5    1.18345  -19.21967  0.93951 
   -0.65205  0.07416   7.91169      14.9695  1.01909  1.37353  2.03089  0.11736     0.14641   9894.70032   6634.10889  3.87264         4532.00324     19.99207  0.05455  58659.55456  1.18609  0.15062    68166.4468  45.64695  16.50492  58671.81054     49.5846       43.11585   10.05405  19.19169   17.5    1.16501  -19.24926  0.92025 
   -0.66081    0.063   8.66655     15.00211  1.06454  1.38943   2.2463  0.12413     0.13954  10844.04973   6368.04942  4.52348         4504.94827     16.02293    1e-05   58659.5458  1.57571  0.14152   73526.41471  45.55387   16.4912  58671.81054    49.58738       43.13122   10.05405  18.20594   17.5      1.186  -19.29311  0.91373 
   -0.67453  0.07186   8.86071     14.97778  1.02483  1.53934  2.11879  0.10332     0.10242   9192.34209   6295.59102  4.31286         4576.36296     16.80139    4e-05  58659.53208  1.06799  0.15226   82763.53421  45.46672   16.4975  58671.81054    49.58383       43.12655   10.05405  18.20594   17.5    1.12209  -19.27906  0.89704 
   -0.63534   0.1667   8.57959     14.96223  1.00528  1.55249  0.87961  0.29681     0.39097  10920.63011   6259.61254  4.75094         4353.49505     17.06482    6e-05  58659.57127  0.62577  0.14663   81767.14099  45.49162  16.51006  58671.81054     49.5903       43.12467   10.05405  19.19412   17.0    1.17715   -19.2027   0.9042 
    -0.5675   0.0981   7.88356     14.97883  1.00045  1.38046  1.62035  0.18264     0.22262  11787.51425   6094.22694   4.5842         4424.63208      19.6251  0.02343  58659.63911  1.34301  0.15896   63650.80665  45.67179   16.5038  58671.81054    49.58837       43.12226   10.05405  19.35499   18.0    1.11102  -19.23274  0.91694 
   -0.58076  0.10136    8.1284     14.98289  1.00785  1.46356  1.53587  0.17256     0.18611  10936.92971   6207.59254  4.65384          4387.8364     18.05467  0.00063  58659.62584   1.0959  0.15568   66900.89315   45.6268  16.52256  58671.81054    49.59019       43.11329   10.22465  19.18439   18.0    1.16798  -19.20602  0.91381 
   -0.66831  0.06777   8.39016      15.0018  1.06378  1.39884  2.17599  0.11725     0.14767  10910.67841    6290.5428  3.43201         4506.40295      18.5729  0.00208   58659.5383  1.54521  0.14748   68960.01337  45.60956  16.49481  58671.81054    49.61237       43.11063   10.22465  19.18439   17.0    1.22912  -19.29891  0.91724 
   -0.59469  0.10241   8.30489     14.99148  1.04976  1.55519  1.34802  0.18662     0.38824  10317.34003   6379.65023  4.11098          4504.9637     18.54392  0.00194  58659.61192  0.85597  0.13805   69922.78553  45.60665  16.52121  58671.81054    49.59949       43.11405   10.05405  19.35499   17.5    1.15566  -19.21586  0.92271 
   -0.61443  0.15217   8.33635     14.99348  1.01851  1.42149  1.08572  0.22119     0.21343  10350.72642   6106.21894  4.15484         4462.25006      16.6613    3e-05  58659.59217  0.69389  0.16521   67728.86959  45.60408   16.5227  58671.81054    49.59474       43.11072   10.22465  19.18439   18.0    1.13031  -19.20751  0.90519 
   -0.67456  0.15226   8.47531     14.98728  1.00999  1.30793  1.00034  0.23281     0.25125   9951.40775   6125.04301  3.90017         4554.94878     16.96322    5e-05  58659.53205  0.59094  0.15231   71430.35411  45.56297  16.51537  58671.81054    49.59089        43.1177   10.05405  19.19169   17.0    1.17988   -19.2807  0.90536 
   -0.67096  0.12706   8.59894     14.96903  1.03237  1.35726  1.02522  0.27417     0.49345  10954.97008   6272.95532   4.5224         4414.71696        16.46    2e-05  58659.53565  0.73395  0.13027   81748.03492  45.50131  16.52627  58671.81054    49.59143       43.10837   10.22465  20.44931   17.5     1.1908  -19.27659  0.91539 
   -0.65359  0.05143    9.0709     14.97931  1.01144  1.41243  2.99239   0.0733       0.061   9216.61055   6363.90409  4.89417         4535.45564     17.33227  0.00012  58659.55302  1.51631   0.1539   85001.58388  45.42906  16.48883  58671.81054    49.58737        43.1232   10.05405  19.19169   17.5    1.13951  -19.20546  0.88842 
   -0.69538  0.05411   9.14028     14.98381  1.03513  1.56696  2.81155  0.06947     0.06058   8525.88956   6270.53018   4.4252          4538.3278     18.35505  0.00126  58659.51123  1.21914  0.15215   86518.51885  45.42481  16.50094  58671.81054     49.5968       43.12805   10.05405  19.35499   17.0    1.11396  -19.26698  0.89135 
   -0.59518  0.08955   7.83914     14.97937  1.00328  1.55605  1.79779  0.13462     0.13089  10224.07626   6007.71283  3.84378         4531.79153     18.90833   0.0045  58659.61143  1.12102    0.161   62955.10473   45.6827  16.50794  58671.81054    49.58668       43.10933   10.22465  20.44931   17.5    1.12057   -19.2112  0.91854 
   -0.63077   0.0749   8.56047     14.99339  1.00647  1.21128  1.96325  0.13276     0.15278  10742.08467   6417.70677  4.73537         4452.85773     18.43049   0.0015  58659.57584  1.35139  0.14705   70604.39465  45.55782  16.50247  58671.81054    49.57902       43.10495   10.22465  19.18439   18.0    1.16369  -19.21884  0.90487 
   -0.70246  0.04255   9.41273     14.99424  1.06683  1.42322  3.20029  0.06459     0.08623   8952.33368   6671.63988  4.34053         4631.91083     19.45786  0.01594  58659.50415  1.52999  0.13618   90127.98246  45.39465   16.5165  58671.81054    49.60742       43.13456   10.05405  19.19169   16.5    1.16976  -19.30171  0.89856 
   -0.77616  0.05514   9.52866     14.97256  1.00078  1.38246  2.90422  0.06759     0.05321   8810.94142   6246.24838  4.46121         4654.44625     19.12399  0.00739  58659.43045  1.34493  0.16013   95743.18457  45.33001  16.51245  58671.81054    49.59094       43.12231   10.05405  19.35499   17.0    1.13047  -19.27636  0.86859 
     -0.633  0.15901   8.99952     14.96859   1.0024  1.49368  0.90212  0.22717     0.22913   8705.96641   6584.50124  4.78761         4664.87973     18.28344  0.00107  58659.57361  0.40787  0.14344   87118.86851  45.42133  16.51619  58671.81054    49.60832       43.12644   10.05405  19.19169   17.5    1.16259  -19.23557   0.8954 
   -0.68348  0.14293   9.18749     14.98996  1.04119  1.44318  1.07147  0.18052     0.17055   8597.08061   6324.08034   4.2273         4595.26814     16.93775    5e-05  58659.52313   0.4724  0.15314   85470.98984  45.42816  16.50683  58671.81054    49.61046       43.09946   10.22465  19.18439   17.0    1.13083  -19.28711  0.89036 
    -0.7341  0.10096   9.07173     14.99057  1.00162   1.1576  1.40048  0.17327     0.36718   9845.24587   6308.20503  4.86177         4542.49563     17.52419  0.00019   58659.4725  0.80976   0.1414    79940.3138   45.4514  16.50978  58671.81054    49.61678       43.16137   10.05405  18.20594   17.5    1.15005  -19.26574  0.89305 
   -0.66896  0.18859   9.01145     14.99236  1.02224  1.43901  0.86609  0.28672     0.29612  10850.15661   6071.37638  4.73432         4395.49551     17.39327  0.00014  58659.53765  0.60822  0.16334   79843.14392  45.46657  16.50936  58671.81054     49.5888       43.12247   10.22465  19.18439   17.0    1.23432  -19.27406  0.88728 
   -0.72843  0.10523   9.04142     14.97793  1.04371  1.47664  1.34556   0.1435     0.19922    8433.4355   6381.46468   3.8414         4704.89958     19.27289  0.01041  58659.47818  0.57087  0.14159   87703.10193  45.43194   16.5124  58671.81054    49.59592       43.13025   10.05405  19.19169   17.0    1.12175  -19.29235  0.90054 
   -0.59235  0.14678   8.59642     14.99898  1.00316  1.41758  1.19057  0.19592      0.1736  10519.22359   6238.53735   4.4319         4456.99922     17.98888  0.00054  58659.61426  0.78587  0.17475   69160.19373  45.56172   16.4992  58671.81054     49.5944       43.13829   10.05405  18.20594   17.5    1.16987  -19.21389  0.89193 
   -0.57939  0.13963   7.17263     14.99915  1.00739  1.51108  1.21675    0.184     0.17472  10238.02322   6056.14639  2.96823         4656.25642     18.16602  0.00081  58659.62722  0.76078  0.16989   48314.67779  45.87661  16.48622  58671.81054    49.58314       43.11781   10.05405  19.19412   17.5     1.1611  -19.21707  0.93549 
   -0.67843  0.09939   9.18526      14.9953  1.02257  1.48666  1.65764  0.08431     0.05555   6784.16228   6475.07092    4.001         4733.80805     18.04028  0.00061  58659.52818   0.4551  0.16475   81862.73702  45.43927  16.48731  58671.81054    49.59207       43.13921   10.05405  18.20594   17.0     1.1526  -19.28838  0.88209 
   -0.61304  0.05385   8.23944     14.99883  1.03446  1.34631  2.75013    0.078     0.08407   8992.80925   6236.81703  4.02972         4544.84034     16.31873    1e-05  58659.59356   1.3267   0.1481   65563.30465   45.6351  16.49794  58671.81054    49.60439       43.15345    9.02016  19.09764   18.0    1.06907  -19.20054  0.91766 
    -0.7534  0.06246  10.18474     14.99218  1.06411  1.55603  2.53318  0.08747     0.08669   9979.39448    6214.6969  4.84153         4453.38037     18.84966  0.00393  58659.45321  1.50488  0.15823   106255.1765  45.25358  16.50849  58671.81054    49.60272       43.14272   10.05405  19.19169   17.0    1.18471  -19.27028  0.86266 
   -0.63547  0.18706     9.317     14.99265  1.03794  1.51881  0.87906   0.2355     0.21138    9440.9484   6334.14482  4.73639         4513.84841     19.80607  0.03555  58659.57113  0.46739  0.16444   86546.11245  45.40922  16.50273  58671.81054    49.61008        43.1245   10.05405  19.35499   17.5    1.20634  -19.25299  0.87989 
     -0.563   0.1271   7.93237     15.00742  1.00724  1.31928  1.30591  0.17175     0.14629   9360.00937   5940.24674  4.37602         4533.58053     19.05787  0.00635   58659.6436  0.68249  0.16598   56874.01799  45.71826  16.52029  58671.81054    49.59284       43.12193   10.05405  19.35499   18.0    1.07266  -19.20739  0.91602 
   -0.61482  0.14727   2.42681     14.75259   1.0373  0.74426  2.07343  0.05392         0.5   8732.96444   7932.43406  3.57143          2218.5777     21.25614  1.00199  58659.59178  0.94328  0.30534   17725.97186  47.26607  16.51508  58671.81054    49.57919       43.11226   10.22465  19.18439   19.5    1.15653  -20.07116  0.98812 
   -0.61378  0.11675   2.66819     14.74537  1.00226  0.75612  2.42127  0.04726         0.5   9044.44067   7515.19083  4.20871         2130.99227     21.22157  0.92533  58659.59283   1.1815  0.28267   21404.07287  47.08689  16.51492  58671.81054    49.64381       43.16193   10.05405  19.19169   18.5    1.11888  -19.99895   0.9848 
   -0.65827  0.09182   9.30608      14.9923  1.01986  1.48655  1.77347  0.12934     0.11757  10467.11537   6211.11606  4.26265         4597.08412     17.66652  0.00026  58659.54834  1.15906  0.16283   84974.83696  45.41056  16.47976  58671.81054    49.57732       43.12176   10.05405  18.20594   16.5    1.26223  -19.22474  0.87905 
   -0.60888  0.04522    8.2883     14.96667  1.01916  1.43272  3.04781   0.0879         0.5  10514.92356   6192.42396  4.36182         4497.84459     18.39406  0.00138  58659.59773  2.01015  0.13781    75796.9871   45.5605  16.52728  58670.55776    50.26306       44.01479    6.18831  13.59396   18.0    1.12091  -19.21761  0.91775 
   -0.74394    0.091   9.62349      14.9882  1.06219  1.36911  1.45484  0.16522     0.27819   9716.91499   6516.96727   4.8976         4545.37315     16.58841    2e-05  58659.46267  0.81941  0.13239   96446.51431   45.3441  16.52139  58670.55776    50.20442       43.93901    7.66849  12.11379   17.5    1.14871  -19.26736   0.8946 
   -0.68426  0.15835    8.8651     14.99016  1.01626  1.17915   0.9695  0.27445      0.3726  11461.57278   6222.64921  4.47661         4385.37223     19.76457  0.03231  58659.52234  0.75974  0.15352   77599.48891  45.49062  16.50922  58671.81054    49.61953       43.10331   10.22465  19.18439   17.0    1.25363  -19.31228  0.89267 
   -0.52322  0.13224   7.81577     14.99506  1.00632  1.40098  1.19678  0.22642     0.25073  10959.97753    6216.5119  4.71768         4401.11698     17.87894  0.00042  58659.68339  0.85755  0.15826   58394.72173  45.71926  16.51546  58671.81054    49.64488       43.14357   10.83166  19.18439   18.0    1.09412  -19.20919  0.92196 
   -0.64095  0.13086   8.41866     14.96412  1.01241   1.4924  1.10044  0.24334     0.42635  10842.92515   6188.43573  4.54011         4404.41058     17.44027  0.00015  58659.56566  0.77177  0.14401   78597.48791  45.52831  16.49897  58671.81054    49.60431       43.11733   10.22465  19.18439   17.5    1.14666  -19.20292  0.91057 
   -0.66418  0.13164   8.84786     14.97134  1.01361  1.32934   1.1079  0.25158     0.33178  11344.87824   6260.43195  4.72392         4401.12378     17.28947  0.00011  58659.54243   0.8506  0.14585   84077.69732  45.45636  16.51083  58671.81054    49.59982       43.10763   10.22465  20.44931   17.5    1.21855  -19.27766  0.89797 
   -0.70306  0.08918   9.69289     15.01735  1.11915  1.41943  1.46764  0.15555     0.28155   9140.02957   6457.73766  4.99786          4520.4595     18.89162  0.00433  58659.50355  0.73138  0.13088   90137.36574  45.38992  16.50729  58670.55776    50.41904       44.21132     6.0126  11.88054   17.5    1.12079  -19.28012  0.90273 
   -0.65494  0.07274   9.34013     14.98456  1.02514  1.43272  1.99524   0.1078     0.11318   9167.24157   6285.96296  4.86132          4593.5452     16.11407    1e-05  58659.55167  1.00023  0.14513   89163.42814  45.38873  16.51598  58670.55776    50.43335       44.22387     6.0126  11.88054   17.5    1.17518   -19.2149  0.88913 
   -0.66046  0.05944   9.08036     14.97814  1.00998  1.38251  2.56407  0.07927     0.06249   8525.32353   6495.05676  4.77951         4599.00705     16.54141    2e-05  58659.54615  1.11168   0.1524   85516.22838   45.4249  16.51334  58671.81054    49.61283       43.13426   10.05405  19.35499   17.5    1.09024  -19.27926  0.88853 
   -0.67571  0.08188   8.48291     15.00104  1.05461  1.55132  1.93946   0.1328     0.14325  11409.96877   6269.53541   3.4613          4516.2043     17.38879  0.00014   58659.5309  1.50618  0.15881   70131.68936  45.58893  16.51698  58671.81054    49.60518       43.12187   10.22465  19.18439   16.5    1.27646  -19.31008  0.90907 
   -0.63959  0.13496   9.03693     15.00048  1.02996  1.33652  1.12427  0.21507     0.25755  10596.23878   6369.53534  4.31239         4525.97205     17.95331   0.0005  58659.56701  0.75301  0.15173   77930.56016  45.47792  16.51128  58671.81054    49.59409       43.12539   10.83166  19.02109   17.5     1.1901  -19.21416  0.89448 
   -0.65218  0.08283   9.63474     15.00553   1.0019  1.53809   2.3178  0.06529     0.03969   7531.34702   6315.52766  4.89851         4688.35759     19.91244  0.04541  58659.55443  0.78424  0.19198   84191.61432  45.37672  16.51774  58671.81054    49.62178       43.15607   10.05405  19.19169   17.5    1.11797  -19.26168  0.84938 
   -0.68742  0.09941   9.05889     14.98504  1.02612  1.32992  1.46278  0.16446     0.18603  10233.77666   6401.00075  4.77864          4415.0837     17.10945    7e-05  58659.51918  0.91386  0.14542   83768.87295  45.44281   16.4862  58671.81054    49.59976       43.15094    9.02016  19.09764   17.0    1.20597  -19.27157  0.89553 
   -0.60936  0.05501   8.33915     15.00012   1.0535  1.42622  2.44155  0.07056     0.07358   7028.52788   6824.37698  4.06188         4764.65106     18.89058  0.00432  58659.59725  0.71948   0.1343    67991.4437  45.61678  16.50085  58671.81054    49.60252       43.12204   10.05405  19.19412   18.0      1.044  -19.21337  0.92458 
   -0.69302  0.10381    9.1768     14.98433  1.02638  1.47648  1.52371    0.123     0.09927   8393.72437   6437.40129  4.36059         4578.12107     19.09441   0.0069  58659.51358  0.64038  0.15817   86268.76473  45.41892  16.53421  58672.06069    49.60513       43.11903   10.22465  20.44931   17.0    1.11796  -19.27965  0.88538 
   -0.53007   0.0708   7.46313     14.99554  1.02981  1.54365  2.20028  0.12264     0.13172  10752.23805   6068.34844  4.26997         4460.55147     19.71952  0.02912  58659.67654  1.51741  0.15579   54366.30773  45.80043  16.52186  58671.81054     49.6047       43.13961   10.05405  19.35499   18.0     1.0753  -19.23618  0.93412 
   -0.64706  0.05989   9.02984     14.99125  1.05817  1.54416  2.15418  0.11531     0.43804  10020.99775   6729.54482  4.74704         4592.09367     17.26008   0.0001  58659.55955  1.29042  0.12902   83410.54675  45.46082  16.51185  58671.81054    49.61187       43.15407   10.05405  18.20594   17.5    1.15592  -19.22259  0.91164 
   -0.72118  0.09615   8.93769     14.98345  1.03515  1.25835  1.44582  0.19936     0.38677  11704.05533   5948.08362  4.41234         4398.24122     18.50315  0.00177  58659.48542  1.18144  0.13902   82865.49483  45.46303  16.37029  58670.55776    49.61202       43.17024   11.57052  15.50758   17.0    1.23765  -19.27483  0.90243 
   -0.65521  0.08408   8.43754     14.98045  1.02589  1.45232  1.75098  0.14513     0.16341  10032.21433   6242.93438  4.48676         4541.07296     16.06825    1e-05  58659.55139  1.05124  0.14722   74207.74132  45.55706  16.48897  58671.81054    49.60078       43.14026   10.05405  18.20594   17.5    1.14822  -19.20185  0.91116 
   -0.64197  0.05074    8.3229     14.97126  1.00784  1.52855  2.91616  0.09077     0.12773  11196.26639   6155.97645  4.25593         4433.97995     17.21043    9e-05  58659.56464  2.18065  0.14796   74001.65843  45.56245  16.50111  58671.81054    49.59783       43.12356   10.22465  19.18439   17.0    1.20358  -19.20697  0.91147 
   -0.65857  0.10473   8.87419     14.98651  1.03943  1.39519  1.29659  0.18592     0.33433   9794.38171   6216.29803  4.79219         4492.93101     18.10915  0.00071  58659.54804  0.74197  0.13579   80881.93093  45.48153  16.39939  58670.55776    49.70205       43.32936    9.62695  14.89498   17.0    1.18851  -19.20169  0.90832 
   -0.75726  0.10129   9.04933     14.98929  1.06322  1.36512  1.43174  0.16981     0.21178   9954.15866   6109.47761   4.1148         4482.17966     19.09209  0.00687  58659.44935  0.84625  0.14502   84936.48388  45.45314  16.36523  58670.55776    49.67601       43.28656   10.53618  14.43363   17.5    1.12406   -19.2614  0.90047 
