 texplosion  fnickel    Pspin  log(Bfield)      Mns  thetaPB   mejecta    kappa  kappagamma     vejecta  temperature    alpha  cutoff_wavelength  log(nhhost)      A_V         MJD0  kenergy  mnickel           TSD   log(L0)  Peak_mag     Peak_MJD  log(E_rad)  log(Peak_lum)  Rise_Time    E_fold  tau_1  delta_m15     r_peak     frac 
   -4.39507  0.00212  0.79514     14.77864  1.70068  1.41935  15.63403  0.05245     0.22898  5718.67968   5567.87008  0.03481         2826.87019     19.58798  0.02151  58212.80415  3.04993   0.0331    2767.18061  49.25655  17.38281  58253.03906    50.43714       43.81134   13.29449  37.86057   32.5    0.22104  -20.02813  0.99999 
   -4.03052   0.0015  2.44798     14.69053  1.68322  1.48215   6.64589  0.11859     0.06532  6104.79368   4165.08655  0.11438         2437.85001     17.91955  0.00046   58213.1687  1.47748  0.00997   38950.27222  47.12686  17.37735  58252.29752     50.4258       43.80251   13.50065  37.65441   31.5    0.30664  -19.77654  0.99978 
    -4.0915  0.00232  1.43583     14.62965  1.45008   1.3295  15.21009  0.04723     0.01909  5679.85446    4492.7089  0.00915         5147.46622     19.61556  0.02292  58213.10772  2.92707  0.03534   15279.91339  47.93191  17.33482  58251.74219     50.3879       43.76119   17.90427  35.10906   31.0    0.32902  -19.74806  0.99983 
   -2.78507  0.00616  1.34103     14.82145  1.67261   1.0221   6.88988  0.11202     0.40765  5973.30311   3429.49377  0.97049         2199.78703     19.23894  0.00963  58214.41415  1.46645  0.04244    6356.19328  48.43417  17.37404  58252.29752    50.36917       43.74171   16.84559  35.80854   32.5    0.27787  -19.64228  0.99991 
   -5.15793  0.00147  2.04102     14.96303  1.81193  0.59715  12.73542  0.05429     0.03601  5539.57841   5912.93001  0.00937         2680.19807     20.16339  0.08093  58212.04129  2.33128  0.01876    8309.96926  47.98769  17.36422  58252.29752    50.46192       43.85123   12.44197  37.52232   32.5     0.2896  -19.67308  0.99979 
   -4.19288  0.00105  1.12305     14.63908  1.32591  1.09265  15.58541  0.05717     0.03825  6102.30474   4501.00142  0.06053         2483.97921     18.30748  0.00113  58213.00634  3.46205  0.01633     8183.8875   48.3776  17.36779  58252.29752    50.35735       43.72462   19.93881  34.98588   32.5    0.26489  -19.68195  0.99996 
   -4.52259  0.03679  0.71239     14.69637  1.60137  1.31413   4.33173  0.14542     0.04652  5384.99097   5893.95785  0.08453         3067.32253     20.50056  0.17591  58212.67663   0.7493  0.15937    3054.92781   49.2829  17.38142  58252.29752    50.42003       43.80096   12.44197  37.65441   32.5    0.29343  -19.84679  0.99996 
    -4.6756  0.00171  2.54198     14.76613  1.88202  1.35306  14.52057   0.0484     0.15247  5663.55144   3595.95144  0.00178         5514.22991     16.53332    2e-05  58212.52362  2.77836  0.02479   33152.41014  47.21261  17.37369  58252.29752    50.40968        43.7952   14.28784  35.80854   31.5    0.29998  -19.69891  0.99951 
   -3.17319  0.00201  1.06527     14.74873  1.56761  1.22076  10.01309   0.0861     0.38344  6053.72702   5838.38597  0.28442         3995.97387     19.66489  0.02568  58214.02603  2.18898  0.02016    5254.25625  48.68866  17.38278  58253.03906    50.40586       43.77384   15.34652  37.66681   32.0    0.27911  -19.69371  0.99998 
   -4.00371  0.00106  1.14956     14.85689  1.93069  1.38798  21.29177  0.03858     0.31682  5906.00284   4000.03903  0.02245         2071.77719     18.37298  0.00131   58213.1955  4.43023  0.02266    4579.53273  48.77267  17.37142  58252.29752    50.41918       43.77956   15.34652  37.66681   30.0    0.33008  -19.77128  0.99998 
   -4.49412  0.00141  1.16377     14.83293  1.79494  1.14319  22.38972  0.03504     0.22137  5626.49395   6041.07258  0.10586         3203.29551     17.08445    7e-05   58212.7051  4.22816  0.03153    4872.33767  48.70342  17.38644  58253.03906    50.39403       43.76025   15.34652  38.36629   32.0    0.27186  -19.74684  0.99997 
   -5.05268  0.00516  2.95832     14.67128  1.76505  1.46523   5.45581  0.12328     0.41244  5587.86853    3154.6966  0.05672         3901.59875     19.96495  0.05125  58212.14653   1.0162  0.02815   65177.71052  46.75941  17.38159  58253.03906    50.42778       43.79881   13.50065  39.43123   32.5    0.28786  -19.72378  0.99894 
   -4.05297  0.00179  1.58774     14.77012    1.761  1.54645  17.53263  0.04739     0.04716  5845.44538   3935.44177  0.13364         4935.49975     17.86401  0.00041  58213.14625  3.57363  0.03131   11881.84498  48.03816  17.36315  58252.29752    50.40663       43.78214   12.44197  39.43123   32.0    0.28294  -19.75743  0.99988 
   -3.99951  0.00111  1.35072     14.71264  1.59604  1.35298   8.89355  0.09067     0.09665   5937.2138   4386.04558   0.0995         2387.04332     18.93576  0.00479  58213.19971  1.87011  0.00987    10155.5541  48.20406  17.37286  58252.29752    50.40197       43.76801   13.50065  39.51268   30.5    0.31672  -19.79322  0.99997 
    -4.4545  0.00232   1.4025     14.70613  1.58618  1.28418   4.79957  0.16874     0.26141  5839.36398   3658.75839  0.00633         4919.30748     17.17261    8e-05  58212.74472  0.97625  0.01115   11212.59965  48.12569   17.3657  58251.74219    50.37665       43.75425   19.93881  33.77401   31.5    0.27847  -19.81165  0.99996 
   -4.34399  0.00195  1.94726     14.82937  1.74413  0.92721  16.33924  0.04668     0.45053  5927.84899   3350.28149   0.0747         2723.10793     16.65381    3e-05  58212.85523  3.42494  0.03192   13473.86551  47.80208  17.37983  58252.29752    50.41198       43.77633   14.28784  38.36629   31.0    0.29843  -19.90369  0.99971 
   -4.09767  0.01184  1.12783      14.8508  1.91488  1.56922   5.00004  0.16801     0.07961  5881.25761   4266.77495  0.04901          5153.4673     19.24774  0.00983  58213.10155  1.03167   0.0592    4496.17324  48.79365  17.37261  58252.29752    50.40406       43.76998   12.44197  40.21216   32.0    0.28393  -19.68796  0.99996 
    -4.3624  0.01142  1.67697     14.46205  1.14506  1.38477   6.85457  0.11221     0.05733  5966.82093   3666.43017  0.08736         2216.15405     18.23136  0.00095  58212.83682  1.45577   0.0783    35611.5225  47.32704  17.39677  58253.03906    50.40125       43.77043   15.34652  37.58536   31.5    0.30116  -19.80807  0.99873 
   -3.59573  0.00165  0.97276     14.69072  1.47584  1.56006  12.17406  0.06889     0.06655  5777.73889   4274.95371  0.22518         4363.64698     16.68479    3e-05  58213.60349  2.42426  0.02008    5387.92792  48.73045  17.35921  58251.74219    50.38184       43.75413   17.90427  35.80854   32.0    0.28182  -19.67547  0.99998 
   -3.72046  0.01526  0.73166     14.92497  1.79756  0.99162   8.44891  0.09346     0.15828  5851.84574   3457.21314  0.39135         2075.83655     17.79081  0.00034  58213.47876  1.72589  0.12893    1262.31216  49.69375  17.36052  58252.29752    50.38473       43.75419   15.34652  38.36629   32.0    0.29908  -19.53342  0.99998 
   -4.11538  0.00154  0.97744     14.88606  1.78452  0.97599  20.37881  0.04242     0.10796  5984.85529   4743.04397  0.10798         2714.61319     19.10356  0.00705  58213.08384  4.35425  0.03135    2675.51131  49.11278  17.37953  58252.29752     50.4164       43.79134   13.29449  37.86057   31.5      0.292  -19.67909  0.99998 
   -4.23353  0.00119  1.81081     14.81797  1.61127  0.83151  17.16792  0.04783     0.10449  5976.50625   4590.75725  0.25819         2102.83113     18.39673  0.00139  58212.96569  3.65797  0.02043   11344.75768  47.90547  17.36552  58252.29752    50.39946       43.76484   15.34652  37.66681   32.5    0.26379  -19.70165  0.99982 
   -4.42569  0.00264   1.3228     14.77676  1.76556  1.39649   8.12295  0.09442     0.19775   5746.5805   6004.68083   0.0016         4001.86448     16.49086    2e-05  58212.77352  1.60015  0.02144    8019.76845  48.36858  17.37206  58252.29752    50.39435       43.76849   14.28784  37.66681   31.5    0.28073  -19.85989  0.99996 
   -4.30046  0.00452   1.8216     14.90489  1.58469  0.62055  12.55333  0.05681     0.05346  5636.86844   3566.58483  0.07318         4727.03231     16.69528    3e-05  58212.89876  2.37937  0.05675    7566.23729    48.069  17.37284  58252.29752    50.38725       43.75493   12.44197  40.21216   31.5    0.30644  -19.69136  0.99947 
   -4.42696  0.00145  2.84488      14.5582  1.43647  1.38126  11.58076  0.06448     0.03422  5856.36704   3828.45383  0.15556         4354.69445     19.61873  0.02309  58212.77226   2.3693  0.01681   82572.85116  46.60118  17.37774  58252.29752    50.42296       43.79667   17.90427  35.02761   32.5     0.2812  -19.77616  0.99917 
   -4.58086  0.00446  1.08609     14.67675  1.51228  1.56265   7.45426  0.10738     0.27231  5687.03569   5005.46376  0.00296         4161.89898     16.10499    1e-05  58212.61836  1.43815  0.03322    7339.71454  48.51106   17.3691  58252.29752    50.41435       43.79474   14.28784  35.80854   32.0    0.27163  -19.66122  0.99996 
   -4.53579  0.00134  1.70152     14.63607  1.47273  1.22221   9.55366  0.08326     0.07467  5973.76784   5780.35939  0.08918         3041.23482     19.92033  0.04624  58212.66343  2.03373  0.01281   21157.92172  47.64982  17.37834  58253.03906    50.46472       43.85879   12.44197  37.52232   31.5    0.28686  -19.79754  0.99988 
   -4.14315  0.00297  1.33498     14.74012  1.54624  1.08812   6.20404  0.12639     0.16602  5852.05904   3743.25417  0.08967         4190.97594     16.29093    1e-05  58213.05606  1.26742  0.01841    8468.59921  48.27936  17.37014  58252.29752    50.37787       43.75234   14.28784  37.66681   32.0    0.25048  -19.70144  0.99995 
   -4.48918  0.00109  0.93039     14.84297  1.98378  1.48542  11.66013  0.06386     0.07283  5720.01473    6194.0479  0.00632         2960.99419     20.25028  0.09886  58212.71004  2.27575  0.01274    3286.20489  49.11231  17.37114  58252.29752     50.4026       43.78512   12.44197  39.43123   30.5    0.29519  -19.84143      1.0 
   -3.68522  0.00293  1.40025     14.64785  1.39156  1.20718  24.02643  0.03406     0.01949  6005.32929   3722.88748  0.24296         3021.34482     18.68126  0.00267    58213.514   5.1688   0.0704   12824.05001  48.01191   17.3732  58252.29752    50.41642        43.7899   15.34652  37.58536   32.5    0.27746  -19.69751  0.99968 
   -5.51737  0.00134   5.1422     14.55955  1.67528   1.4716   6.17734  0.09503     0.01658  5752.65924   4834.76454  0.23447         2157.59213     17.07787    7e-05  58211.68185  1.21945  0.00826  312674.13513  45.57554  17.35985  58252.29752     50.3831       43.74713   15.34652  38.36629   33.0    0.29092  -19.72724   0.9988 
   -4.03476   0.0017    2.092     14.74647  1.72619   1.2084   6.82703  0.11707     0.11483  5913.95136   3890.65872  0.04368         5524.29532     16.68106    3e-05  58213.16446  1.42434  0.01157   22546.81373  47.51173  17.37496  58252.29752    50.37734       43.75087   15.34652  35.80854   31.5    0.28167  -19.78115  0.99986 
   -4.35508  0.00118  1.34326     14.76644  1.60526  1.10018  24.21751  0.03749     0.02024  6124.29665   5513.43612  0.03831         4874.65116     16.90548    4e-05  58212.84414  5.41838  0.02865    7884.95989  48.32127  17.36337  58252.29752    50.38947        43.7624   15.34652  37.66681   32.5    0.24043     -20.07  0.99993 
    -4.5412  0.00199  2.24366     14.69575  1.69115  1.29825  12.41595  0.05654     0.13049  5695.74305   3092.55571  0.01637         4790.75784     19.83966  0.03841  58212.65802  2.40275  0.02468   32093.58789   47.2887  17.37478  58251.73047    50.35552       43.70152   17.90427  37.68091   31.5    0.29439  -19.76787  0.99957 
    -5.0109  0.00292  1.84216     14.63535  1.43264  1.07918    3.9395  0.19857     0.33045  5841.79864    3538.9808  0.06054         2408.83867       19.683  0.02678  58212.18832  0.80198  0.01149   24205.47657  47.51041  17.36411  58252.29752    50.45816        43.8424   15.34652  35.80854   32.0    0.28531  -19.66203  0.99984 
   -4.94198  0.00732  2.72717     14.65361  1.62324  1.30966   7.96949   0.0916     0.02547  5811.94755    5124.5497    2e-05         5545.23102     18.93206  0.00475  58212.25723  1.60584  0.05834   55258.36536   46.8654  17.35808  58252.29752    50.38983        43.7599   14.28784  37.66681   32.5    0.29149  -19.69667  0.99798 
   -5.09545   0.0141  2.46531     14.72505  1.90163  1.38053   4.08007  0.15544     0.04738  5528.81011   5474.94897  0.09801         2234.82988     20.31252  0.11409  58212.10376  0.74397  0.05754   38070.73505  47.18364  17.37509  58253.03906    50.40427       43.76435   17.90427  35.80854   32.5    0.29463  -19.75489  0.99888 
   -3.96799  0.00203   1.1628     14.69174  1.53577  1.50098   7.38014  0.11703      0.2284  5960.26519   4344.50449  0.25792         2522.60659     16.40856    1e-05  58213.23123  1.56395  0.01496    7973.86059  48.42249  17.37559  58252.29752    50.40169       43.76538   15.34652  38.36629   31.5    0.28348  -19.82622  0.99998 
   -4.02916  0.00107  1.93674     14.81032  1.88055  1.25857   9.28173  0.08457     0.08083  5719.80778   5009.79118  0.46576         2165.90007     16.46993    2e-05  58213.17006  1.81142  0.00996   15689.17247  47.77339  17.36245  58252.29752    50.40115       43.77613   14.28784  37.58536   32.5    0.27996  -19.74532  0.99993 
   -4.38978  0.00174  0.77136     14.81244  1.61744   1.0418  14.98407   0.0539     0.24372  5766.24135   5763.70981  0.03804         2697.74947     19.08858  0.00681  58212.80943  2.97196  0.02608    2119.68919  49.37689   17.3868  58252.29752    50.39187       43.75041   17.90427  35.80854   32.0    0.23496  -20.04935  0.99999 
   -3.38799  0.00165  0.70688     14.98234  1.75859  0.75732  29.44483  0.02658     0.06571  5684.26383   4651.02341  0.40543         2117.58641     18.50603  0.00178  58213.81123  5.67525  0.04849      885.1123  49.86832  17.38566  58253.03906    50.39982       43.76594   15.34652  38.36629   33.0    0.20134  -20.07836  0.99999 
   -4.22836  0.00125  0.96381     14.82465  1.53285  0.84909   8.87386  0.09899     0.07346  6074.42389    5426.4514  0.07576           2055.241     16.89288    4e-05  58212.97086  1.95321  0.01114     2964.7595  49.01437  17.37849  58252.29752    50.42866       43.81635   14.28784  35.80854   32.0    0.28593  -19.63071  0.99999 
   -4.30087  0.00872  1.40462     14.84605  1.70678  0.89347   5.86964  0.12482     0.08044  5611.77461   3809.23669  0.03794         4602.03894     19.65625  0.02518  58212.89834  1.10265  0.05116    6353.60189  48.40289  17.38833  58253.03906    50.46709        43.8576   12.44197  37.65441   31.5    0.30048  -19.65059  0.99986 
   -3.99645  0.00297  1.66362     14.75147  1.73842  1.47653   7.06989  0.11292     0.21546  5810.80625   4753.34455  0.23508         2447.47983     18.57498  0.00209  58213.20277  1.42401  0.02103   14032.91295  47.91974  17.38566  58252.29752     50.4185       43.79005   13.29449  39.63738   31.0    0.30484  -19.77097   0.9999 
   -3.63705  0.00289  1.39261     14.81667   1.6295  0.94148  19.34227  0.04008     0.03655  6007.25958   3678.20451  0.13246         2825.61984     17.19543    9e-05  58213.56217  4.16378  0.05593     6826.2564  48.35906  17.36603  58252.29752    50.39662       43.75398   15.34652  38.36629   31.5    0.26806   -19.7195  0.99984 
   -4.69354  0.00152  0.82632     14.79578  1.83602   1.3687  11.77355  0.06346     0.16163  5641.43592   5844.94203  0.00421         5657.85803     20.29638  0.10993  58212.50568  2.23519  0.01792    2981.46839    49.224  17.37402  58253.03906    50.42055       43.80201   12.44197  39.43123   31.0    0.28991  -19.67073      1.0 
   -4.09429  0.00146  1.05502     14.89311  1.82015  0.96836   7.86801  0.09652     0.21955  5351.23385   4664.01606   0.1365         5562.23387     17.80696  0.00036  58213.10492    1.344  0.01151    3077.70524   48.9942  17.38298  58252.29752    50.40255       43.77872   12.44197  39.43123   32.0    0.30316  -19.67807  0.99999 
    -5.1109  0.00435  3.32389     14.70259  1.76457   1.1745   7.91691  0.07979     0.08322  5550.48743   3306.27232  0.09485         2277.95062     16.38987    1e-05  58212.08832  1.45494  0.03448   71215.08487  46.61962  17.38705  58252.29752    50.40314       43.76712   15.34652  37.66681   32.5    0.30543  -19.68804  0.99827 
   -4.32181  0.00213  1.80916     14.92043  1.87365  0.81936   5.54451  0.12844     0.05146  5418.46098   5230.44627  0.09245         5440.44559     17.58476  0.00021  58212.87741  0.97105  0.01182    8214.95862  48.11198  17.38076  58252.29752    50.42184       43.79756   13.29449  37.86057   31.5    0.26421  -20.00315  0.99993 
   -5.07048  0.00254  2.62271     14.76096  1.91309  1.25039  12.33086  0.05667     0.02132  5705.09257   4015.34555  0.09473         2682.19869      20.0406    0.061  58212.12874  2.39412  0.03126   36739.05758  47.14795  17.35809  58252.29752    50.41655       43.80437   14.28784  35.80854   32.0    0.28483  -19.72104   0.9993 
    -3.6252  0.00135  1.22146     14.87884  1.79044  0.96163   9.84616  0.08296     0.18428  5794.44526   5585.69578  0.11825         2843.27145     16.17673    1e-05  58213.57402  1.97205  0.01326    4333.60318   48.7112  17.37045  58252.29752    50.39206       43.76029   15.34652  38.36629   31.0    0.30204   -19.6726  0.99998 
   -4.50618  0.00142  3.19692     14.77185  1.45781   0.6104   6.07698  0.11141     0.04429   5856.1375   4334.41791  0.00328         3162.20155     19.82466   0.0371  58212.69304  1.24319  0.00863   39562.03275   46.8258  17.36718  58252.29752    50.41367       43.78656   15.34652  37.58536   31.5    0.28905  -19.76761  0.99944 
   -3.37052  0.00542  1.20334     14.83217  1.83819  1.40801   8.54329  0.09984     0.07308  6006.36161   4801.31612  0.46174          2517.4214      18.1038  0.00071   58213.8287  1.83855   0.0463     5353.6779   48.6438  17.35902  58251.74219    50.41588       43.79762   15.34652  35.80854   34.0    0.31985  -20.11518  0.99995 
   -4.23951   0.0054  1.49288     14.74199  1.66969  1.32743   9.40812   0.0861     0.14874  5868.32528   5360.29711  0.00533         2343.68069     19.27192  0.01039  58212.95971  1.93267  0.05084   11337.63346  48.08891  17.39318  58252.29752    50.38611       43.75584   14.28784  38.36629   32.0    0.27287  -19.66179  0.99982 
   -4.27344  0.00178   1.6053     14.79282  1.71315  1.07784   6.91221  0.11869     0.33451  5875.63127   3699.97959  0.09064         3065.63199     16.59925    2e-05  58212.92578  1.42349  0.01233   10643.39784  48.06445  17.36815  58252.29752    50.42285       43.81169   12.23582  37.86057   32.0    0.28213  -19.66894  0.99994 
   -4.14431   0.0065  1.35911     14.72378  1.51524  1.04914   9.27557  0.07763     0.11607   5609.1195   3534.97115  0.08618         2795.70133     18.33044  0.00119  58213.05491  1.74083  0.06025    9273.45424  48.21558  17.38579  58252.29752    50.43158       43.80069   13.50065  39.43123   32.5    0.23903  -19.69203   0.9998 
   -4.61075  0.00508  2.32513     14.69013  1.69655  1.54352   7.68832  0.09338     0.16878   5660.1259    3388.5519  0.21794         2146.55423     16.28654    1e-05  58212.58847   1.4693  0.03908   35481.80192  47.21551  17.39448  58252.29752    50.38866       43.76473   12.44197  39.43123   32.0    0.29411  -19.71501  0.99926 
   -4.06135  0.00109  4.02099     14.79151  1.87997  0.95262   5.25575  0.12157     0.05099  5705.17835   3998.73331  0.30076         2809.30042     16.31601    1e-05  58213.13787  1.02047  0.00574   73725.87712  46.46671  17.39619  58253.03906    50.41459       43.77233   13.50065  39.43123   32.0    0.29057  -19.74883   0.9996 
   -4.08539  0.00139   0.9085      14.9044  1.93947  1.20372  29.64414   0.0269     0.02839   5844.3461   5611.33759  0.07186         3295.90918     16.37373    1e-05  58213.11383  6.04001  0.04107    2308.57534  49.27653  17.38854  58252.29752    50.39281       43.76692   14.28784  37.59273   31.0    0.29426  -19.65945  0.99999 
