 log(Bfield)      Mns     Pspin  cutoff_power  cutoff_wavelength  fnickel    kappa  kappagamma   mejecta  log(nhhost)  temperature  texplosion  thetaPB      vejecta      A_V        MJD_0   log(KE)      M_Ni  Peak_mag     Peak_MJD 
    14.11616  1.89018  28.25954        3.4757         5072.78802  0.48609  0.02297     0.26145  65.11163     20.13297   7894.27189    -92.1057  0.53674   3696.13634  0.07546  56143.33424   51.8833  45.59291  18.63709  56251.79268 
    13.02956  1.61403   2.52343       2.69926         2318.14611  0.36023  0.05912     0.05931  89.30505     20.52096   5764.66983  -112.46183  1.14664   24770.1236  0.18437  56122.97811  53.55632  35.43346  18.99395  56226.72702 
    12.00002  1.42192  25.55354       3.73005         2914.54196  0.33903  0.02787     0.44057   52.8291     19.68755   8523.77276   -57.33767   1.4575  20783.77209  0.02706  56178.10227  53.36903  30.77428   19.0084  56229.23358 
     14.4622   1.7237    29.731       4.93431         3283.29398  0.37483  0.03118     0.03472  81.63009     20.29783   5535.09501  -110.90484  0.41116   7642.08311  0.11029   56124.5351  52.52911  36.38255  18.66404  56235.56006 
    12.28032  1.49373  29.74354       3.69499         3299.24194  0.38245  0.01945     0.47953  62.26463     19.84692   8222.80515   -86.40795  1.27105  11245.60684  0.03905  56149.03199  52.84677  35.62459  18.57252  56249.28612 
    14.85469  1.81227  27.21442       4.59174         2643.33041  0.38894  0.02891     0.02493  53.55432     16.66635   6284.28777   -81.25596  0.20554  10274.55821    3e-05  56154.18398  52.75805  35.38174  18.53795  56196.64822 
    14.50762  1.88967  22.40577       4.60655         2512.64956  0.46426  0.04271     0.01198  89.39067     17.40033   8815.68142   -152.9916  0.30493  12303.77753  0.00014  56082.44834   52.9486  45.67336  18.78709  56226.72702 
    14.65316  1.52007   0.89094       4.72149         5374.97708  0.30336  0.32026       0.117  59.09918     21.27182   8002.89383   -78.17429  0.04645   17264.6105  1.03884  56157.26565  53.21558  28.02818  18.55734  56189.12852 
    13.81548  1.48818   28.7341       4.85813         3122.04719  0.43756  0.03497     0.09064  90.25635     19.81449   9695.26626  -157.53595  0.67757   8958.40206  0.03624  56077.90399   52.6736  43.10691  18.76988  56221.71388 
    15.11551  1.82746  19.66639       0.04697         3935.50354  0.38171  0.04163     0.02552  59.98476     19.09163   8626.71266   -46.68138  0.09956  17836.95246  0.00686  56188.75856  53.24492  35.34985  18.95676  56246.77955 
    13.98709  1.59666   3.55694        4.7316         3682.58065  0.36039  0.12911     0.11195  66.20301     18.35318    3074.1886   -86.11266  1.14724  24913.21388  0.00125  56149.32728  53.54178  33.88918  18.67063  56261.81895 
    13.66721  1.86114   1.19931       0.46861         3040.39948  0.35341  0.10293     0.01056  38.94759     16.31273   6108.60821  -190.75196  1.34287   8115.28422    1e-05  56044.68798  52.53056  30.52175  18.67514  56226.72702 
    13.10811  2.12095  10.90977       1.39747         2437.12378  0.27551  0.02273     0.04053  62.88194     20.19194   5538.84709   -24.23207  0.69824  29426.68904  0.08643  56211.20787  53.68295   25.7022  18.95715  56219.20732 
     14.7531  1.70432   2.79156       0.53824          3778.4039   0.4591  0.03439     0.01566  67.31377     16.67718    5825.4992  -153.94284  0.39941   6178.13056    3e-05   56081.4971  52.33174  43.28221  18.60572  56201.66135 
    14.38666  1.81362   2.84989       0.27105         3448.30309  0.29791  0.07095     0.02796   89.2925     18.01667   7411.39726   -70.75019  1.49814   16425.1585  0.00058  56164.68975  53.19947  29.30353  18.64063  56259.31238 
    14.42738  2.08116   15.6021       3.94596           2320.082  0.44188  0.01722     0.01005  56.15649      17.4203   6240.52679  -110.55759  0.36095   6183.04215  0.00015  56124.88235  52.32019  40.50032  18.78405  56246.77955 
    15.14971  1.90835  16.33564       2.68127         3382.13856  0.34097  0.04664      0.2423  98.38859     17.17954    5286.2176  -130.13515   1.3985   9350.47235    8e-05  56105.30479  52.71627  34.01676  18.74797  56241.76642 
    14.77413  1.72611   22.2448       0.56058         2176.79703  0.41719  0.03075      0.0226  97.11574     17.83955   8734.70871  -109.06491  1.39914   4106.16432  0.00038  56126.37503  52.00066  41.54206  18.79226  56234.24672 
    13.17571  1.57036  28.99245       2.08598         5317.78912  0.32047  0.01298     0.16317  77.79925     19.68617   6359.05781   -68.72874  1.40435   23307.2353  0.02697   56166.7112  53.49455  30.88365  18.69409  56244.27298 
    14.90988  2.05988  29.70401       2.22885         5041.27141  0.42583  0.05119     0.06302  85.90056     16.73166   8778.20359  -118.85074  1.07626   8538.87302    3e-05   56116.5892  52.62878  41.64748  18.70513  56214.19418 
    12.38254  2.00837   7.98192       3.36191         2812.41937  0.47882  0.04517     0.08243  57.43135     19.01359   3458.58679   -76.10446  0.37916   8293.84987  0.00573  56159.33548  52.57683  44.04188  18.30885  56209.18105 
    14.58122   2.0331  11.66855       4.19134          2726.9002  0.28981  0.01408     0.28115  76.39181      16.6184    9802.9632  -110.40775   0.7474   5039.03419    2e-05  56125.03219  52.16307  27.85272  18.60818  56224.22045 
    13.57833  1.69444   2.08526         2.804         4371.91589  0.32528  0.18977     0.15271  69.94762     19.45707   8347.97354   -74.09107  0.46104  33373.33674  0.01591  56161.34887  53.79938   30.8466  18.53376  56201.66135 
      13.399  2.03104   4.61477       4.92921         2390.44441  0.38129  0.05355     0.02806   88.9669      18.2207   6564.39418  -149.88973  1.30765   5428.75428  0.00092  56085.55021  52.23762  37.48469  18.19737  56306.93715 
    15.13856   1.9453   8.53528       4.97971         2586.86071  0.30899  0.05633     0.09976   78.4523     16.09269   5863.83483   -63.43926  0.11042  23268.44211    1e-05  56172.00068  53.49365  29.81423  18.88728  56241.76642 
    13.54848  1.59286  20.44775        4.0413         2207.45171  0.39889  0.01167     0.11539  59.13824     16.91246   6587.74236   -87.32976  0.01893  15887.11224    5e-05  56148.11019   53.1434  36.85856  18.62529  56171.58255 
     12.4277  1.61351  19.15761       1.33501         2206.51895  0.44765  0.09964     0.06742   81.5229     20.22525   6715.07381  -120.17654  1.57027  25154.03903  0.09332   56115.2634  53.56382  43.44232  18.09522  56189.12852 
    14.80874  1.96562  11.32944       1.75244         5192.40127  0.31938  0.04166     0.15128  94.01839     16.65216   5543.44353   -88.06506  1.34767   25380.4051    2e-05  56147.37488  53.58073  31.65347   18.8191  56224.22045 
    14.76187  1.87747   7.30266       2.56387          2358.6276  0.32175  0.05726     0.21251  86.67487      17.3817   9445.99095  -100.65134  0.73626  14445.93218  0.00013   56134.7886  53.08604  31.50943  18.78049  56239.25985 
     12.2444  1.92094   4.80802       4.44181         2721.14181  0.38472  0.04787     0.11818   62.7394     16.23015    9504.0443   -29.51363  0.13576  28598.80933    1e-05  56205.92631  53.65801  35.87805  18.47285  56176.59568 
    12.20764  2.13176   5.17277       1.03587          5720.7329  0.49518  0.10462     0.12558  72.35604     16.63584    6141.9592   -67.65532  0.53835  31591.34572    2e-05  56167.78462  53.75395  47.20057  18.69377  56276.85835 
    13.80081  1.61889  15.66058       3.99368         2907.48419  0.28764  0.05387     0.16496    92.606     17.77291    3442.3791   -84.00716  0.77936  23483.74862  0.00033  56151.43278  53.51231  28.44399  18.31297  56194.14165 
    12.81872  1.60173  22.71617       0.46942         3423.17006  0.42568   0.0262      0.0675  90.58971     17.37349    7112.2686   -129.4559   0.8502  17277.94615  0.00013  56105.98404  53.24436  41.95998  18.00384  56186.62195 
    14.54859  1.86069   6.14544       3.63916           4318.942  0.43171  0.09027     0.02226   93.6343     16.72049   5504.27475   -76.03679  1.56446  22406.98771    3e-05  56159.40315  53.47224  42.76072  18.48061  56264.32552 
    13.83868  1.70911   5.85572       3.54192          3737.7996  0.36894  0.01765     0.02262  54.01639     17.30186   3996.74108    -90.2179  1.12799  15049.18568  0.00011  56145.22205  53.09014  33.60788   18.8452  56241.76642 
    13.16191  1.44979  29.98949       4.40596         2064.96473  0.38275  0.01199     0.46247  79.67967     19.84658   4608.27497  -134.01823  0.75985   3949.56407  0.03902  56101.42172  51.95422  37.01755  18.92176  56216.70075 
    14.26115  2.08987  14.19991       1.88351         3023.35451  0.27281  0.03644     0.12647  59.79729     17.52777   3630.18806   -38.14546  1.21925  26307.14081  0.00019  56197.29448  53.58221  25.25203  18.92446  56216.70075 
    13.75156  1.80586   3.04493       0.71513         5510.02423  0.44304  0.13499     0.05959  60.32613     17.24279    7062.6283  -127.29172  0.84121  26022.37006   0.0001  56108.14822  53.57336  41.06541  18.77018  56264.32552 
    13.79016  1.68865   3.02956        3.5273         3096.26613  0.39677  0.07842     0.05208  62.88033     20.75097   7716.33284  -104.39455  1.53979  21786.66949  0.31311  56131.04539  53.42185  37.01493  18.96533  56271.84522 
    14.87463  1.86953  11.36752       1.16483         4335.63472  0.42429  0.01524     0.01059  81.48612     18.17292   4691.75336   -163.7847  0.17938   4095.54937  0.00083  56071.65524   51.9872  41.17242  17.95815  56166.56942 
     13.3247  1.59503   5.79774       1.01112         5872.24642  0.33881  0.01611     0.05822  92.37631     19.27068   5390.47204  -114.46618  1.35813   3054.26289  0.01036  56120.97376  51.74043  33.49215  18.86673  56279.36492 
    13.19182  1.60592   1.98752       2.67449         2162.70657  0.33221  0.15479     0.41021  65.60722     16.02135   7308.91119   -98.41012  0.71031  35354.94074    1e-05  56137.02982  53.84521  31.19573  18.66115  56216.70075 
    14.93206  1.60181  26.82293       2.04028          5290.2167  0.49607   0.1117     0.05554   93.1552     16.47267   3922.24786   -92.68084  0.10199  35024.87958    2e-05   56142.7591   53.8599  49.09834  18.75211  56229.23358 
    14.59778  1.75315  27.27091       1.82334         3333.07322  0.40771  0.07239     0.07474  94.75083     18.62677   5904.85687  -122.52855  0.65923  10048.83218  0.00235  56112.91139  52.77646  40.45319  18.81173  56234.24672 
    15.17052  1.88601  10.02096       1.13917         2297.36125  0.47559  0.11191     0.11945  78.24581     16.57888   7907.81559   -88.75329  1.19348  36752.63508    2e-05  56146.68665  53.89052  45.87218  18.43035  56196.64822 
     12.5647  1.97738  25.69435       0.89238         4074.79696  0.47424  0.06634     0.18007  60.33911     20.13729    7289.2908    -73.6108  0.63327  19111.02385  0.07621  56161.82914  53.30525  43.95932  18.19982  56189.12852 
    13.23556  1.75359   6.25619       3.35916          2970.2887  0.47014  0.11504      0.3041  90.28897     17.97019   4467.78653   -98.72137  0.39048  23243.23228  0.00052  56136.71857  53.50176   46.3198  18.64027  56279.36492 
    12.13857  1.74332   8.38883       4.58502         3996.88285  0.34424  0.02163     0.26854   66.2296     17.49348   8756.32948   -50.00638  0.60924    7331.5509  0.00017  56185.43356  52.47934  32.37313  18.96879  56235.43994 
    13.98881  1.47046   7.71116       0.33793          4205.2649  0.45224  0.07487     0.12073  78.55407     20.27336   4237.72701  -107.07723  1.33866  26500.47892  0.10425  56128.36271   53.6067  43.64511  18.49151  56246.77955 
    13.96429  1.53617   1.61936        0.3372         4735.54276   0.4097  0.12236     0.06488  68.59347     18.02711   3097.27271  -177.18133  0.84242    6729.1971  0.00059  56058.25861  52.40721  38.73673    18.735  56274.35178 
    12.03049  1.77753  11.24686       2.84409         4240.84498  0.37008  0.04074     0.01753  69.32674     18.31528   3414.01997    -89.5852  0.84318  14944.52186  0.00115  56145.85474  53.10095  35.04709  18.60899  56184.11538 
    13.20645  2.00595  25.19356        0.2066          2139.7424  0.45585  0.05429     0.06404  73.95446     16.31648   4096.90791  -137.49254  1.07811     7926.158    1e-05   56097.9474  52.55438  43.59559  18.72936  56221.71388 
    14.46734  1.80194  18.19919       2.86158         2663.11438  0.39977  0.03108     0.01584  81.49455     17.60794   5660.38066  -106.86624  1.32714  19805.44383  0.00023  56128.57371  53.35615  38.79429  18.65384  56221.71388 
    14.37472  1.78005  22.03745       0.01694          4458.4283  0.36793  0.03044     0.41076  85.14076     18.08182   4481.16096  -115.36684  1.42289  17817.76306  0.00067   56120.0731  53.26711  35.93702  18.80539  56274.35178 
    15.15838   1.5834  28.44187       0.91353         4013.84878  0.47162  0.08008     0.03425  78.79776     18.50981   3906.26897  -103.11461  0.59175   25422.2542   0.0018  56132.32533  53.57083  45.53646  18.55201  56211.68762 
    14.01575  2.02499  11.77677       1.51558         4963.21483  0.35321  0.02209     0.10192  98.83836     19.16987     4034.145  -115.16307  0.00055  16209.87576  0.00821  56120.27687  53.19445   35.2617  18.02832  56296.91088 
    13.18897  1.68515   8.40901       1.52911         4278.80112  0.38498  0.03646     0.01285  83.33078     16.87259   8037.84695  -118.71065  0.49198  13505.42703    4e-05  56116.72929  53.02504   37.4828  18.38574  56259.31238 
    13.57706  1.50053  14.02671       4.98495         3968.75948  0.34634  0.06888     0.08625  83.64805     16.71255   4900.24059   -68.46403  1.52384  34976.10498    3e-05  56166.97591  53.85181  33.73961  19.01796  56219.20732 
    12.60033  1.51319  12.66992       2.67096         2235.60217  0.34118  0.01998      0.1516  76.09867     20.17397   4392.70168  -173.62542  0.18514  12167.12236  0.08293  56061.81452   52.9285  32.77074  18.99478  56239.25985 
    14.58438  1.80867   4.72442       3.07348         5025.67916  0.44196  0.03761     0.05615  26.66078     17.15773   7421.37028   -79.85325  0.24377   8123.79208    8e-05  56155.58669  52.50299  35.74666  18.76717  56266.83208 
    13.61012  2.02885   3.24384       2.97935         5123.39603  0.24649  0.04392     0.06712   58.3701     20.64922   9840.67763    -82.3319  1.40608  29453.26868  0.24771  56153.10804  53.67869  22.72999  18.24738  56299.41745 
    15.06259  1.64474   8.31954       0.26006         3286.43399  0.33426  0.06192     0.01106  94.68678     19.66062   4532.69863   -48.73991   0.0238  33768.86743  0.02543  56186.70003  53.82922   33.1616  18.70145  56219.20732 
    12.61869   1.6756  19.08651       3.70406         3659.92013  0.37297  0.03744     0.01408  91.62537     18.42763   3972.71933  -148.01468  0.99162   4361.64261  0.00149  56087.42526   52.0494  36.82568  18.80493  56241.76642 
    12.77995  1.75506  15.97959       3.93485          2628.1723  0.48932  0.01128     0.40902  50.52994     17.50056   9714.39535  -101.44972  0.15299   7700.21863  0.00018  56133.99022  52.50349  44.10172  18.74837  56231.74015 
    14.64941  1.77246  25.07234       2.06252         2094.33167  0.46213   0.0127     0.10706  52.19361     19.30563   5906.31214   -95.49623  0.10701   5955.01556  0.01123  56139.94371  52.28251  41.86777  18.46288  56266.83208 
    14.64592  1.60651  16.79599        2.7536         3448.22033  0.32481  0.01353     0.32663  95.83798     19.03371   4870.33083  -104.77665  0.41207   2308.75439    0.006  56130.66329   51.4997  32.28158  18.64618  56246.77955 
    14.14699  1.93385   6.71546       4.54794         3412.86551   0.2192  0.01342     0.01571  53.70309     17.64104   9907.00844    -32.6582  0.36949  11053.34966  0.00024  56202.78174   52.8217  19.94889  18.98151  56221.71388 
    14.66797  1.78286  23.86358       3.49092         5252.19627  0.46576  0.07792     0.02906  94.89059     17.04861   5224.27599   -84.53579  0.43944  39044.49902    6e-05  56150.90416  53.95544  46.22313  18.66949  56284.37805 
    13.30344  1.66488    11.063       3.96459         2332.23751  0.38334  0.03495      0.0113  94.38271     19.58451   7165.83135    -80.3443  1.06144   6518.64699  0.02134  56155.09564   52.4003  38.01325  18.74203  56235.56006 
    14.88455  1.15744  19.70291       2.15845         3543.99892  0.27067  0.01108     0.18802  88.34135     18.43971    6790.0965   -49.58812  1.23116   5433.97787  0.00153  56185.85182  52.23801  26.58204  18.62899  56221.71388 
     13.5163   1.4092  14.50259       1.96208         3942.10342  0.46824  0.04455     0.17941  96.93401     17.54142   9451.40301  -117.89512  1.04492   3896.77634  0.00019  56117.54482  51.95508  46.61279  18.66394  56219.20732 
    13.37602  1.67205  12.05961       4.14392         3339.16505  0.36481  0.01862     0.18965  91.12144     19.81307   6951.90387  -130.85441  0.63204   2394.01582  0.03612  56104.58553    51.528  35.99001  18.97937  56251.79268 
     13.4237  1.69612  11.65978       2.32665         4546.11281  0.42384  0.06962     0.01844  82.95599     19.30628   8290.25078  -101.16285  0.21711  19069.19328  0.01125  56134.27709  53.32439  41.23824  18.55501  56244.27298 
    12.56575  1.34395   7.85233       4.05724         2072.79322  0.33741  0.05972     0.04091  81.15751     18.80836   5476.25344   -97.11138  0.33864  17870.83204  0.00357  56138.32857   53.2666  32.72179  16.53436  56176.59568 
    14.99867  1.59574   5.11483       3.86025          3221.1787  0.27014  0.04029     0.04392  26.95826      16.8666   8982.60503   -28.70615  0.38703  22808.20557    4e-05  56206.73379  53.40052  21.89253  18.98356  56235.43994 
    14.03056   1.7591   1.06287       4.82021          3445.2757  0.40972  0.02495     0.19541  14.43216     16.09788   9336.48116   -78.54334  1.48472   9270.80432    1e-05   56156.8966  52.56723  29.50228  18.94228  56221.71388 
    14.14226  1.68811  15.56182       1.88954         3915.02813  0.48359  0.09603     0.28678   79.2797     18.57941   9313.45996   -90.18097  0.69703  35310.64595  0.00211  56145.25897   53.8566  46.73533   18.8986  56261.81895 
    14.82288  1.60791  10.52708       1.70332         2609.54921  0.33303  0.02852     0.48322   65.4749     18.64952   3542.37672    -74.0037  0.86239   19218.5217  0.00248  56161.43624  53.31562  31.26297  19.01714  56216.70075 
    14.77381  1.75124  13.09671       4.16825         4020.80008  0.41636  0.03141     0.02453  56.44649     19.80889   8835.09033   -71.18892  0.61246  20724.80206  0.03578  56164.25103  53.37112  38.19254  18.49832  56256.80582 
    12.09702   2.0635    3.1938       3.35455         4953.57513  0.27787  0.03479     0.34011  98.41065     20.35608   8068.52993   -58.65271  0.45084  30853.00321  0.12613  56176.78723  53.75321  27.72236  18.93669  56246.77955 
    14.21642   1.4816    5.1714       1.23303         5250.45011  0.46306  0.06867     0.48565  87.30745     18.77161   7879.74937  -137.32141  1.21774  13074.32857  0.00328  56098.11853  52.99986  45.39676  18.76667  56239.25985 
    13.62507  1.63057   0.87869       2.12678         2743.82075  0.40303  0.21939     0.14062  35.52542     20.81862   9588.66346    -68.4454  0.07901  18515.87348  0.36589  56166.99454   53.2403  34.27095  18.56815  56189.12852 
    14.69471  1.30839  29.43672       0.90998         2004.65569  0.44495  0.09229     0.49069  81.54373     19.92484   5046.51483   -92.98766  0.71657  18393.95118  0.04673  56142.45228  53.29197  43.18256  18.91679  56199.15478 
    14.75018   1.7951   4.91822       0.13151         2665.16941  0.44705   0.0274      0.0126  89.29074     20.32609   6736.56104  -182.23107  0.08679   7492.13889  0.11771  56053.20887  52.51767  43.97242   18.5079  56204.16792 
    13.45947  1.28422  29.79399       3.21962         4611.32772   0.3881   0.0238     0.45805  74.56114      18.1387   6638.36895   -93.32845  0.03688  18899.31076  0.00076  56142.11149  53.30968  37.16263  18.90745  56226.72702 
