 log(Bfield)      Mns     Pspin  cutoff_power  cutoff_wavelength  fnickel    kappa  kappagamma   mejecta  log(nhhost)  temperature  texplosion  thetaPB      vejecta      A_V        MJD_0   log(KE)      M_Ni  Peak_mag     Peak_MJD 
    13.71611  1.75382   1.11054       0.31406         5916.97465  0.02733  0.20029     0.07746  33.42853     17.71934   3631.57236   -48.77694   1.5446   4837.79153  0.00029  58905.45306  52.06999   2.30017  19.70785  59030.89292 
    14.15882  1.87243   7.76382       4.26991         3025.36347  0.46389  0.01165     0.04671  42.06036     17.60639   7064.07385   -26.05784  0.96409   3132.96521  0.00022  58928.17216  51.70942  40.57854  19.78749  59014.29758 
    13.61142  1.92932   2.04806       0.13236         5943.52444  0.07552  0.06113     0.32126  40.09245     19.83171   3106.07739   -58.68111  1.25984   3857.73708  0.03771  58895.54889  51.88672   6.55365  19.76544     59011.24 
    14.57916  1.93676  25.10096       4.35683         2859.58007  0.46729  0.01021     0.01476    51.652     19.01074   8539.88712   -23.07732  1.26656   3439.50382  0.00569  58931.15268  51.80501  42.26441  19.84202  59013.28729 
     14.0776  1.48143    2.2737       0.18192         5779.75626  0.31648  0.02405     0.18168  92.05842     20.35859   8973.79127   -91.78943  0.08774   4793.52514  0.12686  58862.44057  52.13171   31.2696  19.75529  59024.25478 
    13.24428  1.69824   9.13097       4.73788         2812.86796  0.48831  0.01022     0.22193  47.06858     16.56996   9292.12324   -15.55719  1.16876   4315.19596    2e-05  58938.67281  51.99552   43.5098  19.80671     59024.22 
    14.98873  1.84458  13.09899       4.70885          2707.8603  0.48678  0.01391     0.01534  49.32861     18.22311   9015.47533   -19.32973  0.68436    4218.2132  0.00093  58934.90027  51.97906  43.70352  19.78197  59013.28729 
    12.57688  1.62571   6.49494       4.58431         2881.55068  0.48838   0.0116     0.02869   48.4921     16.26342   8596.19814   -20.49497  1.29125    3838.7182    1e-05  58933.73503  51.89598  43.72635  19.92232  59007.26726 
    13.63822  1.81543  23.16585       3.44415          2810.1078  0.39859  0.01085     0.03377  62.55694     17.93658    9614.1125   -20.68029  0.15978   4643.53448  0.00048  58933.54971  52.07881  37.15488   19.8103  59014.29758 
    13.57521   1.5971  15.44958       4.25257         2665.69516  0.49291  0.01008     0.02959  50.69531     18.69758   9030.27984    -18.7074  1.16198   3868.41817  0.00277   58935.5226  51.90578  44.44819  19.56323  58987.74503 
     12.6004    1.737   4.08032       2.85511         2972.94393  0.46391   0.0117     0.01392  48.75711     16.27793   6682.37725   -25.54651  1.56792   3687.92675    1e-05  58928.68349  51.86156  41.57199  19.77721  59009.32384 
      13.657  1.80228    3.4961        3.3573         2147.35025  0.47978  0.01768     0.04202    28.866     16.92658   5543.82823   -29.87606  1.42529   3854.09375    5e-05  58924.35394  51.86145  39.35705  19.81252  59005.26364 
    13.75582  1.97847   2.86786        2.1821         2821.58991  0.04375  0.01049     0.05567  38.84121     19.96245   5051.80689   -26.88776  0.71354   3532.89775  0.05095  58927.34224  51.80802   3.77652  19.85614     59018.23 
     13.8151  1.90896   2.93289       3.38412         2748.57928  0.10848  0.02619     0.05758   22.5857     19.82331   3213.55414   -31.08989  0.63397   3328.08437  0.03699  58923.14011  51.71479   8.51343  19.84216     59011.24 
    13.18654  1.93588   2.41543       1.95569         2760.70168  0.49745  0.04056     0.07904    8.4415      20.2041   5376.61736    -14.3125  1.56101  11435.23506  0.08888   58939.9175  52.69999  31.96103  19.83218      59014.2 
    14.80902  1.86508   7.44529       4.00654         2492.33016  0.48929  0.01052     0.03169  49.14603     16.06628   7937.83871   -19.22381  0.90586   4209.76658    1e-05  58935.00619  51.97706  43.90249  19.91992  59013.28729 
    13.04917  1.48007  25.12166       3.37466         2911.63397  0.46996  0.01068     0.16326  52.98488     16.28538   8574.14504   -22.62652  0.71354   3853.20952    1e-05  58931.60348  51.90543  42.67923  19.84587  59009.32384 
    12.31451  1.83051  15.99839       4.40746         2807.68594  0.46231  0.01061     0.03938  53.91086     18.61779   7407.84017   -17.80603  0.43645   4194.36379   0.0023  58936.42397  51.98031   42.1002  19.87556     59011.24 
    12.46078  1.98502  12.77132       0.01301         4594.67337  0.44304  0.01148     0.08227  57.60672     17.11425   9703.52922   -16.33163  0.87966  12763.09255    7e-05  58937.89837  52.95144  40.77062    19.901  59020.93571 
    13.63358  1.67345   3.09105       4.41039         2543.73198  0.26999  0.01509     0.01744  39.68734     18.46384   5713.80853   -42.10349  0.92607   2802.52725  0.00162  58912.12651  51.60842  23.39039   19.7963     59011.24 
    13.82799  1.93317   1.87978       2.14701         2227.64566   0.0663   0.1629      0.0209  24.75337     18.73453   3077.56044   -58.58799  0.79717   3941.22972  0.00301  58895.64201  51.86894   5.29164  19.86425  59009.32384 
    13.70441  1.64914   4.01079       1.78401         2559.82413  0.48117  0.01488     0.11851  40.95385     16.12183    3532.0638   -32.99313  1.38482   3875.99889    1e-05  58921.23687  51.89236  41.90502  19.77058     59018.23 
    13.00995  2.02184  25.57415       0.04054         3059.37078  0.49729   0.0106      0.0436  52.54228     16.70455   9978.56086   -15.06958  0.24486   9979.83243    3e-05  58939.16042  52.73145  45.10109  19.84025  59013.28729 
    15.13253  1.53848    4.5774        4.6484         2599.78189  0.49793  0.01156     0.04186  52.04794     16.60992   7504.92632   -20.28052    1.491   4239.97794    2e-05  58933.94948  51.98727  45.09101   19.8933     59018.23 
    12.91034  1.68136  17.58841       4.79236         2820.99273  0.48173  0.01269     0.20091  49.41627     16.72062   8695.82697   -18.44112  0.65588   4464.46266    3e-05  58935.78888  52.02847  43.26228  19.79744     59011.24 
    14.91666  1.75008  11.30782       4.96997         2921.17475  0.44941  0.01013     0.01765  50.29092     18.05309   6957.05267   -15.20627  1.46349   3940.71481  0.00063  58939.02373  51.92131  40.47407   19.8043     59018.23 
    13.58069  1.53871   4.09991       3.53443         2886.74145  0.49894   0.0103     0.02841  33.74479     18.00371   4085.48977   -15.76822   0.6078   4602.37054  0.00056  58938.46178  52.02736  42.05538  19.82956  59010.97851 
    12.73494  1.64754  16.91233       4.91085         2857.25148  0.45783  0.01121     0.36039  52.54046     17.17198    9481.6435   -21.95766  1.23162   3643.66817    8e-05  58932.27234  51.85628  41.52193  19.66544  58995.34458 
    13.81068  1.90788   1.13221       0.31849         5979.30261  0.10285  0.13899     0.22824  44.61576      19.4996   3483.89785   -69.34517  1.19986   3828.44299  0.01755  58884.88483  51.88777   9.08433  19.81461  58997.70224 
    13.03701  1.70602    3.7047       4.42302         2771.73795  0.45333  0.01093     0.08829  47.42124     18.13641   9435.37886   -18.82393  1.53554   4627.74498  0.00076  58935.40607  52.05678  40.44119  19.74563  59013.28729 
    14.68204    1.687   4.76588       4.56993         3017.10671  0.39727  0.01093     0.03576  53.51126     19.03886   6879.60661   -18.34825   1.0611    3508.4435  0.00608  58935.88175  51.82469  36.13429  19.81335  59020.93571 
     14.7369  1.68281  25.16532       4.51407         2871.80284  0.41557  0.01031     0.03689  56.50811     18.77499   7992.34033   -20.03987  1.32798   4077.28388  0.00331  58934.19013  51.95895  38.12614  19.78913  59013.28729 
    13.18317  1.74918   5.83432       4.67946         3074.61578  0.49872  0.01096     0.21233   43.8486     17.36271   8364.58345   -21.31726  0.27981   3254.25712  0.00013  58932.91274  51.74539  43.92579  19.84416  59017.26548 
    13.48743  1.97115   3.24571       2.60981         2470.68967  0.49806  0.02424     0.07907  11.57957     19.47098   9296.82513    -8.32508  1.47534  10350.44056  0.01643  58945.90492  52.64327  34.27728   19.8093  59017.26548 
    14.01985   1.7383  15.97473       4.60337         2874.47061  0.47045  0.01018      0.0135  49.87252     19.62229   7372.59393    -20.5546  0.28798   3518.22517  0.02328   58933.6754  51.82222   42.3113  19.86172  59014.29758 
    14.55852  1.87127  18.43451       4.19745         2798.14781  0.48587  0.01059     0.02733  51.39199     16.82983   9496.91853   -22.68723  1.30005   3679.86983    4e-05  58931.54277  51.86333  43.90935  19.86568  59017.26548 
    13.58795  1.84602   3.33933       2.47209         2990.24107  0.40453  0.03013     0.05796  26.80338     16.69311   4059.57776    -40.6846    1.551   3500.87395    3e-05   58913.5454  51.77224  32.75006  19.83848  59014.29758 
    13.78918  2.07504   3.01233       2.63404         2513.11645  0.08255  0.01411     0.01058  29.69622     17.10881   9825.66616   -24.98136  0.79261   3500.82381    7e-05  58929.24864  51.78011   6.80557  19.87837  59007.65944 
    13.61523  1.99751    2.8466       3.24203         2131.26114  0.21994  0.02993     0.02218  23.88428     18.59092   4407.35555   -40.53255  1.08087   3707.70545  0.00217  58913.69745  51.81306  17.43906  19.89608  59014.29758 
    13.40932  1.89496   2.41198        0.2428         5306.58222  0.02489  0.01592     0.15589  39.04038     18.80437   4044.29678     -53.685  1.29085   4230.91305  0.00354    58900.545    51.965   2.15063  19.79501  59014.29758 
    13.07518   2.0326   2.80424       4.70591         2797.40587  0.40237   0.0119     0.03306  48.98353      17.7943   8671.14696   -16.75533  0.74476   4931.50082  0.00035  58937.47467  52.11427   36.0844  19.73252  58989.29933 
    12.20666  1.83988  26.32631       4.84681         2865.36248  0.48589  0.01002     0.02855  51.57138     19.98559   8799.38871   -19.92527  0.47969   3744.95619  0.05374  58934.30473   51.8788  43.93551  19.79871     59018.23 
    13.58106  1.96109   2.87542       2.96243            2590.37  0.15158  0.02997     0.05905  17.45965     19.76908   7686.84183   -25.74863  1.13191    4656.8425  0.03264  58928.48137  51.98548   11.3318  19.54859  58989.29933 
    13.74266  1.81393   2.82295       3.01652         2878.70171  0.05893  0.01363     0.07104  27.25527     19.89672   7492.29718   -21.03669  0.73642   3289.07665   0.0438  58933.19331  51.71933   4.78495  19.86363     59018.23 
    14.89825  1.50968  18.22837       4.43149         2762.83428  0.49898  0.01002      0.0243  46.61819     16.67205   7776.41496   -14.45917  0.07919   4466.04819    3e-05  58939.77083  52.02468  44.39085  19.73935     59011.24 
    13.63277  1.92241   3.49438       3.05445         2147.76475  0.36313  0.01706      0.0191  35.65063     17.40458   3898.95862   -35.86915  1.22902   4254.63761  0.00014  58918.36085   51.9632  30.89673  19.90874  59014.29758 
    12.66544  1.58879  24.95113       2.49194         2791.73243   0.4616  0.01089     0.02991  61.71521     19.92756   6782.71278   -19.88423  1.11833     4970.679  0.04702  58934.34577  52.13704  42.93773  19.84071  59013.28729 
    13.95462  2.09761   3.07221       3.88186          2583.8912  0.10408  0.01644     0.01084  36.63132     17.51947   6293.37493   -43.10033  0.42665   2998.63457  0.00018  58911.12967  51.66132    8.8963  19.86595  59014.29758 
    13.66348  1.94937   2.70532       2.60537         2550.56211  0.06736   0.0235     0.04886   20.4822     19.91826   8711.24338   -23.13591  0.93302   3993.20102  0.04602  58931.09409  51.86515   5.19106  19.83425  59013.28729 
    14.11057  1.54351   5.67781       4.45868           2445.734  0.49629  0.01219     0.05799  46.21006     18.85922   6034.54459   -23.93134   0.6395   3733.29418  0.00402  58930.29866   51.8684  44.08809  19.91129  59009.32384 
    14.28343  1.82338  17.37167       4.28228         2994.53349  0.49513   0.0105     0.03396  49.70114     18.65035   7655.69781   -19.93792  0.26339   3492.95354  0.00248  58934.29208  51.81572  44.50676  19.80298     59018.23 
    12.99815  1.65141  14.98508       0.69478         4614.84852  0.38799  0.01034     0.09853  79.22118     16.93147   3090.74625   -49.18905  1.44517   4681.46345    5e-05  58905.04095  52.10151  37.49169  19.88136     59011.24 
    13.74119  1.86555   2.64028       1.46221         2995.59545  0.04807  0.01261     0.03455   43.9877     18.59999   8287.85092   -38.54427  0.67648   3089.15478  0.00221  58915.68573   51.7004   4.23621  19.82366  59013.28729 
    14.43522  1.82534  20.70304       3.96603         2842.66032  0.49942  0.01055     0.01658  50.15617     19.78955   9796.88709    -18.1346  0.80961   3829.90708  0.03422   58936.0954  51.89635   44.9583  19.78599  59013.28729 
    14.71671  1.63929    19.748       4.91911         2761.95923  0.49538  0.01061     0.01701  51.13259     19.53414   8889.84168   -15.36641  0.86118   4228.14991    0.019  58938.86359  51.98361  44.73269   19.5449  58991.28468 
    12.76539   1.4246  16.49848       4.84782         3005.91859  0.47539  0.01019      0.0366  47.12299     17.39322   8643.60325   -13.65958   0.2174   4124.42248  0.00014  58940.57042  51.95632  42.36635  19.91458  59020.93571 
    14.42921  2.15356  22.61582       4.93123         3018.51797  0.46951  0.01084      0.0129  49.11934     19.06684   9720.89951   -21.38003  1.37758   3307.94055  0.00648  58932.84997  51.76763  42.12389  19.88046  59009.32384 
    13.73375   1.4756  28.08392       3.97528         2847.84704  0.49345  0.01012     0.19904  47.70183     17.97616   8458.53522   -17.85104  0.66546   3820.79665  0.00053  58936.37896  51.89076  44.06272  19.74938  58987.74503 
    15.14701  1.56871  15.57235       4.54305         2944.50817  0.47424  0.01047     0.03316   52.3498     19.55443   8168.59594   -18.32026  1.03941   3753.02253  0.01991  58935.90974  51.88171  42.98461   19.8782  59020.93571 
     14.8895  1.89955  20.42127          4.64         2900.69625  0.42766  0.01087     0.10563  55.64991     16.72642   7917.80307    -21.0965  0.39823   4028.50988    3e-05   58933.1335  51.94745  39.14119  19.78095  59017.26548 
     14.8735  1.55071   15.1039       3.57083         2810.68175  0.49716  0.01154     0.03931  49.59556     17.94347   9451.65814   -17.89113  1.48765   4392.22783  0.00049  58936.33887  52.01455   44.6743  19.89943  59017.26548 
    13.09952  1.41685  27.56597       4.85364         2963.03809  0.49717  0.01042     0.06602  46.06594     18.58381    9630.6315   -16.91457  0.02131   3698.63311  0.00213  58937.31543  51.86008  44.14389  19.56606     59046.17 
    12.54999   1.8553   2.20177       0.04218         4338.81567   0.4643  0.01167     0.39893  66.23433     17.58915   3066.28543   -38.15616  1.15962   6108.63713  0.00022  58916.07384  52.32084  43.66385  19.86866  59013.28729 
    14.08473   2.0427   5.13659       4.46628         2776.16247  0.35835  0.01202      0.0864  44.33609     16.74033   7436.64147   -24.15749  0.46491   4036.53558    3e-05  58930.07251   51.9333   31.6194  19.85751  59020.93571 
    13.12463  1.82504   2.83783       4.67098         2657.98833  0.45926  0.01203     0.16417  44.25578     18.25195   8285.25236   -16.80713  0.51277   5368.11415  0.00099  58937.42287  52.18079  40.51177  19.78523  59013.28729 
    13.77245  1.83778   2.79521       2.81734         2755.22008   0.0736  0.01515     0.02259  36.79646      18.2484   3273.42378   -41.02423  0.60576   2865.94687  0.00098  58913.20577  51.62234   6.29548  19.82752  59017.26548 
    13.30336  1.69288   3.00291       3.36745         2627.54451  0.49831  0.02365     0.14567  18.70784     17.71714   5869.50364    -12.3192  1.56848   8709.37994  0.00029   58941.9108  52.53503  37.75085  19.84367  59014.29758 
    12.25713  1.85084  11.01422       3.69838         2759.94326  0.44968  0.01093      0.0415  60.39541     18.00045   8176.64412   -23.70575   1.1764   4017.79453  0.00056  58930.52425  51.95072  41.68872  19.78356  59013.28729 
     13.2972  1.37605  14.63796       3.88117         2824.98542  0.49789     0.01     0.03521  48.85356     18.31761   7958.20943   -19.42068   1.3653   3750.07188  0.00115  58934.80932  51.87621   44.6309  19.79735     59014.22 
    14.85794   1.4843  26.04621       4.71975         2843.20704  0.49606  0.01002     0.21113  46.58701     18.73087   9891.72045   -15.85197  1.29709   3793.38793  0.00299  58938.37803  51.88284  44.12574  19.80162  59024.25478 
    14.76323  1.45179  10.31193       4.40322         2849.16623  0.48752  0.01199     0.01801  48.84972     16.28366   7858.83345   -18.66703  0.53365   3947.80347    1e-05  58935.56297  51.92084  43.70091  19.90414  59014.29758 
    14.23798  1.80669   7.44709       4.63376         3004.52075  0.47533  0.01111     0.02134  40.31594     18.56853   9663.84913   -16.97867  0.35268   3856.02316  0.00206  58937.25133  51.88674  41.28858  19.84097     59018.23 
    15.14488  1.40278  17.17777       4.52179         2809.44737  0.49018  0.01054     0.11704  51.69405     19.16923   8725.29709   -16.96928  0.14651   4150.14825   0.0082  58937.26072   51.9682  44.34074  19.83044  59010.97851 
    12.48163  1.87139  16.64478       4.64409         2982.84727  0.48758  0.01032     0.01052  48.63963     18.88567    8940.1675   -16.59685  0.02653    4073.4506  0.00427  58937.63315  51.94775  43.67598  19.69304  59007.26726 
    15.13162  1.67124    9.2931         4.657           2812.281  0.48199  0.01169     0.22527  50.64232     16.09076   8826.89957   -23.32419  0.08163   3746.19205    1e-05  58930.90581  51.87782  43.45661  19.75904  59017.26548 
    13.43257  1.92697   2.75662       4.34238         2451.02803  0.09104  0.03547     0.44525  14.58236      19.5512   8995.85163   -21.14673  1.50785   6867.35526  0.01977  58933.08327  52.30748   6.56911  19.73483  59010.97851 
    14.49257  1.55839  26.10009       2.63819         2085.13458  0.44564  0.01067     0.16362  51.29786     17.84427   9016.22559    -5.15538  1.37597  14665.36327  0.00039  58949.07462  53.06412  40.26185  19.82394  59037.53105 
    12.83524  1.96509   7.40899       4.96586         2853.07076  0.47834  0.01017     0.15004  48.12801     16.70866   9782.18542   -15.17181  0.20242   4050.19033    3e-05  58939.05819  51.94203  42.77491  19.86368  59017.26548 
    13.47683  1.59191   3.05259        4.8503         2729.95275  0.24234  0.01866      0.0124  30.04435     17.77471   9075.32089   -34.82055  1.45133   3594.18737  0.00033  58919.40945  51.80386  20.01984  19.73363  58999.25972 
    13.59669  1.83221   2.69497       2.25691         2298.35551  0.41476  0.04872     0.05107  16.62416      19.7249   3424.10363   -36.28135  0.97493   4404.43857  0.02949  58917.94865  51.93294  30.71358  19.81883  59017.26548 
    15.08718  1.80728  26.46877       3.87756         2935.09949  0.49904  0.01052     0.02074  47.24724     18.35792   9915.29234   -20.72428   1.5061    3635.9218  0.00127  58933.50572  51.84701  44.49236   19.8046  59014.29758 
    13.43473  1.68593   2.40357       4.05289         2553.96738  0.02766  0.04071     0.01837  26.72313     17.39846   6252.80889    -56.9181  1.48386   3100.76337  0.00014   58897.3119   51.6666    2.2385  19.78082     59011.24 
    13.86305  1.53737  11.51553       4.74571         2683.54575  0.41961  0.01029     0.01581  55.54368     18.22546   9532.07447   -15.57797  0.84221    4995.1589  0.00093  58938.65203  52.13413  38.39289  19.83932     59001.23 
     12.4284  1.87572   9.08671       4.69616         2746.40977  0.47202  0.01055     0.03338   54.1977     16.11487   9560.67424   -18.41616   0.4951   3872.30495    1e-05  58935.81384  51.91128  43.02106  19.83938     59018.23 
    15.16897  1.75639   4.21161       4.86388         2850.62785  0.45693   0.0104     0.06717  48.93934     18.18572    8266.6731   -16.53183  1.03789   3970.82692  0.00085  58937.69817  51.92602  40.97084  19.82859  59024.25478 
