 texplosion  fnickel    Pspin  log(Bfield)      Mns  thetaPB   mejecta    kappa  kappagamma     vejecta  temperature    alpha  cutoff_wavelength  log(nhhost)      A_V         MJD0  kenergy  mnickel             TSD   log(L0)  Peak_mag     Peak_MJD  log(E_rad)  log(Peak_lum)  Rise_Time     E_fold  tau_1  delta_m15     r_peak     frac 
   -23.2426  0.01555  2.60096     13.71954  1.77659  0.86623  33.23937  0.01621     0.20291  4220.36823   9885.61942  2.45372         2689.99733     19.26917  0.01033   58930.9874  3.53167  0.51673   4060523.41622  45.07958  19.76667     59011.24    51.54639       44.54534   44.90452   68.90995  111.5    0.07405  -21.52911  0.98161 
  -16.44762   0.1113  2.95257     13.60194  1.82477  1.55159  17.14501  0.02437     0.14766  5372.03309   9920.81531  3.71048         2491.42638     16.24853    1e-05  58937.78238   2.9515  1.90828   9237123.13611  44.62412   19.7738  59001.34025    51.51739       44.56219   33.99645   76.35968  114.5     0.0852  -21.57316  0.91981 
  -21.87758  0.00553  2.50499     13.59493  1.59927   0.9322  23.51277  0.01658     0.10282   4451.9434   9387.17562  2.89328         2520.55216      18.2504  0.00099  58932.35242  2.77991  0.13011   6018505.68888  44.89566  19.74782  59004.97903    51.50779       44.47423   40.97348   81.94697  131.0    0.07828  -21.46557  0.99484 
   -25.4449  0.20812  3.24297     13.71804  2.17346  1.39095   9.10561  0.05955     0.41473  7146.53645   9724.65179  0.72877         2499.13698     16.75973    3e-05   58928.7851  2.77413  1.89503   7776250.76652  44.69334  19.76234  59007.26726    51.45315       44.41274   43.98589   94.98444   92.5    0.07498  -21.66857  0.92588 
  -28.69512  0.07497  2.38516     13.54574  1.63076  1.51504   29.3419  0.02337     0.04835  4222.33293   9907.31757  3.54546          2142.2005     16.58516    2e-05  58925.53488  3.12047  2.19985    6978367.8697  44.88245  19.74753  59005.26364    51.55641       44.53979   39.11105   80.08454  114.0    0.05903  -21.46563  0.92931 
  -21.95593  0.01738  2.55959     13.72958  1.75112  0.78489  22.23653   0.0209     0.27029  4295.10788   9586.55056  2.63002         2335.28172     17.88991  0.00043  58932.27407  2.44705  0.38637   3700915.07159  45.12751  19.80076     59004.25    51.46439       44.39753   42.83592   87.53426  124.0    0.07043  -21.43831  0.98629 
  -22.51113  0.00982  2.71164     13.59649  1.72705  1.13705   31.4995  0.01738     0.10068  4437.99497   9940.88711  3.62446         2716.86416       17.526  0.00019  58931.71887  3.70088  0.30944    7561317.6459  44.76109   19.8159  59007.69073    51.45926       44.39613   48.42321   96.84642  112.0    0.07898  -21.55615  0.98725 
  -23.68822  0.02992  2.76948     13.79698  1.83639  0.62564  23.27087  0.01822     0.02493  4708.46697   9655.57489   2.7367          2502.8237     18.09184  0.00069  58930.54178  3.07751  0.69635   3331284.55611   45.1254  19.78708  59005.26364    51.46759       44.48641   41.69997   77.49562  128.5     0.0703  -21.49554  0.97292 
  -19.83959  0.06428  2.52555     13.61288  1.66945  0.92175  26.73812  0.01478     0.02989  4475.15974   9716.81181  3.31333          2511.4191     19.95685   0.0503  58934.39041   3.1943  1.71885   5879547.51956  44.91736  19.83123  59005.26364    51.49517       44.52178   39.11105   72.63481  130.0    0.07795  -21.56866  0.93856 
  -17.85612  0.00216  2.44126     13.44658   1.3941  0.85268   7.73577  0.04814      0.2646  6458.92155   9693.13971  4.12647           2800.808     19.49934  0.01754  58936.37388  1.92509   0.0167   9866901.67577  44.64373  19.76082  59005.26364    51.43934       44.40037   42.63268   97.04966  125.5    0.08703  -21.63181  0.99918 
  -16.50564  0.12043  3.14808     14.09776  2.02627  0.32893   7.17701  0.03363      0.0887  7057.08449   9748.59992  1.58775         2489.33073     17.19398    9e-05  58937.72436  2.13217  0.86436   1188731.39121  45.50437  19.78509  59010.40243    51.48687       44.37105   53.50979    95.4847   98.5    0.05789  -21.58381   0.9623 
   -27.3239  0.00844  2.49281     13.51961  1.68812  1.28765   17.9183  0.03392     0.16757  5391.18137   9891.76419  3.70435         2150.09524     16.29041    1e-05   58926.9061  3.10665  0.15129   8899661.81778   44.7535   19.7834  59010.40243    51.53895        44.5371   40.43773   73.17057  111.0    0.06335  -21.58578  0.99449 
  -17.47596  0.01933  2.67698     13.54939  1.67184  1.00707  12.50064  0.02638     0.15395  5900.29607   9928.67525  2.13725         2806.20353     17.39382  0.00014  58936.75404  2.59601  0.24165   8861623.33511  44.68924  19.77751  59007.26726    51.57593       44.59857   38.38287   67.98188  121.0    0.07373  -21.58474  0.98955 
  -23.48721  0.01548   2.9268     13.66662  1.77503  0.91767  25.64603  0.02319     0.10935  4363.57158   9892.09959  3.94084         3039.52197     16.14134    1e-05  58930.74279  2.91294   0.3969   6554907.74707   44.7687  19.83367  59007.26726    51.53971       44.47198   45.42483   84.94535  112.0    0.07765  -21.58732  0.98162 
   -28.2656  0.18951  2.59646     13.49856  1.50339  1.44448  24.80777  0.02393     0.14649  4022.55318   9926.29259  2.80928         2781.59967     17.76469  0.00032   58925.9644  2.39452  4.70121   9474072.05309  44.64062  19.76858  59005.26364    51.45404       44.43854   40.97348    83.8094  123.5    0.06082  -21.48109  0.81883 
  -22.40174  0.00363  2.02941     13.65193  1.34292  0.49159   9.65146  0.03257     0.31507  6540.12138   9604.38027  0.49188         2541.20387      17.2893  0.00011  58931.82826  2.46259  0.03504   2551223.96038  45.37541  19.80825  59007.69073    51.47319       44.42663   44.69835   99.55657  105.5    0.05102  -21.65322   0.9988 
  -15.83962   0.0012  2.70136     13.98686  1.73827  0.31037  13.17322  0.02302     0.11685  6209.78358   9932.86442  4.50451          2244.9886      16.4051    1e-05  58938.39038   3.0302  0.01586   1251336.59782  45.54842  19.80643  59009.32384    51.55929       44.60799   41.00759   63.49473  124.5    0.06884  -21.56592  0.99933 
  -18.32766  0.00262  2.88856     13.95351   1.8536  0.39306  10.99035  0.02824      0.1921  5586.41828   9903.08627  2.47517         2637.10088     17.25328   0.0001  58935.90234    2.046  0.02881   1779024.95482  45.36532   19.8086  59007.69073    51.41819       44.38319   47.99265     88.171  126.5    0.06943  -21.51894  0.99874 
  -19.28309  0.01376  2.47663      13.7265  1.55709  0.53771    8.3012  0.05256     0.07495  6106.63588   9983.35532  2.74337         2792.15668     19.96345  0.05107  58934.94691   1.8466  0.11425   3125044.06157  45.17858  19.74046  59005.26364    51.57145       44.57203   34.45183    75.4316  108.5    0.08786   -21.7093   0.9953 
  -20.64418  0.03995  2.95916     13.67251  1.79955  0.86322  18.48319  0.02718     0.06881   5702.1834   9910.38325  3.36004         2841.99852     17.45256  0.00016  58933.58582  3.58498  0.73837   6611525.57904  44.76137  19.83208  59002.26734    51.48618       44.47206   41.37904   88.99114  110.0    0.08683  -21.63229  0.96603 
  -13.86028  0.38759  2.74009     13.47318   1.6119  1.24825   8.65394  0.02818     0.11947  6857.34574   9782.27109  2.56401         2401.51963       19.822  0.03687  58940.36972  2.42746  3.35414  12715224.92897  44.49633  19.79633  59005.26364    51.44523       44.37466   44.69835   94.98399  110.5    0.05664   -21.6016  0.85918 
  -23.83294  0.00742  2.58001     13.60041  1.71256  1.15842  31.93802  0.01704     0.11548  4458.43207   9950.97269  2.70273          2630.7468     16.59133    2e-05  58930.39706  3.78704  0.23708   6666152.63027  44.85538  19.78043  59009.32384    51.51813       44.48915   43.87475   77.38945  112.0    0.07228  -21.53261   0.9911 
  -23.41437  0.21692  2.93913     13.92497  1.79798  0.46054  14.82818  0.03364     0.19357   5967.6231   9565.75142  2.76361         2367.40573     18.16352  0.00081  58930.81563  3.15005  3.21646   2037471.45274   45.2781  19.83549  59010.40243    51.40489       44.38555   46.56078   85.67183  115.5    0.06988  -21.58364  0.86955 
  -26.53518  0.03256  2.85441     13.66704  1.93998  1.21704  39.79343  0.01379     0.05227  4115.05439   9986.67787  4.46854         2325.74745     16.29294    1e-05  58927.69482  4.01966  1.29548    6800796.1767  44.81305  19.75033  59010.40243    51.52323       44.51369   42.83592   76.35968  120.5    0.06843  -21.47002   0.9524 
  -26.10423   0.1082  2.61276     13.76717  1.69417  0.56176  12.01532  0.04112     0.05368  5955.39572   9437.18774  1.90303         2354.04936     18.14858  0.00078  58928.12577  2.54205  1.30001   3137792.71794  45.16698  19.81306  59002.26734    51.51575       44.44547   37.07655   93.29363  113.0    0.06426  -21.58975  0.95007 
  -25.42441    0.003  2.93205      14.0077  1.91318  0.35932   9.29518  0.08563     0.19468  7468.45775   9995.14082  2.48802         2725.26535      18.4248  0.00148  58928.80559  3.09276  0.02785   1474033.99397  45.44775  19.76283  59009.32384    51.46163       44.46115   42.83592   72.63481   94.0    0.07908  -21.77228   0.9988 
  -24.75227  0.01471  2.64926     13.57787  1.75369  1.00875   8.40014  0.06032     0.08197  6385.10184   9543.25853  1.62498         2479.09075     18.89963  0.00441  58929.47773  2.04291  0.12359   7984961.29633  44.76428  19.68116  59004.97903     51.5152       44.47343   39.94371   79.25188  107.5    0.06685  -21.63434  0.99514 
  -18.01765  0.11028  2.68349     13.56481  1.79653  1.11266  10.39388  0.04096     0.03673  6084.12664   9822.77974  3.89671         2101.27054     19.14919  0.00783  58936.21235   2.2951  1.14627   8913147.99339  44.71585  19.71599     59004.25     51.5265       44.49152   38.55397   82.97675  103.0    0.06394  -21.61716  0.95705 
  -22.47885   0.0729  2.45206     13.42263  1.44829  1.45049  18.52946  0.02211     0.28413  5698.51228   9651.36547  2.11327         2617.79227     19.05589  0.00632  58931.75115  3.58933  1.35086  11547135.57801  44.58816  19.75629  58999.55564    51.49455       44.49186   35.38619   80.08454  118.0    0.07189  -21.54258  0.94273 
  -24.15828  0.07827  3.10879     13.64902  2.02486  1.28254  16.43941  0.02851     0.24744  4611.03764   9279.26784  3.92743          2528.1303     19.49428  0.01734  58930.07172  2.08502  1.28668    9148388.1743  44.62871  19.78935  59002.26734    51.50812        44.4482   37.18556   88.07002  133.5    0.07222  -21.50762  0.94671 
  -21.07073   0.0057  2.97326     13.71911  1.77402  0.72455   8.61744  0.05689     0.32193  5066.08215    9959.7882  4.97227         2855.65517     17.44313  0.00015  58933.15927  1.31932  0.04911   5309130.86482  44.84632  19.76378  59002.26734     51.4857       44.43044   39.83754   88.67021  113.5    0.08548  -21.59702  0.99758 
  -26.06503  0.00401  2.68575      13.8373  1.77915  0.39374  10.40075  0.04904     0.02628  5805.26995   9907.94281  3.58014         2652.33325     18.80899  0.00358  58928.16497  2.09092  0.04173   2520871.39441  45.25938  19.77085  59015.82583    51.52274       44.47092    49.9911   78.72282  104.5    0.06279   -21.6237  0.99827 
  -21.60428  0.04048  3.09194     13.74322  2.06319  0.77166   7.44686  0.06331     0.14597  7052.21869   9660.67701  1.96037         2496.89651     16.29648    1e-05  58932.62572  2.20929  0.30145    5975392.1839  44.82656  19.75043     59004.25     51.5324       44.60153   31.57967   65.73944  109.5    0.06735  -21.65526  0.98723 
   -19.1965  0.02156  2.43875     13.45666  1.46318  0.92331   5.14386  0.11077      0.1801  8286.52511   9841.28108   4.9229          2351.0573     18.16373  0.00081   58935.0335  2.10698  0.11091   9865862.48067  44.66567   19.7572  59005.26364    51.50154       44.44913   40.97348    83.8094   96.0    0.08615  -21.76067  0.99504 
  -20.29394  0.16136  2.50137     13.64758  1.49493   0.7045   9.26633  0.04936     0.37994  5533.96357   9998.55339  2.76533         2479.44641      16.6097    2e-05  58933.93606  1.69281  1.49524   4401913.58734  45.00347  19.82001  59007.26726    51.56961       44.58916   42.50634   65.72084  111.0    0.07719  -21.55016  0.93787 
   -20.2268  0.04539  3.31759     13.91977  2.13094   0.5083   8.69982  0.05348     0.19167   7392.9063   9771.00116  4.36682         2312.37082     16.85725    4e-05   58934.0032   2.8364   0.3949   3151383.60836  45.05727  19.84831     59001.23    51.46749       44.49331   36.31426    75.4316  110.5    0.07627  -21.62864  0.98158 
  -24.55064  0.02353  2.74759     13.76867  1.77654  0.65529  17.66315  0.02631      0.1122  4420.09103   9934.97307   3.4767         2511.73791     16.33655    1e-05  58929.67936  2.05853   0.4156   3613756.70584  45.08256  19.79068  59007.69073    51.47146       44.46081   46.56371   80.28778  123.5    0.06996  -21.47459  0.98313 
  -28.52988  0.35442   3.1223     13.83369  1.58377  0.61319   22.9824  0.02956     0.28921   4385.2793   9713.34077  2.92119         2803.08885     19.26361  0.01019  58925.70012  2.63643  8.14534   3083701.70368  44.99052  19.81445  59007.26726    51.48801       44.49746   41.80614   79.25188  119.5    0.06122  -21.47347  0.66119 
   -26.7136  0.44836  2.27894     13.93965  1.41966  0.32684    7.9463  0.05645     0.10788  5628.56338   8866.30739  0.83406         2314.89116     16.31917    1e-05   58927.5164  1.50171  3.56278    904011.96493  45.74939  19.76334  59002.26734    51.53739       44.50093   35.79175   83.40384  119.0    0.05742  -21.53383  0.87744 
  -19.33881    0.129  2.95579     13.64927  1.77938  0.98599   8.75141  0.05631      0.0999  6508.60292   9818.19701  2.15031         2847.69464     19.28741  0.01077  58934.89119  2.21147  1.12891    7259104.9099  44.71688  19.77552  59005.26364    51.49605       44.45797   44.90452   78.22211  102.5    0.08953   -21.6463  0.94866 
  -27.20741  0.09856  2.70072     13.69227  1.79221    0.792  13.99897  0.04114     0.05595  6019.00736   9750.95552  3.18611         2009.12131     18.11088  0.00072  58927.02259  3.02533  1.37975   5007515.58145  44.95965  19.80107     59004.25    51.44944       44.41054   42.83592   80.08454  106.5     0.0627  -21.59924  0.94839 
   -23.5153  0.03159   2.4313     13.88637  1.42081  0.33684  14.31489  0.04386     0.06998  5129.24593   9821.89894  4.86541         2707.52964     17.32578  0.00012   58930.7147  2.24658  0.45227   1316123.44514  45.53041  19.76498  58999.55564    51.43709       44.41258   39.11105   98.70885  110.0     0.0804   -21.6157  0.97981 
   -17.9029  0.04377  2.69688     13.52978  1.72096   1.2967   6.69792   0.0505     0.48927  6085.68862    9842.5441   2.2101         2644.88676     19.62374  0.02336   58936.3271  1.47974  0.29316  10133033.31911  44.63715  19.79573  59007.26726    51.50203       44.46225   41.69997   86.80778  116.5    0.07694  -21.60823  0.98782 
  -17.77458  0.05046   2.9855     13.63295  1.88543  1.22684  17.81932  0.01489     0.08314  4109.82413   9933.87537  1.89171         3358.63574     19.76957  0.03268  58936.45542  1.79541  0.89918   8459803.37657  44.66686  19.75015  59007.26726    51.53562       44.53736   37.24862   72.63481  130.5    0.08131  -21.50237  0.96142 
   -22.8684  0.01086  2.48183     13.38207  1.45745  1.35642   12.5233  0.04118     0.30511  5747.23153   9797.71641  4.49912         2682.05824     18.86531  0.00407   58931.3616  2.46754    0.136  14348968.59976  44.48607  19.83959  59005.26364    51.56162       44.62968   31.66133   65.18509  119.5    0.07724  -21.60757  0.99369 
  -17.22067  0.00475  2.21197     13.25151  1.35283  1.23713   5.14263  0.06032     0.08524  7885.69074   9966.70875  2.12686         2844.37915     18.29467  0.00109  58937.00933  1.90762  0.02443  19301438.53358  44.42494   19.7918     59014.22    51.58064       44.52578   48.42321   80.08454   91.0    0.06383  -21.71688  0.99895 
  -22.11157  0.00887  2.59112     14.09963  1.77975  0.32249  14.53518  0.03703     0.31596  5165.86344    9906.0285  1.87409          2611.2659     19.70425  0.02812  58932.11843  2.31384  0.12889    701275.74872  45.84634  19.69892  59004.97903    51.51822       44.53469   37.18556   69.44571  103.0    0.07917  -21.59147   0.9954 
  -23.15019  0.26814  2.96858     13.57479  1.56565  1.39118  23.24417  0.02516     0.07997  4972.79633   9994.73217  3.26629         2789.83685     19.21009  0.00901  58931.07981   3.4288  6.23271   9078610.36732  44.56042  19.78572  59007.69073    51.51974       44.47138   47.28726   79.35805  110.0    0.07233   -21.5727  0.73495 
  -24.64617  0.00541  2.70224     13.52309  1.76394  1.46677  34.53935  0.01128     0.03448  4275.28284    9776.5391  2.73608         2558.03659     18.45932   0.0016  58929.58383  3.76592  0.18687  10754137.38419   44.6203  19.77932  59002.26734    51.48221       44.37639   43.66857   99.73863  138.0     0.0644  -21.41721  0.99245 
  -24.34342  0.02286  2.19082     13.38588  1.21305  0.92386  13.55112   0.0454     0.04903  5748.14007   9825.66684  3.49438         2856.82345     16.94228    5e-05  58929.88658   2.6709  0.30971   9144112.10928  44.71037  19.77887     59011.24    51.52353       44.50087   42.83592   76.35968  107.5    0.08208  -21.63314  0.98556 
  -19.77327  0.12264  2.97418     13.58348  1.93657  1.37433   7.70769  0.05496     0.35998  7197.81573   9850.91155   1.6552         2453.36859     17.37949  0.00013  58934.45673  2.38206  0.94529  10829715.48314  44.57453  19.77763  59009.32384    51.53799       44.49177   43.87475   81.11431  103.0    0.06967  -21.66189  0.96079 
  -19.34081  0.08028  3.21407     14.10442   1.8731  0.31416  21.08587  0.02344     0.04967  5149.55116   9791.53248  3.78836         3028.76042     16.74862    3e-05  58934.88919  3.33547  1.69275   1110835.41992  45.48165  19.79565  59001.34025    51.47976       44.48438   35.85888   81.94697  115.5    0.08652  -21.61332  0.91757 
   -18.2346  0.05614  2.88432     13.79222    1.802  0.62224   7.05183  0.04284     0.36956  6227.23404   9720.50066  1.30415         2855.66194     17.26266   0.0001   58935.9954  1.63124  0.39591   3624242.33546   45.0453   19.7711  59005.26364    51.44729        44.4563   40.97348   76.35968  111.0    0.06955  -21.53779  0.98254 
  -16.44282  0.01283  2.71258     13.66297  1.62935   0.6056   7.96409  0.03784     0.04225  5789.89058   9655.92023  3.34361         2908.55926     18.69928  0.00278  58937.78718  1.59259  0.10219   5255874.73443  44.89345  19.78717  58999.25972    51.51268       44.48609   37.39482   94.83779  118.5    0.07914  -21.58405  0.99514 
  -21.48235  0.05147  2.86341     13.72484  1.75323  0.87278  32.53629  0.01761     0.03543  4645.85863   9799.30664   3.3444         2711.14814     18.14317  0.00077  58932.74765  4.18916  1.67449   4739552.51067  44.92318  19.73285  59007.26726    51.49067       44.45803   44.49511   80.28778  107.5    0.07946  -21.54416  0.92969 
  -23.54203  0.02334  2.75154     13.75319   1.6987  0.61614  28.72966  0.02144     0.15327  4577.72159   9916.87135  4.71346         2858.61075     19.50779  0.01789  58930.68797  3.59134  0.67065   3721350.97588  45.04911  19.74334  59005.26364    51.49212        44.4845   38.55397   79.25188  113.5    0.07321   -21.6286  0.97091 
  -23.54628  0.45763  2.47936     13.74096  1.70779  0.79663  14.10158  0.05349     0.40604  5302.47857   9837.27587  4.98167         2277.05998     20.50423   0.1774  58930.68372  2.36512  6.45335   3213647.29194   45.2056  19.74451  59005.26364    51.49609       44.48751   40.97348   72.63481  106.5    0.06922  -21.80351  0.81696 
  -18.24294  0.26441  2.52843     13.58113  1.59764  0.84509   7.65957  0.04567     0.22785  6565.95938   9337.44451  2.05153         2339.90929     19.84486  0.03887  58935.98706  1.96983  2.02528   6527343.40495  44.85189  19.77492     59001.23     51.4961       44.45657   37.18556   84.34515  118.0     0.0642  -21.63939   0.9226 
