 log(Bfield)      Mns     Pspin  cutoff_power  cutoff_wavelength  fnickel    kappa  kappagamma  mejecta  log(nhhost)  temperature  texplosion  thetaPB     vejecta      A_V        MJD_0   log(KE)     M_Ni  Peak_mag     Peak_MJD 
    14.77826  1.68533  12.18205        2.1351         5430.75614  0.01233  0.13797     0.09018  0.36081     18.54969   7908.70377    -9.00863  1.31833  5014.29342  0.00197  57510.25137   51.4469   0.2301  19.23145  57523.63632 
     14.8726  1.82794  13.69904        2.1263         5485.59384  0.07128  0.20762      0.1027  0.13023     19.20702   6541.61115    -7.53021  1.09527  4032.82588  0.00895  57511.72979  50.58009  0.27938  19.24392  57523.63632 
      14.944  1.83568  14.14909       2.43863         5543.75682   0.0064   0.0972      0.0315  0.18707     16.26708    5812.4318    -6.44539  0.86098  3109.39367    1e-05  57512.81461  50.72275  0.05861  19.45964      57525.4 
    14.95048     1.77  14.27455        2.4309         5235.07271  0.02913  0.07082     0.02804  0.19748     16.15299   6539.51043    -5.95118  0.78695  3069.41068    1e-05  57513.30882  50.74717   0.2896  19.27085      57525.4 
     14.6476  1.29797  11.83529       2.57346         5597.95686  0.02576  0.07142     0.04027  0.12565     16.34287   5291.63559    -4.24056  1.22515  2460.68294    1e-05  57515.01944  50.08954  0.08764  19.37962  57523.63632 
    14.68367  1.35964    10.128       1.72835         5645.38455   0.0106  0.09709     0.09203  0.36627     18.97733   3015.41996    -8.50353  1.11521  4807.36341  0.00527  57510.75647  51.41531  0.20006  19.21633      57525.4 
    14.99245  1.73754  10.90244       1.67154         5622.23112  0.02259  0.22608     0.15508  0.24221     20.26576   6369.25156    -9.08793    0.685   4708.2001  0.10244  57510.17207  51.23172  0.29122  19.32927  57523.63632 
    14.87343  1.55841  12.80198       2.41134         5663.81279  0.09651  0.10175     0.02556  0.11508     17.01919   3610.38819    -6.44634   0.6943  2861.58804    6e-05  57512.81366  50.01757  0.20574   19.3299  57523.63632 
    14.82987   1.6693  11.94848       1.93881         5480.59758  0.00346  0.04659     0.02724  0.81928     17.18375   8819.45557    -7.90612  1.10412  4937.14497    8e-05  57511.35388  51.64713  0.10547  19.31929  57523.63632 
    14.86656  1.79447  13.02345       2.45764         5352.44824  0.04169  0.18712     0.14441  0.14269     17.11154   5137.12949    -6.28107  1.38111  3585.96316    7e-05  57512.97893  50.60429  0.21853  19.23523  57523.63632 
    15.03215  2.09486  14.32704       2.23131         5938.83381  0.00801   0.0278     0.01082  0.62467      19.7863   7630.02437    -6.58869  0.91154  2797.83751  0.03397  57512.67131  51.09407  0.21303  19.32952  57523.63632 
     14.9809  1.78398  14.84575       2.51929         5778.53471  0.08454  0.08462     0.03671  0.11121     18.69043   8730.15785     -4.4893  0.78283   2622.0003  0.00272   57514.7707  49.82685  0.13836  19.38738  57523.63632 
    15.05886  1.92724  15.35993       2.67189         5487.25128  0.16364  0.10338     0.05437   0.1854     16.53391   8662.58567    -5.34361  0.81575  3030.02052    2e-05  57513.91639  50.69411  1.47732  19.37191  57523.63632 
    14.88186  1.71695  10.68699       1.25924          5612.0832  0.00232  0.02135     0.18353  3.41148      19.5453   5812.38783   -11.26264  0.87687  6747.06928   0.0195  57507.99736  52.14268  0.11883  19.23333  57523.63632 
    14.66121  1.37296  10.95607       2.24613         5507.05421  0.01551  0.05522     0.04551  0.45382     19.40993   7372.87876    -7.81421  1.16155  4200.88818  0.01428  57511.44579  51.36422   0.3409  19.33648  57523.63632 
    15.04278  2.06252  16.01248       3.11367         5446.78817  0.00457  0.02585     0.01873  0.40119     16.91771   8262.49662    -4.09029  0.97077  2543.71863    5e-05  57515.16971  50.89174  0.09229  19.25529  57523.63632 
     15.0637  1.72938  13.81871       2.47312         5433.88911  0.00162  0.15034     0.08467  0.12178     16.75909   4181.62484    -6.18492  0.58206  3221.35383    3e-05  57513.07508  50.26148  0.00477  19.14553  57523.63632 
    14.96897  1.87068  10.74181        1.9863         5524.59301  0.01535  0.10164     0.03943   0.3818     20.26814   5713.37735    -7.62384  0.89181  4051.45615  0.10301  57511.63616  51.28033    0.299  19.45314  57523.63632 
     15.0379  1.97077     14.56       2.60441         4907.81902  0.13716  0.23726     0.19326  0.13694     17.37571   3517.21723    -5.74714  0.90621  4921.68665  0.00013  57513.51286  50.82701  0.63738  19.24565      57525.4 
    14.97619   1.7309  11.92036        1.6468          5510.4095  0.00519  0.16066     0.19927  0.28403     19.12103   4745.59925    -8.49468  0.71553  5175.18592  0.00734  57510.76532  51.38524  0.07889   19.4297      57525.4 
    14.75104  1.72407  12.61208       2.05842         5724.48149  0.07078  0.23789     0.12585  0.10673     16.26761   9207.18865     -8.8694  1.51766  4057.01859    1e-05   57510.3906  50.01009  0.07378  18.84872  57523.63632 
    14.74417  1.58928  12.04658        1.5426         5532.51748  0.00135  0.04096     0.38366  1.33453      17.8218   3793.73804    -7.93016  1.45975  6188.31599  0.00037  57511.32984  51.93365  0.05073  19.31951  57523.63632 
     14.9355  1.80942   11.9377       2.02051         5189.24654  0.00373  0.07093     0.06381  0.61176     16.68975   7066.40986    -7.79107  0.95665  5377.53682    3e-05  57511.46893  51.65664  0.09813  19.28438      57525.4 
    14.86895  1.60207  11.30153         1.911         5943.99066  0.00622  0.05297     0.04547  0.72795     16.80558   4151.75865    -6.19704  0.96793  4942.99115    4e-05  57513.06296  51.62312  0.17929  19.19244  57523.63632 
    14.88606  1.63666  12.73302        2.5931         4979.44984  0.00756  0.22214     0.24543  0.13125     16.99095    5403.3411    -4.63608  1.01979  4440.76227    5e-05  57514.62392  50.67613  0.03048  19.09704  57523.63632 
    14.73114   1.5972   11.5911       1.64484         5433.05733   0.0013  0.12414     0.10307  0.43556      20.0612    5846.3891    -9.35445  1.16384  6074.00574  0.06396  57509.90555  51.67259  0.02781  19.14952  57523.63632 
    15.02578  1.70821  12.85739       2.44066         5301.44502  0.00189  0.02191     0.02132  1.19595     19.36126   5228.36011    -5.96218  0.65328  4252.36955  0.01276  57513.29782  51.58905  0.06806  19.08185  57523.63632 
     14.9832  1.51327  10.42911       1.99397         5545.54101  0.00349  0.16197     0.20391  0.27438     17.04262   7907.57216    -10.6194  0.55192  3821.51851    6e-05   57508.6406  51.10732   0.0513  19.27214  57523.63632 
    14.97938  1.89734  13.97945       2.26928         5256.06568  0.01476  0.02119     0.01105  1.39571     16.22916   3421.54303    -7.78999  0.82507  4363.99431    1e-05  57511.47001  51.63771  0.56425  19.14733      57525.4 
    15.16978  1.90568  13.47361       2.16377         5723.71775  0.08586  0.11454     0.05706  0.25486     18.61026   3507.74884    -6.75374  0.57558  3847.68815  0.00226  57512.50626  51.08051  1.17019  19.34412      57525.4 
    14.93393  1.60707  12.46365       2.30269         5630.27997  0.00437  0.08542     0.04441  0.30753     19.42402   7444.91325    -6.22828  0.76945  3653.17962  0.01475  57513.03172   51.1144  0.07149  19.24525  57523.63632 
    14.98954  1.37036  11.17856       2.52777          5321.7534  0.08752  0.17788     0.16037   0.1496     17.40682   7202.49988    -5.52242  0.53164  4211.25511  0.00014  57513.73758  50.79715  0.51855  19.30635  57523.63632 
     14.9025   1.7823  13.02619         2.542         5561.22328  0.00142  0.02762     0.01003  0.61159      19.3109   6081.84996    -5.71822  1.08245  2702.22613  0.01137  57513.54178  51.05885   0.0374  19.20869  57523.63632 
    15.09825  1.47478  11.65071       2.55038         5751.54903  0.01268  0.05424     0.02694  0.28824     16.21705   3110.35161    -7.54476  0.39704  2823.97069    1e-05  57511.71524  50.86515  0.19538  19.18631      57525.4 
    14.85247  1.54053   10.2212       1.47198         5329.20423  0.00258  0.12461     0.20695  0.52087     17.70045   6118.87893    -8.85414  0.85914  6154.57101  0.00028  57510.40586  51.73364  0.06195  19.18134  57523.63632 
    15.03994  1.80159   13.0488       2.04631          5719.3526  0.00664  0.05768     0.03153  0.42953     17.48582   7446.35557    -9.00042  0.56255  4089.79477  0.00017  57510.25958  51.32493  0.14058   19.1743      57525.4 
     14.9261  1.61519  13.52916       2.54341         5312.35972  0.00204  0.07987     0.04004  0.14724     16.17642    4416.4817    -5.60703   0.7415  2876.99687    1e-05  57513.65297  50.44899  0.01164  19.27173  57523.63632 
    14.90181  2.13875  14.40154       1.32901         5550.01116  0.00203  0.03955     0.08147  1.59064     19.28988   6943.50266    -9.67761  1.52213  6303.72055  0.01083  57509.58239   51.9781  0.08144  19.28733  57523.63632 
     14.8173  1.62295  11.43634       2.07882         5425.79206  0.09817   0.1244     0.13189  0.31827     19.81137   9496.29923    -5.89554  1.51872  5334.96633  0.03598  57513.36446  51.45631  1.65348  19.20251  57523.63632 
    14.95277  1.56578    11.772       2.34635           5299.897   0.0012  0.04171       0.053  0.67301      19.1347   7856.73963    -6.34013  0.73653  4008.82709  0.00758  57512.91987  51.42372  0.03308  19.43994  57523.63632 
    14.73549  1.37561  11.06095       2.41356         5272.32941  0.07432  0.23428     0.17893  0.14781     18.78932   9776.00153    -6.69093  1.00431  4812.32889  0.00342  57512.56907  50.90013  0.42746  19.16844  57523.63632 
     15.1459  1.78683  13.57366       2.41447         5321.63763  0.00727  0.14982     0.09651  0.18701     17.41635   4709.81632    -6.14149  0.52975   3620.1994  0.00014  57513.11851  50.85467  0.06652  19.23767  57523.63632 
    14.91062  1.63335  11.91196       1.89599         5703.51046  0.00176  0.19695     0.10884  0.16197     19.28658   6060.50248    -8.60872   0.7518  4343.73569  0.01075  57510.65128  50.90105  0.01248  19.30137  57523.63632 
    14.90579  1.90697  14.24448       2.60459         5436.25357  0.00389  0.14339     0.11125  0.11262     18.04101   8209.49287    -5.40621  1.52436  3173.73168  0.00061  57513.85379  50.03841  0.00706  19.36078  57523.63632 
    14.78555  1.47055  11.92788       2.44132         5511.56013  0.00141  0.13018     0.07759  0.15595     17.70159   9463.66593    -5.30771  1.04092  3675.37659  0.00028  57513.95229  50.72089  0.00917  19.60662  57523.63632 
    15.11861  1.92089  13.65335       1.75246         5574.58059   0.2429  0.29256     0.15026  0.12743     16.58923   9431.97763    -8.43905  0.57762  4935.69749    2e-05  57510.82095  50.71932  0.87584  19.16963  57523.63632 
    14.95355  1.63289  13.83933        3.0414         5373.23117  0.00189  0.01965     0.01067  0.51521     16.79991   3359.03766    -3.60802  0.80506  2628.68814    4e-05  57515.65198  50.99185   0.0449  19.20023  57523.63632 
    15.13074  1.65153  13.31553       2.55162         5210.34485  0.01303    0.139     0.06661  0.15993      18.6932   3983.43848    -6.49655  0.44652  3836.32631  0.00274  57512.76345  50.78174  0.08979  19.07129  57523.63632 
    14.93314  1.81041  13.24994       1.72811         5473.92173  0.05694  0.16521     0.16583  0.22816     16.34143   9651.65907    -6.50466  0.99916  4965.47619    1e-05  57512.75534  51.24779  0.68496  19.30649      57525.4 
    14.82834  1.75897  13.81982       2.44833         5165.52413  0.00807   0.0298     0.01442  0.79213     18.09492   9991.43346    -5.71219  1.44856  3790.95589  0.00069  57513.54781  51.41068  0.24247  19.31242  57523.63632 
     14.9863  1.73174  13.63661       2.44698         5396.63359  0.00359  0.19392     0.06992  0.11777     17.12709   9127.99789    -5.59867  0.77698  3570.90532    7e-05  57513.66133   50.2731  0.00885  19.27911  57523.63632 
    14.70261  1.57358  10.83462       1.48015         5808.06556  0.05386  0.12913     0.07319  0.37783       16.339   3441.04899   -10.21796  1.28046  5276.85878    1e-05  57509.04204  51.50648  1.04071  19.38388  57523.63632 
    14.73688  1.51204  11.72655       2.52204          5506.1529  0.00139  0.12764     0.06823  0.14018     20.16565   3223.53896    -4.68827  1.43303  3572.37382  0.08135  57514.57173  50.57916  0.00694  19.37872  57523.63632 
    14.95892  1.69841   12.5663       2.27775         5411.15882  0.00105  0.12308     0.05219  0.23997     16.05833   8407.16968    -8.22663  0.70376  3999.60846    1e-05  57511.03337  51.08548  0.01335  19.26446  57523.63632 
    14.99253   2.0216  14.80513       2.04666         5370.18091  0.00152  0.01855     0.04921  2.36549     18.80852   3432.53578    -6.87125  0.98971  5635.97253  0.00357  57512.38875  51.93892  0.06969  19.18492  57523.63632 
    14.90469  1.76491  12.62747        2.4341         5473.41255  0.00384  0.06458     0.02527  0.30741     16.27775   9535.97749    -7.06128  1.02516   2901.6278    1e-05  57512.19872  50.91419   0.0628  19.31863  57523.63632 
    14.80737  1.53565  10.21419       1.46059         5847.43282  0.00127  0.05985     0.06658  0.94434     19.76853   7932.62719    -8.98144   0.9264  6192.70384   0.0326  57510.27856  51.87223  0.04125  19.24614  57523.63632 
    14.78395  1.47429  11.23246       2.39661         5576.39266   0.0166  0.09224     0.02758  0.21521     17.18859   4684.44815    -6.95086  1.01649  2789.81327    9e-05  57512.30914  50.71538  0.18568  19.30404  57523.63632 
    14.81473  1.73058  12.72543       1.89014         5838.35283  0.00593  0.04228     0.08666  0.78425     17.29314   3238.39679    -6.82393  1.36123  4562.69701  0.00011  57512.43607  51.56953   0.1771  19.22422  57523.63632 
    14.87033  1.80345  13.61457       2.35781         5383.04684  0.00201   0.1023     0.46103  0.24262     17.13802   9760.05733     -6.0578  1.32749  4051.90267    8e-05   57513.2022  51.10215  0.02598  19.25973      57525.4 
     14.9676  2.19303  16.76474       2.88748         5523.09329   0.0136   0.0528     0.01499  0.10896     16.63497   4226.95831     -4.4265   1.4226  1882.12633    2e-05   57514.8335  49.45218  0.01822  19.36434  57523.63632 
    14.90389  1.65418  13.87129       3.14423          4954.8436  0.01407  0.09756     0.04031  0.15503     18.23151    3486.5739    -5.01222  0.89538  2705.63314  0.00095  57514.24778  50.44912  0.09065  19.27515  57523.63632 
    14.81948  1.79758  13.32964       1.92901         4814.95082  0.00134  0.09019     0.07161  0.52311     16.79598   7230.10732    -7.81173  1.21542  6001.78121    3e-05  57511.44827  51.71292  0.03219  19.41467      57525.4 
     15.1753  1.87844  14.70311       2.54862         5077.70442  0.02355  0.16741     0.07793  0.13695     17.84104   7332.68361    -5.76773  0.50751  3989.35462  0.00039  57513.49227  50.64468  0.10947  19.22935  57523.63632 
    15.03257  1.89773   13.4398       2.22405         5605.66297  0.00607  0.08074     0.03139  0.40276     18.08509   5803.55508    -7.84535  0.74892  3803.10622  0.00068  57511.41465  51.24229  0.12289  19.21582  57523.63632 
    14.83482  1.75306  12.57185       2.30482         5728.68129  0.00788   0.0454     0.03236  0.61356     17.12369   9110.64218    -6.85889  1.44848  3941.44165    7e-05  57512.40111  51.38748  0.20744  19.11138  57523.63632 
    14.93868  1.42211  11.91432       2.20703         5348.27116  0.01206  0.24675     0.16989  0.11376     16.60385   9376.44681    -6.56313  0.56469  4558.00935    2e-05  57512.69687  50.38638   0.0237  19.21795  57523.63632 
    14.95491  1.69388  12.77982       2.15007         5605.13416  0.00314  0.06183     0.02804  0.37405     17.01119   4476.88703    -6.97163  0.71271  3658.01538    6e-05  57512.28837  51.18493  0.06016  19.42114  57523.63632 
    14.82236  1.41059   9.98597       2.11018         5652.65806  0.10491  0.06185     0.03426  0.49695     18.19943   6070.36375    -6.24939  0.94751  3740.17389  0.00088  57513.01061  51.28853  2.44316  19.27167  57523.63632 
    14.80367  1.63268   12.6474       2.33144         5263.46009  0.00632  0.09728      0.0726  0.28606     17.75557   3691.31589    -7.24833  1.21193  3942.83137  0.00032  57512.01167  51.15193  0.09662  19.21689  57523.63632 
    15.09323  1.81903  11.82518       2.10004         5622.31362  0.04263  0.08626     0.03521  0.42449     16.93255   7610.87244    -8.28214  0.64307  3638.97538    5e-05  57510.97786  51.21997   0.8955  19.29722  57523.63632 
    15.05536  1.65072   12.8319       2.44364         5471.87348  0.00623  0.04859     0.01152  0.26109     19.99564   7538.83764     -6.0207   0.4906  2728.44705    0.055   57513.2393  50.79293  0.08705  18.98104  57523.63632 
    14.88872  1.94044  13.40286       2.70086         5544.97133  0.00696   0.0932     0.01705  0.18295     18.05762   8195.87105    -7.26846  1.45769  2395.12833  0.00063  57511.99154  50.48051  0.06154  19.50475      57525.4 
    14.78001  1.64334  13.39686       2.54483         5757.38527   0.0031  0.15554     0.08192  0.10714     18.22942   9180.50803    -5.75921  1.33768   3152.8168  0.00094  57513.50079  49.81322   0.0034  19.23605  57523.63632 
     14.9623  1.96099  13.65541       2.02786         5250.23571  0.05928  0.10437      0.0645   0.3876     17.21789   3517.65971    -8.21513  1.05333  4675.57521    9e-05  57511.04487  51.40962  1.16739  19.27445  57523.63632 
     15.0232  2.08491  12.62205       1.67955          5582.4436  0.03233  0.02316     0.01103  3.36379     20.08158   3155.45744    -8.76273  0.99333  7163.65347  0.06704  57510.49727  52.19298  1.64675   19.1965  57523.63632 
    15.11017  1.56943  12.20014       2.19152         5416.32279  0.00314  0.13618     0.04968  0.20074     16.03022   7190.48353    -7.09609  0.41366  4396.51752    1e-05  57512.16391  51.06948  0.03199  19.23218     57521.32 
    14.62696  1.29399   8.78742       1.78215         5230.99637  0.00816  0.15106     0.06153  0.39523     19.43384   4736.44902    -9.50386  1.50926  4335.61336  0.01509  57509.75614  51.35022  0.16296  19.43788      57525.4 
    15.08014  1.61868  11.88894        2.9663         5177.38381  0.01225  0.08519     0.05349  0.12155     20.19668   5370.88938    -3.59555  0.57089  2554.89872  0.08738  57515.66445  50.05604  0.03579  19.11301  57523.63632 
    14.69805  1.55572   10.6262       1.78986         5665.71377  0.03928  0.22641     0.14911  0.12519     20.22771    8693.3715    -8.55707  1.38931  4329.42031  0.09385  57510.70293  50.57337  0.13154   19.2697      57525.4 
    14.90277   1.9578  14.91605       2.16934         5402.01213  0.00102  0.02693     0.01923  0.98717     18.03704   6312.45232    -6.13051  1.43526  4251.95371  0.00061  57513.12949  51.55412  0.03384  19.11418      57525.4 
    14.99569  1.93889  13.84214       2.13489         5109.01818  0.00532  0.14932     0.14579  0.29706     17.16953   6069.94445    -7.67976  0.89568  5566.80494    8e-05  57511.58024  51.46675  0.08427  19.37838  57523.63632 
    15.00068  2.03623  17.16714       2.84494         5519.61606  0.01785  0.04043      0.0199   0.1135     17.00107   8434.55814    -3.68026  0.90557   1844.8356    6e-05  57515.57974  49.59328  0.03447  19.08871  57523.63632 
    14.84076   1.8488  13.69339       2.53001          5663.6121  0.00233  0.11141     0.03448   0.1445     16.78498   9769.49177    -6.93821  1.48724  2717.37954    3e-05  57512.32179  50.37818  0.01263  19.33917  57523.63632 
      14.787  1.61006  10.78659       2.40448          5489.8062  0.00183  0.05881     0.09439  0.40758     20.40765   7583.11322    -6.27392  1.22822  3706.61011  0.14203  57512.98608  51.22364   0.0374  19.16482  57523.63632 
    15.12007   1.9267  14.20424       2.10441         5093.93945  0.00546  0.12156     0.12025  0.31757     16.97804   4507.12098    -7.16512  0.62434  5107.27066    5e-05  57512.09488  51.41761  0.09184  19.27611  57523.63632 
