 log(Bfield)      Mns    Pspin  cutoff_power  cutoff_wavelength  fnickel    kappa  kappagamma  mejecta  log(nhhost)  temperature  texplosion  thetaPB     vejecta      A_V        MJD_0   log(KE)     M_Ni  Peak_mag     Peak_MJD 
    13.51694   1.6849  3.67331       2.02759         4093.77534  0.03421  0.02197     0.05361  0.18016     16.74847   8439.92437   -69.91937  1.23516  1559.25231    3e-05  54278.46314  50.09663  0.29466  20.35965  54326.94341 
    13.61036  1.97685  3.33344       2.00681         3959.47033   0.0019   0.0456     0.17255  0.16312     16.65262   8524.92429  -115.68915  0.60227  2134.55137    2e-05  54232.69335  50.29013  0.01362  20.36943  54324.22431 
    13.46153  1.86618  3.65749       1.96048         3990.15573  0.00423   0.0393     0.08749  0.14437     16.60003   5700.85508   -79.76302  1.38566  1822.80224    2e-05  54268.61948  50.03035  0.02289  20.32661  54316.06703 
    13.41672  1.73837  3.13891       1.82273         4055.95112  0.00148  0.05122     0.16017  0.13433     17.43036   9268.27221  -130.80769  1.53693  1545.76342  0.00015  54217.57481  49.79421  0.00647   20.3443  54324.22431 
     13.3834  1.50484  2.71217       1.74133         3990.59791  0.00462  0.03083     0.08409   0.2762     17.17697   5510.21286  -149.38614  1.26806  1435.52591    8e-05  54198.99636   50.2597  0.06836  20.41471   54335.1007 
    13.50754  1.88115  3.69619       2.01999         4077.96985   0.0032  0.01099     0.02608  0.38697     19.22093   8018.70437    -84.5834  1.45877  1434.70343  0.00924  54263.79911  50.38295   0.0629  20.31935  54307.90974 
    13.45927  1.62984  3.19895       2.11145         4050.07769  0.01608  0.01724     0.04161  0.22963     19.00424   5569.15878   -94.50797  0.93619   1350.6909  0.00561  54253.87453  50.12033  0.19489  20.21459  54291.59516 
    13.55544  1.69593  3.69364       2.30058         4070.81624  0.06351  0.02418     0.04255  0.12301     16.02129   6805.17988   -59.19875  0.91508  1406.82177    1e-05  54289.18375  49.56278  0.19656  20.35939  54326.94341 
    13.37174  1.42299  3.20141       2.32388         3987.77104  0.01449  0.03405     0.06195  0.10225      19.5431   3296.19178   -67.16253  1.25865  1286.33405   0.0194  54281.21997  48.61937  0.00611  20.33432  54307.90974 
     13.5333  1.86821  3.63162       1.92103         4059.92204  0.02557  0.04353     0.08504  0.11055     17.29247   9013.70767   -92.91895  1.23203  1341.52015  0.00011  54255.46355  49.22131  0.03964  20.35142  54316.06703 
     13.3883  1.52496   2.7159       2.34097         4029.65421   0.0225  0.01074     0.02157  0.21289     16.49651   7655.84314  -104.28123  0.72607  1029.49459    2e-05  54244.10127  49.84336  0.24811   20.3031  54310.62883 
     13.6121  1.66722  3.54408       2.13781         3987.03262  0.00458  0.01182     0.03191  0.33376     16.33431   5824.74404    -69.6365   0.7091  1570.27396    1e-05  54278.74601  50.41136  0.08023  20.17919  54291.59516 
    13.41339  1.34919  3.16862       2.12237         4208.29195  0.01075  0.01099     0.02862  0.22648      17.6416   3160.47793   -65.26978  1.17921  1247.95336  0.00024  54283.11272  50.04439  0.12818  20.45135  54343.25799 
    13.50884  1.98066  3.50832       2.06615          4115.4316  0.10187  0.03741     0.19393  0.11893     19.00625    3959.1034  -116.55096  1.19032  1717.51879  0.00564  54231.83154  49.66161  0.26559  20.19598  54288.87607 
    13.43202  1.83333  2.99755       1.73011         4130.55726  0.00325  0.04833     0.09639  0.12212     16.39211   5561.35222  -140.90082  1.13548  1305.99448    1e-05  54207.48168   49.4832  0.00972  20.36019  54329.66251 
    13.48643  1.62465  3.02458       2.22896         4023.80329   0.0045   0.0265     0.10496  0.16433     17.55251   6003.05023  -120.94523   0.8658  1578.06463   0.0002  54227.43727  50.03422  0.03277  20.30915  54321.50522 
    13.61902  1.82089  4.02669       2.45163         4074.71438  0.00122   0.0175     0.03266  0.10627     19.62998   4320.22882   -57.72063  1.12329  1046.57516   0.0237  54290.66187  48.80632  0.00119  20.04655  54256.24691 
    13.28551  1.25313  2.88556       2.04651         3993.83346  0.00286  0.03221     0.11398  0.14434     16.46746   4633.84672   -80.10308  1.44555  1738.37315    2e-05  54268.27942   49.9889  0.01549  20.32476  54307.90974 
    13.57819  1.61558  3.42762       1.55298         3994.87728  0.00117  0.08403      0.2627  0.11239     17.30187   3550.38986   -83.45999  0.81922  2305.82813  0.00011  54264.92251   49.7541  0.00209  20.33137  54324.22431 
     13.6164  1.67133  3.31848       1.96004         4147.40986   0.0218  0.03079     0.06826  0.13276     17.07925   7816.51833   -88.80368  0.68831  1431.43326    7e-05  54259.57882   49.7102  0.09152  20.37569  54329.66251 
    13.68427  1.86083  3.30091       2.00604         4091.68957  0.06783  0.01862     0.05036  0.18622     17.67948     3123.774  -125.86562  0.70168  1027.31936  0.00027  54222.51689  49.75769   0.6167  20.37807  54326.94341 
    13.47643  1.52794   3.6872       2.30022         4025.08134  0.00103  0.02486     0.05917  0.12929     18.19534   9187.48446   -52.80761  1.32331  1525.27251  0.00087  54295.57489  49.72387  0.00392   20.1579  54286.15697 
    13.26572  1.50861  2.83859       1.58311         3901.87869   0.0034  0.06476     0.16806  0.19203     16.28443   6218.88437  -111.69824  1.27386  2405.85496    1e-05  54236.68426  50.51755  0.03244  20.28226  54302.47155 
    13.59307  1.57341  3.33193       2.47732         4031.59534  0.00298  0.01775     0.04778  0.14169      17.9246   7863.93619   -88.88947   0.7188  1131.41627  0.00047  54259.49303   49.5938  0.01531  20.40119   54332.3816 
    13.39057  1.79973  3.30999       2.23424          3971.4884  0.00959  0.02094      0.0594  0.22275     16.41292   8423.23894   -94.25013   1.1466  1743.75897    1e-05  54254.13238  50.32612  0.11205  20.29256  54305.19064 
    13.59619  1.94062  3.69357       2.27127         3990.17825  0.00221  0.01506     0.07434  0.29497     18.20301   8117.53328  -103.53927  0.93732  1728.10409  0.00089  54244.84323  50.44787  0.03479  20.33129  54318.78612 
    13.55113  1.94379  3.48709       1.86051         4070.60761  0.00357  0.02856     0.04062  0.20496     16.53397   8989.39972   -98.06513  0.88658  1427.49483    2e-05  54250.31738  50.10507  0.03745  20.33636  54316.06703 
     13.2947  1.33892  3.05042       2.32373         3918.83876  0.11887  0.02441     0.06543  0.20311     18.40915   4036.92639   -76.45414  1.47173  1873.61959  0.00143  54271.92836  50.33581  1.22995  20.41937   54332.3816 
    13.47933  1.58883  3.30389       2.04253         4064.25727  0.07823  0.03065     0.08997  0.13606     17.83846   6519.66911   -76.47278  0.87216  1635.33699  0.00038  54271.90972  49.86113  0.35618  20.42097  54340.53889 
    13.42892  1.78414  3.49536       2.03829         4005.90828  0.00216  0.04364     0.08207  0.10844     18.18864   3134.86077    -79.6386  1.32257  1573.05089  0.00086   54268.7439  49.27354  0.00274  20.41533  54340.53889 
    13.60961  1.86244  3.76398        1.8462         4070.21805  0.00505  0.01892     0.05554  0.31014     18.74574    6541.8536   -86.29257   0.9782  1765.85844  0.00309  54262.08993   50.4862  0.08314  20.27764  54307.90974 
    13.49339  1.80934  3.65069       2.09121         3972.55212  0.00186  0.03446     0.08716  0.13015     17.87181   4482.04889   -83.05247  1.42066  1546.98358  0.00041  54265.33004  49.74686  0.00726  20.19738  54294.31426 
    13.57778  1.80168  3.92779       2.12534         3930.11894  0.02629  0.04452     0.14135  0.10728     18.27431   4141.12598   -66.38775  1.06711   1820.3069  0.00104  54281.99475  49.34379  0.02935  20.28236  54291.59516 
    13.50922  1.33046  3.05022       2.00341         3971.03723  0.00391  0.03017     0.06371  0.19472     19.01527   9549.93293   -61.48675  0.64405  2093.68607  0.00575  54286.89575  50.40588  0.03804  20.38718   54332.3816 
    13.42992  1.86344  3.40707       2.42517         4026.86177  0.00141  0.02315     0.04322    0.114     16.38906   7151.72455   -91.09459  1.11709  1134.61576    1e-05  54257.28791  49.18525  0.00282  20.37081   54335.1007 
    13.49196  1.72644  3.65685       2.06278          4143.8314  0.00631  0.02732     0.08854  0.10313     17.13387    9584.8854   -69.65164  1.56907  1360.94477    8e-05  54278.73087  48.77978  0.00344  20.17612  54297.03335 
    13.72839  2.09724  3.88722       1.95898         4005.01297  0.00857  0.02454     0.08655  0.23316     17.82004   7631.05476    -104.747  0.77292  1684.08703  0.00037  54243.63551  50.31978  0.10572  20.23488  54302.47155 
    13.63368  1.88819  3.53971        2.0764         3956.52138  0.00409  0.03315     0.10788  0.19883     17.18318   4519.36254  -116.35975  0.77057  1651.54499    8e-05  54232.02276   50.2131  0.04103  20.34149  54329.66251 
     13.4517  1.81103  3.37962       2.12393          4025.1891  0.01786  0.01642     0.07413  0.25927     17.25175   9403.51492  -115.73313  1.45113  1462.93972   0.0001  54232.64938   50.2484  0.24784  20.28444  54305.19064 
    13.57589  1.74437  3.82112       1.87179         3997.51513  0.01725  0.02614     0.09513  0.26058     16.37472   8340.23121   -76.82359   1.1834  2052.97686    1e-05  54271.55891    50.545  0.24061  20.33049  54310.62883 
    13.72399  1.72379  3.83109       1.56822         4061.51084  0.00861  0.02432     0.12734  0.36924     16.45443   3613.39579   -72.02799  0.73445  2218.03077    2e-05  54276.35451  50.74612  0.16345  20.30756  54316.06703 
    13.56977  1.74778  3.51674       2.23496         3979.46463  0.00528  0.01661     0.06164  0.24483     18.55945   6320.45142   -86.96634  0.81216  1642.52207  0.00201  54261.41616  50.32224  0.06893   19.8438  54218.17957 
    13.58282  1.79146  3.52396       2.10346         3993.63367  0.02789  0.02927     0.08064  0.16303     16.23728   4574.81956  -106.98553  1.08382  1326.45105    1e-05  54241.39697  49.87646  0.19995   20.4143  54340.53889 
    13.41187  1.73523  3.30331       1.82347         4120.78895  0.00682  0.03801     0.06996  0.13572     18.96123   5113.63629   -74.83944  1.12028  1747.05335  0.00508  54273.54306  49.91508  0.03079  20.38489  54329.66251 
     13.4801  1.94295  3.62426       1.85804         3993.70336  0.00395  0.03008     0.12647  0.23781     17.09456   4238.99666  -101.55001  1.36992  2091.76714    7e-05  54246.83249  50.51801  0.04991  20.34438  54318.78612 
    13.67205  1.47687  3.43378       1.83427         3920.47675  0.00345  0.02911     0.08537  0.25464     18.91178   5413.85938   -69.98833  0.63153  2113.92243  0.00453  54278.39417  50.55991  0.04691  20.36449   54332.3816 
    13.71841  1.73053  3.56818       1.45314         3992.56508  0.00594  0.05628     0.21527   0.2612      17.1192   6561.55166   -95.26105  0.66633  2937.26198    7e-05  54253.12145  50.85719  0.08307  19.97095  54258.96601 
    13.53465  1.79511   3.4768       2.04554         4041.60706  0.01226  0.01584     0.03122  0.25342     17.31401   4163.89022   -85.05572  0.90589  1355.83317  0.00011  54263.32678  50.17192  0.16612  20.42645  54340.53889 
    13.62165  1.50249  3.15383       2.27526         4006.38383  0.00198   0.0104     0.01611  0.34995     18.41066    6225.7053   -79.57407  0.54645   1228.4519  0.00143  54268.80843  50.21479    0.036  20.18216   54267.1233 
    13.88047  1.98879  3.87211       1.78311         4079.07693  0.01019  0.01209     0.03194  0.54199     18.54354   7038.82734   -82.22556  0.47195  1972.45897  0.00194  54266.15694  50.75555   0.2501  20.32583  54316.06703 
    13.61012  1.67351  3.44002       2.05995          4025.8888  0.05154  0.03574     0.08161  0.13782     18.82331    4632.8777   -80.12534  0.70609  1682.90804   0.0037  54268.25716  49.90342  0.24424   20.3117  54307.90974 
    13.65279  1.62823  3.61854       2.13904          4018.9629   0.0029  0.01675     0.04732  0.23057     18.56379   8070.82558   -67.53086   0.6937  1559.59599  0.00203  54280.85164  50.24734  0.03538  20.32969  54313.34793 
    13.35623  1.45516  3.06129       1.52861         3950.28248   0.0028  0.04497     0.16133  0.24684     16.36712   3442.23073   -95.21125  1.54222  2405.18432    1e-05  54253.17125  50.65743  0.03685  20.36987  54318.78612 
     13.3087  1.66196  3.26747       1.89277         3905.16924  0.00181  0.01236      0.0274  0.63557     17.81821   3088.42146   -64.96559  1.54053  2468.22192  0.00037  54283.41691  50.98926  0.04848  20.39082   54332.3816 
     13.6298  1.84593  4.11245       2.19495          4170.9521  0.00418   0.0183     0.06165  0.10341     18.25272    4038.3196   -58.01591  1.34602  1146.86598  0.00099  54290.36659  48.66203  0.00245  20.41898  54329.66251 
     13.9056  2.05883  3.72107       1.82598         4021.86791  0.04584  0.05272     0.19258  0.12268     17.53881   6303.16684  -121.47532  0.60193  1452.73013  0.00019  54226.90718  49.58512  0.14009  20.30958  54305.19064 
    13.53083  1.70205  3.87322       1.90962           4033.228  0.01458  0.02732     0.09443  0.20741     17.87767    6812.2474   -60.28904  1.33739  1941.96286  0.00042  54288.09346  50.37948  0.15528  20.33931  54318.78612 
    13.46414  1.46715  3.46377       2.21875         4061.82784   0.0808  0.02499     0.07082  0.11809     17.20267   9661.77719   -66.19153   1.5635  1285.20439    9e-05  54282.19098  49.39223  0.20232   20.4143  54343.25799 
     13.5012   1.7761  3.40777       1.80263         4061.99775  0.00123  0.01864     0.06447  0.34304     18.24952   7593.54422  -112.91159  1.52512  1508.63363  0.00099  54235.47091  50.38631  0.02208  20.21965  54294.31426 
    13.39451  1.72226  3.35246       1.96005         4038.51717  0.06882  0.03982     0.10843  0.12199     16.46747   4555.08302   -80.12837  1.25261  1800.97733    2e-05  54268.25413  49.76007  0.20472  20.30625  54310.62883 
     13.4188  1.60064  3.21964       1.97711          4039.3616   0.0063  0.04723     0.11643  0.10119     19.78993   3574.52747   -68.94341  0.99505  1827.79901  0.03425  54279.43909  48.73151   0.0017  20.30657  54313.34793 
    13.61565  1.76537  3.61765       2.06111         3959.44757  0.00445  0.02701     0.10493  0.18585     16.50535   3424.09878   -91.72261  0.87601  1602.20215    2e-05   54256.6599  50.14232  0.04031  20.22969  54299.75245 
    13.61566  1.87371  3.37444       1.99646         3938.13211  0.04408  0.05568     0.10754  0.12143     18.70637   9522.49143  -101.73928  0.62201  1630.92453  0.00283  54246.64322  49.66409  0.12818  20.27013  54302.47155 
    13.91379   2.0995  4.40002       1.98093         4104.48818  0.00245  0.01423     0.04988  0.29109     17.64766    9267.5533   -72.07729  0.63551  1667.98614  0.00025  54276.30521   50.4118  0.03807  20.33852  54324.22431 
    13.51148  1.91749  3.57217        2.3014         4075.22117  0.02576  0.01917     0.03166  0.14041     18.86901   6484.18091   -98.63515  1.28091  1009.72931  0.00411  54249.74736  49.48369  0.12899  20.35723  54316.06703 
     13.2212  1.47689  2.84279       2.26067         3914.26058  0.00311  0.02119     0.04761  0.26285     17.37161   9745.18745  -103.27107  1.50233  1640.87684  0.00013  54245.11143  50.35427  0.04372  20.42797  54345.97708 
    13.50004   1.9013  3.70008       2.02424         3897.06082  0.02327  0.04662     0.10387  0.14746     18.16836   9184.53494  -100.53392  1.52569  1659.46286  0.00082  54247.84858  49.97269  0.13302  20.26582  54291.59516 
    13.78088  1.64435  3.48572        2.2168         3998.67069  0.22265  0.02353     0.06347  0.19928     17.27718   6653.99127   -84.47861  0.46344  1569.29585  0.00011  54263.90389  50.17016  2.24263   20.3745   54332.3816 
    13.26673    1.574  2.75015       1.68584         4031.38927  0.00539  0.02489       0.037  0.27592     19.63544    4492.8869  -112.76791   1.4487  1494.24678    0.024   54235.6146  50.29408  0.07972  20.08902  54272.56149 
    13.43799  1.64708  3.07368       1.90589         4136.22862  0.00125  0.03545     0.07871  0.11249     18.38773   9590.02314   -96.24018  0.92414  1382.01945  0.00136  54252.14232  49.31234  0.00226  20.37956   54332.3816 
    13.47236  1.48523  3.30388       2.11708         4169.38871  0.01488  0.01956     0.06381  0.12746      16.6125   5357.27914   -75.48877  1.26321  1192.73389    2e-05  54272.89373  49.48607   0.0537  20.39422   54335.1007 
    13.53709  1.97969  3.79494        2.1598         4104.62032  0.00178  0.02073     0.06325  0.15187      17.7346   6533.76166   -89.37921  1.27958  1330.13245   0.0003   54259.0033  49.81177  0.01091  20.37497   54332.3816 
    13.80679  1.83071  3.70002       2.27544         4004.98202  0.00693  0.01577     0.05367  0.21918     17.85855   5925.27139   -90.89569  0.51866  1372.16241   0.0004  54257.48681  50.10918  0.07936  20.42423   54335.1007 
    13.28807  1.33327  3.02488        2.1007         4030.84221  0.00101  0.03272     0.10668  0.13587     18.43234    3231.1753   -71.19454   1.5686  1687.45408   0.0015  54277.18796  49.88648   0.0046  20.30559  54316.06703 
    13.54126  1.52445  3.66683       2.07622         4157.84046  0.00128  0.01251     0.02761  0.22977     16.61916   9560.12452   -54.57568  1.19358  1364.70724    2e-05  54293.80682   50.1296  0.01548  20.37691   54332.3816 
    13.33523  1.34076  2.97497       1.79403         3934.49146  0.00156  0.04438     0.19266  0.19492     18.64149   9109.86151   -87.41505  1.27719  2302.41789  0.00243  54260.96745  50.48911  0.01522  20.39162  54329.66251 
    13.44374  1.71596    3.571       2.54732         3929.63017  0.00142  0.02498     0.05037  0.10177     19.28808    8846.9291    -65.9757  1.16132  1245.28983  0.01078   54282.4068  48.51441   0.0005  20.18389  54272.56149 
     13.4718  1.65956  3.28304        1.4929         4121.92097  0.07459  0.03573     0.07807   0.2672     17.47813   9862.22207   -90.14442   0.9752  2172.43423  0.00017  54258.23808  50.60527   1.0676  20.39462   54335.1007 
    13.52778   1.6349  3.65674        2.2854           4080.447  0.00261  0.02002     0.04639  0.12789     16.44017   6868.33066   -62.58582  1.05791  1260.70668    2e-05  54285.79668  49.54011  0.00956  20.32936  54310.62883 
    13.38163  1.70433  2.93295       1.84088         4025.74025  0.02966  0.06457     0.19369  0.10554     18.75389   4275.51767  -131.70964  1.11964  1740.26815  0.00315  54216.67286  49.20093  0.02608  20.21919  54297.03335 
    13.56877  1.76964  3.76404       2.06871         3932.86815  0.03113  0.03001     0.09406  0.16001     16.70326   8840.77017   -85.96884  1.46857  1443.71672    3e-05  54262.41366  49.93332  0.21475  20.30697  54316.06703 
     13.5583  2.15388  4.10567       2.13059         4078.61126  0.00421  0.02552     0.05875  0.12442     16.28809   3528.67352   -74.36194  1.45817  1369.91622    1e-05  54274.02056  49.56214  0.01371  20.16191  54291.59516 
    13.42581  1.70074   3.2721       2.10728         4067.52475  0.02012    0.023     0.08038  0.15223     19.42466   6076.31882   -97.79544   1.2324  1370.87483  0.01477  54250.58706  49.84045  0.12433  20.36695  54324.22431 
    13.65038  1.68965  3.61413       1.84747         4213.51255  0.02252  0.02416     0.09641  0.14592     19.53653   5348.75874   -72.91812  0.94437  1335.45332  0.01911  54275.46438  49.77238  0.12534  20.31196  54316.06703 
    13.48058  1.66469  3.67883       2.23994         3908.03115  0.00135  0.01053     0.03112  0.45309     17.92442   3607.31952   -76.08055  1.56372  1669.00452  0.00047  54272.30196    50.562  0.02955  20.39272  54329.66251 
    13.55259  1.56376  3.16952       1.62792         4052.36422  0.02636  0.03701     0.09636  0.21981     16.34674   6401.38867   -86.28124  0.66417    1994.317    1e-05  54262.10126  50.43554  0.30284  20.39629   54332.3816 
    13.46325  1.76135  3.52676       1.81749         4125.99221  0.00507  0.02625     0.05486  0.19761     17.08587   4485.99516   -73.84161  1.19984  1674.93172    7e-05  54274.54089  50.22147  0.05045  20.32989  54318.78612 
