 texplosion  fnickel     Pspin  log(Bfield)      Mns  thetaPB   mejecta    kappa  kappagamma     vejecta  temperature    alpha  cutoff_wavelength  log(nhhost)      A_V         MJD0  kenergy   mnickel                 TSD   log(L0)  Peak_mag     Peak_MJD  log(E_rad)  log(Peak_lum)  Rise_Time     E_fold  tau_1  delta_m15     r_peak     frac 
 -196.72389  0.18891  22.84435     13.07754  1.75616  0.02002  93.50497  0.01078      0.0817  1318.71494   9324.32082  4.30409         2707.26709     17.92687  0.00047  54151.65861  0.96998  17.66428    5954671986.83775  40.02099  20.54436  54324.66528    51.21441       43.97412  110.11362  136.80783  150.0    0.01754  -20.44104      0.0 
 -197.65578  0.21573   26.5545     13.58249  1.27348  0.37946  80.34187  0.01383     0.03786   1327.4733   8317.60529  4.25342         2660.36264     17.96377  0.00051  54150.72672  0.84454   17.3321     570298624.78581  40.76946  20.55538  54331.60143    51.28811       44.07419   88.42457  130.13428  158.0    0.01705  -20.39983  0.00033 
  -191.8706  0.21743  29.91314     14.25642  1.95106  0.22554   81.4954  0.01032     0.49274  1269.38884   5964.51218  4.23593         2732.60943     19.57745    0.021   54156.5119  0.78334  17.71989      49770337.43766  41.91042  20.52714  54322.35322    51.25893       44.03556  101.77168  131.80266  178.0    0.02028  -20.45354  0.00151 
 -195.31177  0.20787   3.78861     14.91712  1.57888  0.65244   86.8438  0.01165     0.02338  1417.38223   9310.22806  2.69369          2748.4676     18.92173  0.00464  54153.07073  1.04073  18.05179         30823.42529  46.82135  20.45221  54313.10502    51.25405       44.04766   86.75618  128.46589  148.0    0.01833  -20.44876  0.42047 
 -184.90445   0.2538  23.98854     14.05391  1.57143  1.45006  63.44894  0.01454     0.05401  1424.29336    6684.9056  4.72865         2633.46791     17.43775  0.00015  54163.47805   0.7678   16.1031      65507482.61955  41.88884   20.5932  54345.47375    51.14203       43.95033    85.0878   126.7975  172.0    0.01634  -20.44167   0.0116 
  -153.5929    0.283   7.75917     14.46202  1.06368  0.19237  46.07378  0.01356     0.15484  1433.86644   7817.27828  4.04051         2753.08152     17.86155   0.0004  54194.78961  0.56507  13.03904        708289.28857  44.66582  20.52897  54324.66528    51.20645       43.97982    98.4349  131.80266  174.0    0.02166  -20.40518    0.094 
 -181.81654  0.20708  13.28652     14.02087  1.51875  0.76984  74.97075  0.01029     0.01639     1360.05   4886.90981  4.50442         2674.25448     18.34023  0.00122  54166.56596  0.82723  15.52504      22613915.97754  42.84913  20.49968  54317.72912    51.23535       44.01111  101.77168  131.80266  182.0    0.01882  -20.43264  0.04039 
 -182.66013  0.23284  11.29099     12.88004  1.88485  0.80231  73.98218  0.01021      0.2696  1362.36446   8855.65208  4.78265         2648.87231     19.68924  0.02716  54165.72237  0.81911  17.22602    3876893620.31103  40.85017  20.56084  54333.91349    51.19165       43.96148    98.4349  133.47105  162.0    0.02037  -20.48992  0.00153 
 -188.74875  0.22695   4.52397     12.03889  1.77499  0.64473  72.59193  0.01097     0.09251  1258.08898   9771.22242  4.70507         2765.61634     16.01439    1e-05  54159.63375  0.68539  16.47509   28201870052.46898  40.75672  20.53114  54326.97733    51.22802       44.00691   90.09296  131.80266  152.0    0.01968  -20.43598  0.00092 
 -182.76843  0.21804  22.10405     13.39187  1.73729  1.22229  76.36822  0.01271     0.06693  1504.90285   4081.72955  4.92737         2592.18798      16.3517    1e-05  54165.61408  1.03171  16.65146    1296838966.35477  40.70689  20.52767  54324.66528    51.19502       44.00827   81.75102  123.46072  172.0     0.0185  -20.48558  0.00182 
 -141.48587  0.33248  13.28245     12.36257  1.85579  1.44922  44.42616  0.01191     0.03126    1577.353   6416.42597  4.34253          2644.0594     19.86002  0.04025  54206.89663  0.65936  14.77091   57246614116.55847  39.53307  20.53731  54326.97733    51.23746       44.04804    85.0878  125.12911  180.0    0.02663  -20.45918  0.00017 
 -195.74418  0.23684  28.94885     13.71091  1.76039  1.51455  74.65281  0.01306     0.24069  1411.25922    5221.2998  3.30888         2693.98161      16.8868    4e-05  54152.63833  0.88693  17.68103     518637650.23728  40.87633   20.4851  54322.35322    51.23628       44.05151   83.41941  125.12911  172.0    0.02008  -20.44148  0.00251 
 -165.83695  0.28625  19.96524     12.56151  1.95304  0.30148   54.0466  0.01559     0.02093  1489.69128   4182.63478  3.94637         2665.95032     17.64559  0.00025  54182.54555  0.71546  15.47099    54457652834.0574  39.22295  20.60033  54333.91349    51.17363        43.9614   93.42974   126.7975  172.0    0.02015  -20.42536    1e-05 
 -191.60895  0.20511  22.56519     13.54145  1.65436  0.74699  83.56848  0.01247     0.38465  1335.82627   9937.51245   4.9255         2650.37162     16.94562    5e-05  54156.77355  0.88955  17.14053     646278140.85075  40.97018  20.58251  54336.22554    51.22119       43.97564  108.44523  136.80783  144.0    0.01812  -20.43301  0.00169 
 -168.64402  0.24645  16.13046     12.53913  1.48854  1.31077  63.70197  0.01079     0.24076   1436.9136   8315.83239  4.11393         2665.54153     18.68074  0.00266  54179.73849  0.78459  15.69945   30033560485.93651  39.54871  20.60854  54340.84964    51.15989       43.94874   75.07747  130.13428  166.0    0.02064  -20.43497  0.00015 
 -155.36415  0.26547   26.5295      13.8857  1.44354  1.25128  55.57088  0.01002     0.06556  1433.32663   9154.17454  3.86988         2777.54215     16.24986    1e-05  54193.01835  0.68103  14.75258     159697999.75116  41.37752  20.59883  54336.22554    51.22494       44.00834    98.4349  130.13428  162.0     0.0207  -20.43129  0.00601 
 -186.00209  0.29227  16.32788     12.42208  1.84972  0.58558  59.51706  0.01417     0.03809  1530.94744   5535.68522  4.59204         2606.22663      17.3527  0.00013  54162.38041  0.83213    17.395   65558539831.44765  39.29346  20.50904  54317.72912    51.27704       44.05163  103.44007  131.80266  174.0    0.02034  -20.53203    3e-05 
  -164.1698  0.23387   3.10966       13.291  1.95382   0.1939  60.46496   0.0113     0.31579  1576.64603   7102.57106  4.38638         2637.23649      19.1557  0.00795   54184.2127   0.8966    14.141      45933041.94177  43.91218  20.46884  54313.10502    51.27457       44.05969   95.09812  128.46589  202.0    0.02037  -20.46175  0.12572 
 -166.70835  0.31247   5.17442     12.02735  1.76888  1.22667  47.93334  0.01939     0.07209  1546.09302   8003.62718   4.6942         2694.15871     18.58725  0.00215  54181.67415   0.6835  14.97787    38772971752.0236  40.50029  20.47802  54320.04117    51.22061       44.02067   90.09296  128.46589  156.0    0.01709  -20.45597  0.00137 
 -116.95747  0.32162  13.21283     12.69839  1.73345  0.83506  36.62542  0.01217     0.01774  1829.11476   9724.79404   4.5555         2687.63446     16.56877    2e-05  54231.42503  0.73096  11.77945   11270249564.77668  40.21383  20.53198  54320.04117    51.23854       44.00142  105.10845  135.13944  146.0    0.02496  -20.39551  0.00056 
 -198.16925  0.22827   1.81002      15.1504  1.31952   0.8751  80.17246  0.01167     0.36042  1272.07445   8668.37697  2.54151         2903.02154     18.04291  0.00061  54150.21325  0.77389  18.30101          2008.16888  48.57109  20.60253  54338.53759    51.18841       43.98042   93.42974  128.46589  160.0    0.01819  -20.40906  0.96507 
 -148.16216    0.264  16.11607     13.94202  1.70904  1.46356  50.77479  0.01523     0.02271  1644.77848   9863.23001  4.11838          2647.7909     16.63562    2e-05  54200.22034  0.81939  13.40457      53833723.34312  42.35602  20.53005  54320.04117    51.20923       43.97885  103.44007  133.47105  142.0    0.02157  -20.40713  0.03592 
 -195.74422  0.18009   6.54462     14.75911  1.46369  0.98275  94.51364  0.01012     0.18012  1266.74539   6044.00323  4.38793         2744.83803     16.23259    1e-05  54152.63828  0.90469  17.02102        176529.08151  45.55571   20.5254  54329.28938    51.18593       43.98641   90.09296   126.7975  174.0    0.01584  -20.42147  0.17055 
 -191.38854  0.21358   7.28688     12.54445  1.75425  0.21936  81.68146  0.01125     0.01319  1303.98259   5686.94374  3.57746         2739.81372     16.51662    2e-05  54156.99396   0.8285  17.44561    7048502737.49111  40.93976  20.52988  54324.66528    51.25309       44.00781  106.77684  138.47622  176.0    0.01814   -20.4178  0.00017 
 -147.84008  0.36999  20.25844      13.2811  1.44263  0.86004  40.37572   0.0138     0.16999  1708.58181   6233.32625  3.63432         2637.74094     18.84918  0.00393  54200.54243   0.7031  14.93856    1506525901.42406  40.63681  20.58816  54338.53759    51.19071       43.95641  106.77684  135.13944  178.0    0.02444  -20.47601  0.00116 
   -173.961  0.31156  12.59759     13.30378  1.53306  0.62739  51.55588   0.0137     0.06524  1383.81072   9565.65492  3.89396         2793.92621     16.26221    1e-05   54174.4215  0.58892  16.06269     557689520.84769  41.50744  20.54008  54329.28938    51.21479       44.00156   96.76651  128.46589  154.0    0.01907   -20.4694  0.00466 
 -187.98865  0.21478  17.89671     15.16419  1.82957  0.53479  82.94433  0.01004     0.13374  1305.76385   9440.47987  3.69083         2747.88064     19.78916  0.03419  54160.39386  0.84361  17.81459        255463.29658  44.61832  20.53697  54329.28938    51.20235       44.00312   90.09296  128.46589  156.0    0.01587  -20.46624  0.03464 
 -180.58942  0.20773  20.53621     14.32034  1.49395  0.38463  82.03247  0.01083     0.04634  1522.86844   3266.80466  3.90483         2585.64456     18.67471  0.00263  54167.79308  1.13485  17.04039      13381696.28894  42.69163   20.5884   54343.1617    51.22107       43.94398   93.42974  141.81299  176.0    0.01792  -20.48783  0.01223 
 -173.97761  0.25842   5.64091     12.19703  2.07079  0.08192  64.25978  0.01022     0.13024  1460.52904   3926.53073  4.18812         2681.88363     18.78262  0.00337  54174.40489  0.81769  16.60598     24694049683.922  40.68969  20.45151  54313.10502     51.2507       44.05771   75.07747  125.12911  180.0    0.02162  -20.50361    1e-05 
 -169.02515  0.21019   9.62687     14.24808  1.71293  0.70787   68.2692  0.01136     0.48572  1574.38934   5921.30387  3.11284         2662.96768     16.31852    1e-05  54179.35735  1.00943  14.34971       4702974.35304  43.86324  20.56676  54329.28938    51.20847       43.98724   96.76651  131.80266  178.0    0.01864  -20.45755  0.11424 
  -150.5641  0.35706    28.578     12.38018  1.72188  1.54802  42.64171  0.01215     0.03885  1659.49532   6491.03541  4.34884         2607.86678     18.84594   0.0039   54197.8184  0.70051  15.22566  226738672324.65152  38.23726   20.5315  54326.97733     51.1872       43.99644    85.0878  125.12911  182.0     0.0247  -20.49863    1e-05 
 -162.50148  0.32581  20.48828     12.17884  2.04907  0.67741  48.71862  0.01243     0.35937  1547.31469   3033.05502  2.64709         2826.90794     16.90635    4e-05  54185.88102  0.69579   15.8731  350511655445.28143  38.41269  20.59611  54331.60143    51.17774       43.95973    98.4349  131.80266  180.0    0.02138  -20.45595      0.0 
 -174.90897   0.2556   5.45207      12.3363  1.86142  1.40722  61.70097  0.01287     0.13238  1457.87403   9236.29474  4.22506         2677.82234     16.59118    2e-05  54173.47353  0.78227  15.77047   10918931386.95204  41.02739  20.47516  54313.10502    51.24415       44.02091  101.77168  131.80266  152.0    0.01852  -20.44974  0.00475 
 -188.87556  0.28685   5.73728     12.40622  1.86853  0.39436  61.66822   0.0116     0.39954  1280.23028   3480.36619  2.33726         2940.53783     16.57642    2e-05  54159.50694  0.60293  17.68949    8796022250.56359  41.07865  20.49207  54313.10502    51.26093       44.05063   95.09812  128.46589  182.0    0.01883  -20.40461  0.00073 
 -157.65089  0.20008   6.71939     14.92714  1.49747  0.16556  65.42716  0.01044     0.16442  1608.11182   7760.08206  4.98229         2686.92672     19.73631  0.03027  54190.73161  1.00929  13.09095         87810.53624    45.846  20.56069  54331.60143    51.17767       43.96436   93.42974  130.13428  166.0    0.02671  -20.53458  0.20143 
 -163.52692  0.30195  29.91492     14.99585  1.68603  0.92205   52.9806  0.01037     0.11053  1599.49088   8852.02204  4.81528         2657.97938     19.41544  0.01446  54184.85558  0.80855  15.99744       1428085.96593  43.38918  20.57644  54345.47375    51.14132        43.9485    85.0878  125.12911  162.0    0.02318  -20.56539  0.01237 
  -182.9279  0.26544  21.48356     12.23921  1.61471  0.51533  63.47134  0.01197     0.04236  1412.22591   9520.23328   4.1648         2766.95262     16.41252    1e-05   54165.4546  0.75512  16.84804  229983231231.73596  38.45103  20.54772  54329.28938    51.20536       43.99308   95.09812  128.46589  152.0     0.0199  -20.51348      0.0 
 -187.21145  0.24018  10.17074      12.8579  1.39163  0.97695  73.77029  0.01023      0.3335  1459.99426   9329.16715  4.26306         2671.04811     19.16159  0.00806  54161.17105  0.93802  17.71778    2571873608.97786  40.98741  20.56038  54326.97733    51.20118        43.9765    98.4349  133.47105  154.0    0.01861  -20.53623  0.00266 
 -190.99708  0.24345  24.96074     15.06403  1.58835   0.1969  72.04559   0.0126     0.42035  1419.81202   8804.90449  3.37207         2682.89781     16.63225    2e-05  54157.38542  0.86636  17.53936        684263.86293  43.84005   20.6204  54340.84964    51.14819       43.95097   88.42457   126.7975  156.0     0.0206  -20.46043  0.01324 
 -169.17389  0.27643  26.06783     12.01456  1.69507  1.24249  60.42976  0.01169     0.10835  1581.86128   8831.74351  4.76414         2611.80945     19.67703  0.02641  54179.20861  0.90202  16.70489  1000236893454.4167  37.66572  20.56653  54333.91349    51.20079       43.98698   96.76651  130.13428  158.0    0.02216  -20.54976      0.0 
 -173.26922  0.25513  19.90995     15.13449  2.03211  0.96157  73.48572  0.01292     0.35638  1570.25902   7618.50623  3.89231         2622.04449     20.34753  0.12367  54175.11329  1.08087  18.74834        402638.58398  44.37374   20.4597  54313.10502    51.27382       44.05895   96.76651  130.13428  166.0    0.02001  -20.59084  0.03137 
 -198.05383  0.22575  27.51767     13.88684  1.79218   0.3427  82.64511  0.01178     0.01171   1307.8731   9514.77391  4.53859         2631.12072     19.69747  0.02768  54150.32867  0.84329  18.65699     212193060.39381  41.31627  20.51851  54320.04117    51.23117       44.01249   95.09812  130.13428  152.0    0.01591  -20.46247  0.00086 
 -198.37187  0.20821  27.52992     13.89739  1.72017  0.54872  92.32277  0.01075      0.0714  1431.20908   6713.08781  2.81627         2680.09961      17.2289    9e-05  54150.01063  1.12809   19.2222     194182570.66947   41.3366  20.48018  54317.72912     51.2284       44.02481   90.09296  128.46589  172.0    0.01839  -20.47875  0.00192 
  -179.8882  0.29709   8.99939     12.88032  2.09944  0.57319  58.27102  0.01556     0.13815  1410.51106   3006.01705  2.98022         2773.90882     17.19089    9e-05   54168.4943  0.69156  17.31192    2739752154.44528  41.24481  20.59765  54336.22554    51.15607       43.93767  100.10329  130.13428  176.0    0.01838  -20.45477  0.00216 
  -184.7532  0.18193  24.65512     12.90372  1.85413  1.06311  91.23176  0.01031     0.12724  1375.16433   5211.72856  4.49392         2650.47372     18.93309  0.00476   54163.6293  1.02916  16.59804    16305428263.4208  39.54084  20.50522  54320.04117    51.21987       44.02391   83.41941   126.7975  174.0    0.01943  -20.43103  0.00012 
 -157.54856  0.26093  23.42131     12.85642  1.77782  0.00624   57.8875  0.01025     0.47571  1522.64995   8842.11853  4.78069         2658.85078      19.2377   0.0096  54190.83394  0.80059  15.10472   17542005470.07644  39.53543  20.64109  54345.47375    51.22726       43.98808  108.44523  136.80783  160.0    0.02458  -20.47739      0.0 
  -188.2738  0.23917   8.75916     14.79201  1.83561  0.00356  75.52873  0.01127     0.27312  1497.05112   5215.80471  3.22452         2593.82881     16.61612    2e-05   54160.1087  1.00975  18.06383        340801.34141   45.1152  20.48342  54315.41707    51.24746       44.01065  103.44007  133.47105  178.0    0.01943  -20.47799  0.00067 
 -184.66726  0.29378  29.87968     13.89977  1.55443  0.77349   56.7641  0.01467     0.02509  1396.89825   4786.87928  4.55448          2695.1114      17.0316    6e-05  54163.71524  0.66074  16.67631     204455513.53119  41.19907  20.52761  54326.97733    51.23065       44.00182    98.4349  133.47105  176.0    0.02178  -20.47729  0.00258 
  -176.6052  0.28198   3.61655      12.8414  1.63541  0.40453  67.44793  0.01053     0.01473  1440.22012   9344.08309  3.69636         2743.34124     20.26252  0.10168   54171.7773  0.83455   19.0187     412317014.39386  42.75065  20.48334  54306.16886    51.29809       44.03976   86.75618  146.81816  166.0    0.01895  -20.60722  0.03112 
 -189.72118  0.23105  13.29425     14.69211  1.58159  0.74528  73.16245  0.01149      0.0361  1356.10768   6681.98013  4.26847         2693.12941     16.75807    3e-05  54158.66132  0.80261  16.90392       1071546.59552   44.1906  20.53897  54317.72912    51.22393       43.99063  106.77684  135.13944  176.0     0.0168  -20.46722  0.05169 
 -172.90224  0.20382  25.62771     13.69585  1.49582  1.03786  78.03779  0.01121     0.01581  1603.69729   6797.82095  4.61067         2640.97692     18.41044  0.00143  54175.48027  1.19723  15.90586      370174125.2662   41.0579  20.56277  54338.53759    51.26808       44.04234  103.44007  131.80266  168.0    0.02086  -20.51173  0.00307 
  -164.5898  0.15193    1.4651     14.50667   1.4011   0.9268  90.20498  0.01141     0.04197  1445.31162     3211.495  4.50832         2674.02468     16.32366    1e-05   54183.7927  1.12404  13.70473         27081.99788   47.6509   20.5121  54320.04117    51.25936       44.06113   90.09296   126.7975  170.0    0.01814  -20.40081  0.87437 
 -163.16084  0.27278  23.51836     15.09966   2.0217  0.68749  56.19484  0.01236     0.02338  1460.49766   5975.96713  3.33421         2805.31203     17.95206   0.0005  54185.22166  0.71503  15.32886        656172.04139  44.01473  20.52709  54329.28938    51.21999       44.00589    85.0878  130.13428  176.0    0.02308  -20.44316  0.02711 
 -144.77042  0.24655  23.67833     13.10001  1.12854  0.06593  55.70865  0.01097      0.0413  1527.90199   6811.10303  4.46988         2745.75409      16.3587    1e-05  54203.61208  0.77578  13.73495    3706909282.66703  40.00365  20.47669  54315.41707    51.23568        44.0061  105.10845  133.47105  174.0    0.02098  -20.42295      0.0 
   -184.539  0.19365   5.33439     14.41809  1.84076  0.40176  69.70661  0.01117     0.35216  1475.50825   9889.71173  4.38898         2615.63577     19.31853  0.01157   54163.8435  0.90528  13.49864        709258.08813  45.22887  20.46442  54317.72912    51.23581       44.03525   90.09296  128.46589  152.0     0.0269  -20.58821  0.34283 
 -152.14289  0.28984  23.88668     14.39439  1.58247   0.3515  49.79444  0.01015     0.04902  1527.66559   5970.40274  4.57275         2780.66201     18.60755  0.00225  54196.23962  0.69321   14.4326      13636112.12992  42.57718  20.53859  54333.91349    51.17652       43.95899    98.4349  131.80266  182.0    0.02534  -20.50291  0.01057 
 -182.71106  0.19849    7.4322     14.42165  1.96441  0.47904  66.38622  0.01391     0.03291  1277.89059   5027.76054  3.74941         2791.60409     17.78054  0.00034  54165.67144  0.64668  13.17729       1445415.59807  44.65985  20.51907  54324.66528    51.19044        43.9912   86.75618   126.7975  180.0    0.01999  -20.40917  0.22947 
