 log(Bfield)      Mns    Pspin  cutoff_power  cutoff_wavelength  fnickel    kappa  kappagamma   mejecta  log(nhhost)  temperature  texplosion  thetaPB      vejecta      A_V        MJD_0   log(KE)      M_Ni  Peak_mag     Peak_MJD 
    14.06109  1.71753   1.7073       1.84513         2259.00046   0.1149  0.29788     0.03639   6.44916     17.78123   8249.22553   -18.68315  0.51363    8917.7377  0.00034  56306.91685  52.45686   6.93523   21.9291   56398.1614 
    14.05483  1.72317  2.12242       1.81435         2608.01668  0.00666  0.08022     0.09347   9.81514     17.56207   9910.43017   -22.33493  0.44671   6299.36435   0.0002  56303.26507  52.19659   0.44225  21.99404  56394.42281 
    14.31175  2.04699  2.00961       1.93651         2608.61769  0.02962  0.05566     0.06818  22.90023      19.4906   7529.00835    -17.4541  0.45136   6965.97271  0.01719   56308.1459  52.35747   2.33029   21.8911      56392.3 
    13.63266   1.8193  2.07514       1.39638         2413.67364  0.07159  0.11117     0.19279  12.56451      16.8179   5257.12999   -32.16353  1.11553   8978.00214    4e-05  56293.43647  52.52709   5.01142  21.89623      56393.4 
    13.85968  1.71142  2.11708        1.6443         2551.04212    0.129  0.11055     0.01567   7.10511     19.21821   6761.84052   -29.71362   0.4693   7265.24653  0.00918  56295.88638  52.28882   7.96639  21.94766  56394.42281 
    14.07711  1.64418  1.69676        4.4697         2130.70327  0.00323   0.1489      0.0104   12.7656     18.22374   4770.04775   -17.78788  0.45752   8881.60302  0.00093  56307.81212  52.51914   0.22663  21.90576  56394.42281 
    13.85358   1.8006  1.66244         0.978          2311.9266  0.00408   0.2933     0.18258   8.01628     17.24536   4278.57764   -24.43268  0.85766   9419.33886   0.0001  56301.16732  52.52646   0.25893  21.94468      56396.4 
    13.91986  1.99513  2.48695       3.69674         2192.59512  0.03758  0.15034     0.04517   5.06733     17.27884   9422.10639   -25.03101  0.57435   8032.93682  0.00011  56300.56899  52.34025   2.13701  21.91775      56401.9 
    13.91946  1.72398  1.73999       1.62665         2457.25519  0.12621  0.10469     0.01452  16.86471     19.54591   5445.95116   -17.10635  0.98122   9320.07897  0.01953  56308.49365  52.58521   9.37226  21.95833      56395.3 
    13.73704  1.67728  1.89506       4.33709         2141.57081  0.11128  0.19873     0.01496   7.63924     19.13954   7868.53689   -20.01428   1.1857   8603.11581  0.00766  56305.58572  52.44294   6.98895  21.87025      56392.3 
    13.66367   1.4677  1.79379       2.10953         2391.94882  0.00432  0.16577     0.01129   5.93004     18.92947   8186.18219   -28.78366  0.64611    7238.4831  0.00472  56296.81634  52.26682   0.25546  21.94164   56398.1614 
    13.72452  1.65385  1.60446       1.93805         2263.00641  0.01028  0.24202     0.01596   8.83654     18.86751   9253.33421   -26.93612  0.96648   8186.04053  0.00409  56298.66388  52.41409   0.66756  21.89099      56401.9 
    13.66397  1.72517  2.12165       0.99547         2493.70244  0.00134  0.17107     0.28209   5.42693     19.48198   5626.98042   -26.42611  0.95932   9266.33908  0.01685  56299.17389  52.47183   0.07772  21.87604      56391.3 
    13.88757  1.99862   2.1712       4.97999         2078.50244  0.21394  0.18229     0.02956   8.89908     17.06391   7166.68541   -16.43837  1.30643   9809.72363    6e-05  56309.16163  52.57194  13.90861   21.8864      56396.4 
    13.59862  1.79378    2.161       4.83467           2124.638  0.10897  0.21507     0.01467   4.89195      18.3571   7154.64563    -29.3241  1.20027   8388.78375  0.00126   56296.2759  52.37399   6.14165  21.90218      56395.3 
    13.99392  2.15738  2.61372       2.28752         2603.12255  0.38334  0.03309     0.01369  26.72584      19.1431   4530.71832   -19.00574  1.42981   6428.18625  0.00772  56306.59426  52.29984  31.01849  21.88155  56394.42281 
    13.72279  1.60067  1.34644       4.95679         2128.14641  0.00271  0.14501     0.30486  19.27452     17.61054   8975.89468   -15.52406  1.35602   8639.02903  0.00023  56310.07594  52.53045    0.2068  21.92574      56399.3 
    14.18378  1.53428  1.24287       4.62711         2093.33011  0.06906  0.21926     0.01123  12.29486     17.85277   9222.83734   -13.42327  0.32348   7819.31039   0.0004  56312.17673  52.40512   4.81231  21.89569      56396.4 
    13.84794   1.6764  2.15129       3.96311         2216.23701  0.01384  0.08328     0.01316   9.71857     17.38283   9110.69729    -21.7245   0.7362   6460.56724  0.00013   56303.8755   52.2176   0.91709  21.95738  56394.42281 
    13.82382  1.64152  1.49839        4.7752         2155.78064  0.01229  0.06581     0.07033  34.12999     17.32974   4572.40446   -16.10734  1.10933   8736.57818  0.00012  56309.49266  52.58493   1.03758  21.92508      56395.3 
    13.88286  1.77572  1.82671       4.14948         2086.56214  0.00101  0.27789     0.03416   6.70518     17.10834   9254.67899   -16.18436   1.0834   9485.82492    7e-05  56309.41564  52.51453   0.06174   21.9311  56394.42281 
    13.55877  1.86408  2.24842       4.77959         2081.11194  0.00364  0.27309     0.24082   3.46102     18.62594   6623.92059   -30.68129  1.44373   7885.98195  0.00235  56294.91871  52.27993   0.18704  21.94469   56398.1614 
    13.78825  1.70492  1.67414       4.42494         2150.03218  0.02466  0.08531     0.35161  24.50889     18.74929   5058.58473   -16.25842  1.44261   9238.79692  0.00312  56309.34158  52.60812   1.96448  21.89293      56395.3 
    13.82627  1.74941  1.94111        2.2609         2303.14314  0.04302  0.32297     0.04589   4.42319     19.00101   6514.91745   -18.54994  1.46113    8504.1202  0.00557  56307.05006  52.37448   2.36175  21.96059      56391.3 
    14.02109  1.81167  1.90631       1.36112         2432.49955  0.01136  0.24928     0.01028   6.16373     17.90603   8127.39691    -22.9249  0.51254   8213.63633  0.00045   56302.6751  52.38069   0.67822  21.87709   56405.6386 
    13.63098  1.38612  1.52236       1.55178         2223.77763  0.05096  0.09371     0.01812  19.26857     19.32243   8347.21776   -16.67077  1.52021  10312.41516  0.01167  56308.92923  52.68422   3.88252   21.9438      56392.3 
    13.77705  1.84425  2.14258       3.98013         2053.59386  0.04531  0.27215      0.0373   4.77971     18.44216   5936.09509   -23.14933  1.07951   8548.08215  0.00154  56302.45067  52.38774   2.53865  21.94278      56395.3 
    13.46233  1.46414  1.90794       2.35993         2264.08442  0.02647  0.13067     0.12166   6.96585     17.24817   8754.51304   -25.96098  1.33616   8947.85488   0.0001  56299.63902  52.46774   1.62716  21.91213      56397.3 
    13.56842  1.46726  2.01736       2.05769         2484.93948   0.0305  0.06259     0.39134  10.69992     17.99496    6995.0925   -23.88164  1.09017    7101.1169  0.00055  56301.71836  52.30873   2.06399   21.9093      56393.4 
    13.87362  1.90124  2.06047       1.86929         2431.18845  0.03172  0.17895     0.04529   7.88509     17.70617   8779.12308   -20.39494  1.04931    8206.7548  0.00028  56305.20506  52.40512   2.00683  21.86703      56391.3 
    13.82686  1.91999  2.17961       1.82666         2503.81179  0.04192  0.10606     0.01425  10.00518      19.3119   8148.56217   -26.93827  0.89024   6653.31432  0.01139  56298.66173  52.24588   2.79614  21.92993      56395.3 
    13.65173   1.8876  2.39465       4.74665         2120.20285  0.08281   0.0386     0.08711  25.39854     17.15779   5250.21517   -25.38531  1.48864    9037.2323    8e-05  56300.21469  52.59176   6.63939   21.9056      56392.3 
    13.94344  1.74889  2.31083       4.64415         2168.77882  0.05581  0.04403     0.01745  19.94842     19.35418   3384.36602   -21.72895  0.57046   8404.19614  0.01256  56303.87105  52.50934   4.27995  21.94486      56396.4 
    13.67601  1.79654  2.18744       1.81517         2547.57225  0.00112  0.13224     0.16601   7.21186     16.99801   6122.90714   -28.91957  1.55422   6974.29134    6e-05  56296.68043  52.25483   0.06936  21.96248      56401.9 
     14.1665   2.0056  2.18505       1.34689         2460.20046  0.03951  0.09303     0.23051  17.48579     16.57654   5287.53791   -21.59535  0.47445  10586.60473    2e-05  56304.00465  52.69893   2.95477  21.90438      56392.3 
    13.56642  1.60743  1.73368       4.06529         2159.85819  0.06945  0.30329     0.01029   5.32642     18.17912   7124.59685   -30.60014  0.91596   8469.00506  0.00084  56294.99986  52.39164   3.99945   21.8817      56395.3 
    14.07802  1.77416  2.03639        1.5412         2550.44288  0.01109  0.16716     0.01584   7.59642     16.40464   3911.51728   -20.92359  0.47061   8024.51143    1e-05  56304.67641   52.3819    0.6954   21.8459      56401.9 
     13.6861  1.90764  2.19173        4.1933         2202.79789  0.09159  0.12931     0.01116      7.26     19.88067    7032.1097   -25.30273  1.43456   6608.19431  0.04221  56300.29727  52.20867   5.68475  22.00058   56398.1614 
     13.7365  1.57836  1.61163       4.05269         2098.77573  0.03232  0.26556     0.01297   8.21024     19.66721   7938.31021   -27.08686  0.74776   8920.71967  0.02582  56298.51314  52.48157   2.06362    21.923      56397.3 
    13.88433  1.73329  1.42159       1.23509          2456.5648  0.09455  0.32596     0.02134   6.96864     18.15607   6119.31478   -12.66538  1.31035   9799.26809   0.0008  56312.93462  52.54673    5.8124  21.94603      56391.3 
     13.6187  1.54689  1.76808       1.07941         2372.81244  0.00471  0.29898     0.01359   4.73004     17.76084   8835.88682   -23.94655  1.42545   8495.71822  0.00032  56301.65345  52.38123   0.26295  22.01182      56396.4 
     14.0918  1.80955  1.84572       1.95358         2414.17317   0.0027  0.32144     0.07149   4.97852     17.28027   6939.41473   -17.07318   0.5777   8540.69467  0.00011  56308.52682  52.39153   0.15311  21.91927      56392.3 
    13.68559  1.51935  1.63913       2.34583         2327.23118  0.02735  0.29382      0.1202   5.41746     18.36928   8456.83092   -20.26237  1.46984   7991.53464   0.0013  56305.33763  52.34308   1.58166  21.89532  56394.42281 
    13.70017  1.83012  2.34893       1.89395         2694.28788  0.00582   0.0421     0.36681    14.312     17.62633   3599.26653   -24.93314  1.38637   5680.56558  0.00023  56300.66686  52.14105    0.4181  21.91693      56400.3 
    14.08272  1.70603  1.77941       2.72331         2325.62718   0.2309  0.12497     0.01454  11.34268     19.59922   9260.46827   -14.97016  0.58905   7811.07961  0.02208  56310.62984  52.39688  15.82201   22.0009      56395.3 
    13.96648   2.0218  2.38552       1.76806         2394.13941  0.00131  0.12937     0.03343   7.11804     16.68553   8630.33092   -31.81105  0.49008   8020.81226    3e-05  56293.78895  52.37494   0.08114  21.93313      56392.3 
    13.97163  1.83642  1.62326        4.3373         2119.03526  0.01014  0.15894     0.01118  14.94567     16.90937   6577.87625   -13.77215  0.86262   9491.58476    5e-05  56311.82785  52.59071   0.73508  22.03676      56399.3 
    13.73192  1.74021  1.83971       3.70352         2103.51865  0.02529  0.20514     0.01516   8.77191     19.53486   7750.91952   -24.12959  1.22492   8733.43577  0.01904  56301.47041  52.46961   1.63914  21.89743      56396.4 
       14.04  1.91725  2.11514       1.83356         2410.94828  0.00131  0.18732     0.04339   7.17467     18.29804   5345.73245    -23.0368  0.58863   7884.67727   0.0011   56302.5632  52.36087   0.08109  21.92606      56400.3 
    13.51696  1.80816  2.17359       4.34962         2128.80045  0.00114  0.21254     0.05169   2.86043     17.21639   5433.10919   -27.54955  0.90666   8798.16889    9e-05  56298.05045  52.35104   0.05558   21.8732   56398.1614 
    13.80245  1.77166   2.1053       3.46808         2235.90984  0.06361  0.24196     0.04511   4.66431     17.71236    7769.6227    -17.9981  1.52285   7691.60206  0.00029   56307.6019  52.29329    3.5413   21.9315  56390.68421 
    13.45503  1.63392  1.96413       4.37769         2112.39393  0.04752  0.05427     0.31223  17.32342     18.72185     4434.986   -30.69663  1.20058   7964.24346  0.00293  56294.90337  52.45093   3.54707  21.89788      56395.3 
    13.72196  1.78532  2.16152       1.57157         2567.46097  0.09212  0.13113      0.0362   7.16383     16.38412   9303.60421   -21.71023  1.55069   7349.86475    1e-05  56303.88977  52.29971   5.70009  21.93554   56398.1614 
    13.78039  1.65317  1.64357       2.23415         2224.54531  0.00777  0.14443     0.30862  11.90495     18.03123   7498.10835   -16.78278  1.33347   8181.73103   0.0006  56308.81722  52.44156   0.53786  21.93343   56405.6386 
    13.76846  1.97998  2.41521       2.89021         2210.94995  0.23313  0.12391     0.01569   8.03768     19.69342   7063.95907   -25.17883  0.98062   8785.84547  0.02743  56300.42117  52.46625  14.81299  21.89285   56405.6386 
    13.69845  1.67599  1.97685       2.14391         2440.46791   0.0017  0.14404     0.20954   7.91799      18.5551   8230.55494   -28.06125   1.0085   7302.31012  0.00199  56297.53875  52.30412   0.10792  21.86327      56395.3 
    13.58034  1.63185  1.93339       2.30902           2375.848  0.00281  0.14674     0.02544   7.90577      19.0556   3849.93185   -29.62858  1.35195   7170.16129  0.00631  56295.97142   52.2881   0.17805  21.95373      56393.4 
    13.93876     1.69  2.20387       2.04682         2502.27308  0.46488  0.06647     0.02026  12.96447     17.79304   7968.14349   -22.80194  0.54204   6918.30531  0.00034  56302.79806  52.30354  32.75293  21.91352      56397.3 
    13.59106  1.34644  1.58698       3.72142         2158.44526  0.27733  0.13052     0.14168  12.16046     17.05783   8530.21772   -22.55673  1.21429   7991.06166    6e-05  56303.04327    52.423  19.28216  21.86602      56397.3 
    13.79034  1.56605  1.98183       1.75744         2471.20162  0.16228  0.04808     0.06404  22.43012     16.76641   5724.37407    -19.7305  0.95403   8250.93267    3e-05   56305.8695  52.50285  12.71974  22.00671      56392.3 
    13.59868  1.60364  2.13116       2.89951         2222.41649  0.00709  0.21355      0.0371   4.21278      17.3861   9164.54018   -23.49207  1.55371   8697.80177  0.00014  56302.10793  52.38843    0.3843   21.8806      56395.3 
    13.71317  1.66651  2.06645        3.8872         2118.47383   0.0181  0.15997     0.08592   7.30403      16.4766   6487.99441   -28.30621  0.77426   9011.22737    2e-05  56297.29379  52.47868   1.12512  21.98069   56398.1614 
    13.99599  1.99961  2.06099       4.95879         2156.72309  0.01122  0.17197     0.19836   8.57392     19.43272   8214.62756   -16.23844  0.85683   8130.20036  0.01505  56309.36156  52.40522   0.72358   21.8883      56399.3 
    13.68478  1.45462  1.82036       3.02619         2219.63153  0.00124  0.16473     0.03541   7.71232     16.88931   3978.71766   -19.54767  1.16297   8907.25462    4e-05  56306.05233  52.47406   0.07802  21.93888      56389.4 
    14.00177  1.80024  1.40081       2.02467         2465.29162  0.00239   0.1846     0.02845  11.60149     18.96314   4451.29715    -18.0559   0.6712    6497.8059   0.0051   56307.5441  52.23905   0.16474   21.9122      56393.4 
    13.77321  1.48415  1.26463       2.87049         2254.88198  0.00321  0.25248     0.04068   9.70162     17.01017   5647.98109   -13.22528   1.0789   8788.97351    6e-05  56312.37472  52.48477   0.21254  21.92836      56399.3 
    13.61817  1.46603  1.82945       3.45508         2221.14829  0.03461   0.2019     0.01428   5.00838     17.63076   6858.70418    -27.5147  0.64952   8872.25566  0.00024   56298.0853  52.42528   1.96241  21.95821      56387.4 
    13.64089  1.89244    2.241       3.76278         2029.97351  0.00101  0.32181     0.03358   3.74702     17.51608   3952.63715   -29.17906  1.09178  10271.74425  0.00018  56296.42094  52.51911    0.0528  21.89613      56395.3 
    13.86337  1.84438  1.93113       3.42033         2194.17558  0.04494  0.11556     0.07226  12.61515     17.53596   9656.14495    -19.2351  0.90702   7448.85269  0.00019   56306.3649  52.36527   3.14878   21.9894      56391.3 
    13.60525  1.41626  1.86946       1.96878         2305.12148  0.16429  0.08308     0.01125  16.19106     16.31357   5166.48456    -22.7694   1.5482   9969.41108    1e-05   56302.8306  52.64025   12.1028  21.88561      56396.4 
     13.8575  1.90294  1.48756       3.49537         2146.39205  0.00131  0.24004      0.0103  12.17852     18.30624   8945.71889   -14.62885  1.21282    9067.7158  0.00112  56310.97115  52.53292   0.09141  21.98829  56390.68421 
    13.93869  1.77248  1.44921        4.0867         2171.19261  0.02525  0.07002     0.01569  30.09422     17.99512   3687.87509   -11.79205  1.12656   8161.15765  0.00055  56313.80795  52.51629   2.08679  21.89344      56392.3 
    13.77614    1.741  1.91962       1.86458         2347.85389   0.0021  0.31841     0.01474   4.61307     18.81103   3401.56038   -24.02817  0.97709   8082.47786   0.0036  56301.57183  52.33509   0.11677  21.90338      56395.3 
    13.46186  1.67347  1.98584       4.53398         2147.75583  0.04576  0.04373     0.01444  15.95366     18.91316   5675.05809   -27.61022  0.83425    9648.2202  0.00455  56297.98978  52.61054   3.36155   21.8995      56401.9 
    13.97783   1.9948   2.0328       3.88929         2121.47418  0.00547  0.23468     0.13777   7.50895     17.41229   5413.18975   -16.35211   0.9814   9413.65162  0.00014  56309.24789  52.51942   0.34221  21.95206      56391.3 
      13.764  1.78115  1.76323       2.05995           2338.369  0.00111  0.21993     0.04239    7.2359     19.58835   7737.68757   -23.76992  1.15229   7181.55371  0.02153  56301.83008   52.2806   0.06855  21.88525      56393.4 
    13.87502  1.84256   1.5504       4.74349          2177.4224  0.37659  0.19766     0.02261  12.55357     18.66394    9559.1168   -17.23099  1.01448   7505.34412  0.00256  56308.36901   52.3714  26.35709   21.9775  56390.68421 
     13.8466  1.94354  2.27694       3.99604         2136.51181  0.01066  0.24112     0.03267   5.15793     17.03083   5931.30347   -25.10975  0.90407   8253.42751    6e-05  56300.49025  52.36573   0.60898  21.93988   56398.1614 
    14.41634  2.00305  1.64104       4.84393         2084.32314  0.01279  0.24775     0.07796  10.20021     18.73948   4675.18896   -14.52304  0.31132   9253.27556  0.00305  56311.07696  52.53421   0.85646  21.94319      56393.4 
    14.05892  1.89651    1.457       4.99287         2145.65295  0.00113  0.20593     0.12481  13.89149     19.64131   5909.10841    -17.6273  0.61271   8239.95159  0.02432   56307.9727   52.4615   0.08093  21.98156      56389.4 
    13.73259  1.54714  1.63266       2.24097         2340.83448  0.01322  0.23382     0.02815    6.0316     18.60304   6628.50649   -17.30449  1.39163   7309.44683  0.00223  56308.29551   52.2771   0.78509  21.92268      56396.4 
    14.31635  1.94163  1.56786        1.7034         2408.53519  0.05064  0.22006      0.0152  10.44903     16.84752   3411.25776   -11.65902  0.43527     9606.787    4e-05  56313.94098  52.56903   3.41014  21.93887      56393.4 
    13.66027  1.75689  1.96792       2.73062         2268.39846  0.12149  0.11784     0.01064   10.4105     17.40167   9453.59749   -31.88367  1.18096   6244.10376  0.00014  56293.71633  52.19447   8.17397  21.91808      56395.3 
    13.73367  1.59195  1.73495       1.81702         2420.52686   0.0075  0.25105     0.06245   6.23032     17.72676   6532.34091   -18.12773  1.53234   8791.75215   0.0003  56307.47227  52.44089   0.44871  21.87647  56394.42281 
    13.82554  1.94483  2.20357       4.69366         2105.87832  0.17565  0.09958     0.01172  13.61019     19.62503   8535.49936   -24.18323  1.15455   7980.28556  0.02343  56301.41677  52.43189  12.49867  21.89899      56392.3 
