 texplosion  fnickel    Pspin  log(Bfield)      Mns  thetaPB   mejecta    kappa  kappagamma      vejecta  temperature    alpha  cutoff_wavelength  log(nhhost)      A_V         MJD0   kenergy  mnickel            TSD   log(L0)  Peak_mag     Peak_MJD  log(E_rad)  log(Peak_lum)  Rise_Time    E_fold  tau_1  delta_m15     r_peak     frac 
   -9.18477  0.33605  1.41325     14.09771  1.39595   1.2002   5.05961  0.16385     0.03815  10712.32763   6424.17493   0.5023         5053.35107     18.37978  0.00133  58537.11172   3.46347  1.70026   165085.11521  46.89557  19.21379  58579.92118    51.26984        44.7038   15.62697  31.25393   34.0    0.31133  -21.83449  0.97661 
   -14.9326  0.01761  0.76317     13.97171  1.50097  0.76774  10.32912  0.07581     0.01169  10193.57183   6158.69613  0.47195         2537.26137     20.98739  0.53965   58531.3639   6.40241  0.18186    92473.71361  47.71396  19.27847  58579.92118    51.36332       44.80284   17.36329  30.40421   38.0    0.26649  -22.24758  0.99933 
   -15.7591  0.00292  2.33796      14.0155  1.57187  0.68444   5.09174  0.18425     0.01415  11538.99574   5715.92099  0.42956         2424.33242     19.99391  0.05478  58530.53739   4.04417  0.01485   742863.90405  45.85668  19.29525     58581.21    51.64477       45.07824    17.7161  30.90113   33.5    0.32732  -21.81758   0.9995 
  -17.76778  0.00637  2.34011     14.08813   1.7729  0.84926     4.639  0.19956     0.01995  10209.37109   8326.99169  0.01991         3172.61063     18.79753  0.00349  58528.52872   2.88436  0.02955   600766.99347  46.00035  19.26606     58581.21     51.3022       44.71328   19.09962  32.87639   31.5    0.27845  -21.69012  0.99917 
    -14.133  0.00193  2.78379     14.15045  1.88507  0.76864   2.07668  0.31749      0.0353  10360.12859   4734.73959  0.23663         5269.72105     16.63027    2e-05  58532.16349   1.32962  0.00401   678430.49525  45.82339  19.29748  58581.21182    51.26724       44.68792   22.57228  29.40373   33.5    0.33291  -21.78483  0.99985 
  -12.53884  0.00448  0.99466     14.15605  1.68809  0.96032   7.38573  0.14325     0.01499  10571.76938   8442.24173  0.30027         3629.20174     20.63788  0.24133  58533.75766   4.92398  0.03309    75589.16206  47.62244   19.2965     58581.21    51.44593       44.88791    18.0636  29.70391   29.5    0.30138  -21.98706  0.99983 
    -9.2443  0.00194  0.80476     14.68051  1.95552  0.41415   7.05594   0.3124     0.01037  13290.69397   5738.48383   0.4766          2885.6441     19.75646  0.03171  58537.05219   7.43493  0.01366     5121.33614  49.03939  19.25449  58578.38848     51.3399       44.75216    18.0636  30.55363   29.5    0.33111  -21.81872  0.99998 
  -13.06573  0.04989  1.27752     14.17786  1.60451   0.9365   8.54024  0.10265     0.01976  10232.65801   6667.62156  0.56543         2519.86428     20.14937  0.07836  58533.23076   5.33426  0.42611   107193.50246  47.23128  19.27213     58581.21    51.21978       44.63041   26.04494   29.5176   34.5    0.26984  -21.75849  0.99606 
  -13.14499  0.11826  2.88276     13.94419  1.79242  1.18837   3.42138  0.11701     0.01461    7931.5535   8706.42311  0.63871         5881.53339     16.17908    1e-05   58533.1515   1.28394   0.4046  1788541.42539  45.35017  19.30958  58579.92118    51.31239       44.71147   19.79638  32.29351   37.0     0.3023  -21.86278  0.98319 
  -16.54378  0.00108  1.33173     13.89821  1.88422  1.40091   6.55034  0.13895     0.01185  11236.84386   9708.52273  0.27552         2310.30915     20.93324   0.4764  58529.75271   4.93378  0.00709   495865.28044  46.59978   19.2994     58581.21    51.32966       44.75856   14.24344  32.63746   29.5    0.30115  -22.23781  0.99994 
   -9.15684  0.00621  1.30561     14.07248  1.39979  1.14498  11.80621  0.07278     0.02714   9693.54573   7558.09568  0.93839         3824.31851     20.32348    0.117  58537.13965   6.61764  0.07328   158686.61175  46.98274  19.27897  58581.21182     51.2563       44.67898   22.57228  29.41821   35.5    0.28689   -21.8469  0.99912 
  -10.41948  0.00205   1.2558     14.25755  1.79675  1.37819  10.78025  0.13022     0.02663  12394.09886   7331.87926   0.3011         2763.01496      16.8981    4e-05  58535.87701   9.87838  0.02205     80360.1801  47.42045  19.26486  58580.36306    51.29921       44.66996   19.09962  32.99026   31.0    0.26073  -21.75252  0.99985 
  -13.94668  0.03428  1.80722     13.84546  1.22825  1.02211   9.06819  0.07147     0.01176   9638.07251   9010.62607  0.23251         3329.56593      17.6996  0.00028  58532.34982   5.02491  0.31081   758922.67315  45.96391    19.241  58578.38848    51.36812       44.80408   19.09962  29.33599   32.0    0.29037  -21.66432  0.99108 
  -15.26085  0.25605  2.51348     13.93864  1.66809  1.52295    3.2382  0.20422     0.02644   9915.92974   3335.69829  0.13371         3816.85848     19.11592  0.00726  58531.03565   1.89932  0.82916  1298104.93573   45.5772  19.28045  58579.92118    51.41363       44.86051   15.62697   29.5176   36.5    0.30056  -21.65537  0.97138 
  -16.88891  0.02308  1.66651     13.89371  1.66833  1.44525   6.02837  0.15634        0.01  10249.12322   5527.15562  0.16666         5079.56405     20.56496  0.20403  58529.40759   3.77747  0.13911   701931.94294  46.20122  19.29726  58579.92118    51.45454       44.89973   15.62697  29.25307   33.5    0.31983  -21.93911  0.99784 
   -8.77595  0.23964  1.56589     14.03187  1.42231  1.40884  14.60881  0.03747     0.04741   8517.91982    7657.5251  0.68776         5602.51404     19.81599  0.03637  58537.52055   6.32279  3.50078   279633.40017  46.58573  19.26736  58581.21182    51.35411       44.76679   17.36329  32.99026   45.5    0.28513  -21.92193  0.94341 
  -16.52177   0.2163  2.06904     14.03872  1.83995  1.43025   4.46021  0.20344     0.01393   9960.60927   3338.85555  0.01938         2713.70919      19.5024  0.01767  58529.77472    2.6397  0.96476    611960.8393  46.11539  19.27995  58579.92118    51.43233        44.8659   22.57228  27.60043   33.0    0.31049  -21.65206  0.98047 
  -12.17875  0.03993   2.0487      14.3269  1.79673  0.64251  11.73723  0.04725     0.03089   8336.81962    8340.1291  0.38179         5669.69365     18.98053  0.00531  58534.11775   4.86624  0.46867    155403.0708  46.70891  19.30377     58581.21    51.32093        44.7315   19.09962  31.25393   40.0    0.27751  -21.70238  0.99031 
  -14.85519  0.20378  0.76406     14.29274  1.76002  0.64613  15.44857  0.06967     0.01153  12209.11807   6822.47875  0.06482         5453.18737     20.85428   0.3972   58531.4413  13.73675  3.14806    24780.32444    48.354  19.29871  58581.21182     51.4913       44.93244   15.62697  31.25393   34.0    0.28737  -22.11732  0.99205 
  -12.68924   0.0178  1.88817     14.05088  1.69498  1.48054   6.83329  0.08927     0.06906   9037.71257   6501.01116  0.34553         4461.23813     19.98567  0.05375  58533.60726   3.32946  0.12165   443916.09181  46.29863  19.27346  58579.92118    51.18038       44.58746   24.30861   29.5176   43.0      0.269  -21.71995  0.99765 
  -15.60003  0.19506  1.38785     13.87523  1.53239  1.06441   9.66311  0.05536     0.01391   10044.2171   8681.57307  0.12437         5854.44128     20.78128  0.33575  58530.69646   5.81536  1.88484   486870.06326  46.48212  19.23857  58578.38848    51.66776       45.13029   15.97977  25.69214   39.5    0.26228  -22.07197   0.9775 
  -13.88778  0.02546  1.16611     14.01982  1.82949  1.44831  12.02567  0.05476     0.01096  10454.04707    6809.4436  0.06848         4174.80512     20.77439  0.33046  58532.40872    7.8398  0.30615    210857.9787   47.0737  19.27174  58581.21182    51.47012       44.90724   20.83595  28.66788   36.0    0.29835  -22.02178  0.99802 
  -11.82681  0.05277  0.83622     14.25331  1.69711   1.0346   5.42163  0.24583     0.01149   9770.83091   7769.23676  0.50191         5125.18809     19.85567  0.03985  58534.46969   3.08759  0.28609    34320.45892  48.11836  19.33034  58581.21182     51.2946       44.67023   22.57228  34.72659   30.5     0.2982   -21.9017   0.9992 
   -8.74665  0.01299  1.12609     14.29564  2.06416  1.38245  17.51925   0.0351     0.01431   7995.48346   7050.39051   0.6541         5147.39051     20.37808  0.13268  58537.54984   6.68085  0.22758    62289.62416  47.68602  19.26784  58580.36306    51.43698       44.87334   22.57228  27.78127   35.0     0.3072  -21.89442    0.999 
  -10.11299  0.00937  1.12354     14.35806  1.82716   0.9347  17.75265   0.0728      0.0652  12362.99001   7353.72075  0.19147         5763.96114     19.46429  0.01618  58536.18351  16.18592  0.16643    41176.15395   47.8148  19.22827  58580.36306    51.59413       45.04729   16.32727  29.70391   32.5    0.27885  -21.86404  0.99915 
  -14.11842  0.00722   0.9324     14.16237  1.95343  1.34015  14.78557   0.0603     0.02719  10759.78759   9114.02691   0.1525         4165.30014     20.72004  0.29159  58532.17808   10.2111  0.10681    74659.38764  47.74735  19.30624  58579.92118    51.77232       45.28325   17.36329  24.30861   32.0    0.26964  -21.97986  0.99964 
  -12.72688  0.04194   1.2138     14.27677   1.5949  0.72164  10.02209  0.06542     0.01512   7149.33843   5852.33395  0.58044         5993.04798      16.4525    2e-05  58533.56962   3.05575  0.42037    60996.65481  47.51798  19.29453  58580.36306    51.22761       44.65362   17.36329  31.14006   38.0    0.24139  -21.76613   0.9965 
  -10.37415  0.04161  1.64829     14.27816  1.75954  0.98346   9.11591  0.09347     0.03825  10580.69974   9159.82999  0.30847         4991.23522      17.8796  0.00042  58535.92234   6.08774  0.37935   123302.40345   46.9892  19.31073  58581.21182    51.65795       45.12833     15.921  28.17083   30.0     0.3148  -21.72836  0.99488 
  -15.66845  0.04904  1.20291     14.27977  1.74541  0.77357  10.02585  0.06791     0.02446    7518.9601   3658.61764  0.58999         5735.88119     20.23558  0.09557  58530.62804   3.38115  0.49166    64660.86532  47.53963  19.28903  58579.92118    51.23884       44.62892   14.59094   36.9444   41.0    0.24924   -21.7655  0.99649 
  -13.73906  0.06911  1.57662     13.87849  1.95832  1.49558   6.54055  0.09408      0.0141  11496.60877   8762.67408  0.24891         3499.40841     21.01411  0.57391  58532.55743   5.15681  0.45202   790976.53187  46.26711   19.2791     58581.21    51.30751       44.73939   20.83595  27.78127   34.5    0.31542  -22.36235  0.99508 
  -10.34211  0.19001  1.06388     14.11457  1.60421  0.82711   6.85896  0.18362     0.01001  12234.48598   6878.92291  0.38958         2523.76916     20.72074  0.29206  58535.95439   6.12431  1.30328    99475.79674  47.42261  19.31576     58581.21     51.7778       45.26141   12.15431  28.86261   30.0    0.34604  -22.08528  0.99161 
  -16.34289  0.08471  1.73942     13.93204  1.79638   1.4473   9.07549   0.0551     0.01256   9184.94919   3991.91423  0.21347         5686.05292     20.65542  0.25127   58529.9536   4.56721  0.76882   690146.65418  46.20349  19.23541     58581.21    51.63206       45.07752   20.83595  27.78127   44.0    0.26347   -21.9771   0.9885 
   -12.9634  0.00211  1.35363     14.17028  1.95561   1.1239  11.06769  0.07207     0.01776  11075.38212   6643.14349   0.2068         5635.27389     20.69456  0.27497  58533.33309   8.09845  0.02333   151896.21235  47.11558  19.29695     58581.21    51.53645       44.97713   13.89064   29.5176   33.5    0.32039  -22.09608  0.99982 
  -15.07453  0.00134  0.97421     13.90197  1.74391  1.35478   7.73721  0.11726     0.01717  12381.55622   6512.12501  0.06317         4760.90291     21.02053  0.58244  58531.22197   7.07558  0.01038   241383.64053  47.15036  19.27403  58580.36306    51.83026       45.31833   15.62697  26.04494   33.5    0.31579    -22.391  0.99995 
  -15.86127  0.09705   2.1786     14.10764  1.80749   1.3396   6.64582  0.17949     0.02038  11210.03276    9345.0029  0.41362          2883.9937     18.86227  0.00405  58530.43522   4.98184  0.64495   485247.26341   46.1636   19.2895  58580.36306    51.23388       44.63697   26.24944   29.3131   28.0    0.28649  -21.71908   0.9851 
  -12.72401  0.01229  0.88598     14.11917  1.50047  1.12149    4.6764  0.15877     0.02681   8037.67741   7281.31627  0.32485         5979.08401     18.52256  0.00185  58533.57248   1.80219  0.05747    63174.35305  47.74968  19.27753     58581.21    51.27119       44.66266   19.79993  34.02628   34.5    0.25944  -21.70664  0.99975 
   -7.78569  0.00171  0.88951     14.13336  1.48482  1.52996   4.96991  0.13979      0.0156   8049.11452   9180.28045  0.69258         5937.84629     16.66083    3e-05   58538.5108   1.92075   0.0085    59028.92073  47.77116  19.23095  58579.92118    51.24415       44.68003   20.83595   29.5176   29.5    0.31778  -21.85119  0.99996 
  -10.91595  0.36712  1.60587     14.41563  1.94393  0.88902  13.28117  0.05699     0.03617   11153.9274   3269.30282  0.14013         3842.38556     17.58361  0.00021  58535.38054   9.85642   4.8758    68653.16464  47.30945  19.29862  58578.38848    51.81617        45.3298   17.36329  24.30861   49.0    0.30467  -21.70859  0.95025 
  -13.06816  0.16945  1.23421     14.01388  1.59469  1.45828   9.48706  0.09511      0.0285  11038.66641   6163.92811  0.54058         2447.97162     20.66452  0.25659  58533.22834   6.89591  1.60762    211596.9267  46.96324  19.26452  58579.92118    51.44958       44.90587   16.26212  29.76905   39.0    0.24589  -21.98178  0.98591 
  -14.94986  0.47478  1.03006     14.03212  1.88079  1.47708   7.35032  0.09372     0.01863  10409.02445   6736.95614  0.06174         5319.57794     20.86573  0.40781  58531.34663   4.75066   3.4898   159826.64496  47.31381  19.24699  58578.38848    51.48307       44.90505   14.24344   29.1648   40.5    0.27655  -22.07227  0.98359 
   -9.01089  0.28426  1.48486     14.17392  1.60209  1.09421   6.18102  0.28179     0.01312  12706.67628     8446.192  1.59512         2445.48293     17.66336  0.00026   58537.2856   5.95321  1.75704   147239.71966  46.96214  19.24063  58576.38724      51.509       44.88459   22.57228   29.5176   28.5    0.32485   -21.7719   0.9782 
  -11.14986  0.17381  1.24041     13.86402  1.45758  1.24142      5.44  0.10293     0.01839   9490.50693   3071.91114   0.4946         4271.98765     20.83202  0.37735  58535.14664   2.92284  0.94554   389526.51333  46.65481  19.25605  58576.38724    51.58254       45.04112   17.99845  26.09337   38.0    0.30385  -22.16396   0.9902 
   -7.86076  0.05045  0.98031     14.18474  1.32505  0.91833  14.20867  0.08722     0.01348  12925.57995   5252.37835   0.5967          2618.6551     17.00301    6e-05  58538.43574  14.16057  0.71686    50499.73837  47.70507   19.2999     58581.21    51.35787       44.78619   14.24344  32.45661   29.5    0.31956  -21.78222   0.9954 
  -12.31103  0.05847  1.67232     14.15406  1.81364  1.39596  19.72943  0.02973     0.19112   7818.45106   5627.49258  0.54788         5060.62679     19.70016  0.02785  58533.98546   7.19421  1.15364    231677.6969  46.71587   19.3237     58581.21    51.67409       45.16076   15.62697  27.10716   43.0     0.2726   -21.7484  0.98461 
  -11.22776  0.00346  1.81685     14.18473  1.78944  1.12551   4.18869  0.15318     0.14929   8060.26703   3600.60611  0.60261         5589.97129     19.09526  0.00692  58535.06873   1.62332  0.01447   234261.96244  46.63322  19.29893     58581.21    51.47974        44.9346   17.36329   28.9645   38.5    0.27192  -21.80147  0.99976 
  -15.66413  0.00141   1.5544     14.14829  1.86895  1.37191    4.7646  0.25563      0.0168  10731.10761   5857.01937  0.09135         5662.41841     18.13628  0.00076  58530.63236   3.27298  0.00671   211815.06369  46.83136  19.28105     58581.21     51.2994       44.73031   15.62697  32.99026   31.0     0.3366  -21.70156  0.99993 
  -15.79748  0.02452  2.31026     14.04968  1.67747  1.00099   5.49769  0.18008     0.01549   10583.8136    7076.9292  0.23605         4094.53313     18.95171  0.00497  58530.49901    3.6736  0.13479   661342.30674  45.94575  19.25356     58581.21    51.78687       45.25355   15.62697  29.25307   32.5    0.30522  -21.72624  0.99602 
  -11.70455  0.03407  1.00603     14.10826  1.50312  1.37444   8.59503  0.15468     0.01257  11549.07509   5784.53197  0.17693         2038.17708     17.57204  0.00021  58534.59194   6.83863  0.29287    85803.57028  47.50711  19.30807  58579.92118    51.38137       44.81967   17.99845  29.76905   29.5    0.32926  -21.72034  0.99829 
   -9.17671  0.40612  0.98687     14.44037  1.85955   0.8705   5.32124  0.20438      0.2042  11580.16098   8938.36499  0.62961         2162.11868     16.58317    2e-05  58537.11979   4.25666  2.16107     22130.9217  48.20473  19.24758  58579.92118    51.37269       44.80278   16.32727  30.37278   30.5    0.26855  -21.69336  0.99322 
  -15.55634  0.08391  1.67732     14.02572  1.63862  1.49668   4.84508   0.2847     0.01368  10048.64033   8747.84897   0.6753         2545.16954       18.523  0.00185  58530.74015   2.91839  0.40654   380257.35554  46.45401  19.28374  58580.36306    51.26929       44.67224   19.79993  33.91241   30.5    0.27692  -21.62957  0.99352 
  -14.26781  0.01511  1.26635     14.20748  1.93325  1.33751    5.5491  0.32664     0.01346  11328.37347   5564.87316  0.12225         2659.74205     17.94803  0.00049  58532.02869     4.248  0.08387   110728.74123  47.30576  19.31215  58582.38084    51.34216       44.74862   19.09962  31.25393   32.0    0.31419  -21.66816  0.99943 
  -13.99904  0.02852  2.30557     14.58187  2.14852  0.48228   5.12324  0.18543     0.03102  10161.16604    3237.0316  0.40545         3762.14813     16.29395    1e-05  58532.29746   3.15543  0.14611    72738.05283  47.01367  19.27494  58581.21182     51.2212       44.61922   19.09962  32.99026   35.0    0.27014  -21.69541  0.99706 
  -16.89312  0.00357  1.58659     14.04849  1.32569  0.57172   5.37604  0.28887     0.01026  11460.33963   7574.87198  0.05792         4200.11516     17.52398  0.00019  58529.40337   4.21197   0.0192   247857.47455  46.59615  19.33118  58582.31992    51.26551        44.6801   17.36329  32.99026   31.0    0.31119  -21.72251  0.99962 
  -11.83153  0.44454    1.279      14.2978  1.54662  0.77762  11.19148  0.13054     0.01076  12825.44208   4127.61844  0.26363         3311.76109     19.87315  0.04148  58534.46496  10.98144  4.97505    59611.73511  47.46915  19.27557  58580.36306    51.28793       44.67902   20.83595  32.99026   32.5    0.31007  -21.84235   0.9547 
   -9.58421    0.001  1.66868     14.19357  1.81323  1.15057   8.97332  0.05291     0.04305   6489.46886   9299.68863  0.72398         5681.57702     16.31115    1e-05  58536.71228   2.25423  0.00899   192257.38513  46.79867  19.30829  58581.21182    51.24358        44.6171   26.04494  32.43572   37.0     0.2695  -21.75168  0.99988 
  -13.33967  0.05496  1.79499     14.19542   1.6571   0.9556   9.07449  0.11752     0.01923  10359.32525   7022.07952  0.45009         3767.24536     18.90993  0.00451  58532.95682   5.80914  0.49874   201583.88464  46.67562  19.29973  58580.36306    51.74802        45.2502   13.89064  27.13351   35.0    0.25749  -21.71055  0.99112 
  -11.24408   0.0195  1.05758     14.28882  1.49656    0.764  15.43137   0.0779     0.02561  11490.59129   5101.35987  0.35826         4141.25217     19.47487  0.01658  58535.05241  12.15392  0.30089    41105.34909  47.78142  19.27958  58579.92118    51.60848       45.05577   14.24344  28.90026   33.5    0.27213  -21.78416  0.99806 
  -11.72885  0.07491  1.51781      14.0189  1.76603  1.10039  12.33883   0.0485     0.01809  11372.58643   6078.84687  0.16822         4904.97876     20.83227  0.37757  58534.56765   9.51962  0.92431   346295.97393  46.61396  19.23413  58578.38848     51.4571       44.90731   14.24344  30.20384   41.0    0.30652  -22.14494  0.98924 
