 log(Bfield)      Mns     Pspin  cutoff_power  cutoff_wavelength  fnickel    kappa  kappagamma   mejecta  log(nhhost)  temperature  texplosion  thetaPB      vejecta      A_V        MJD_0   log(KE)      M_Ni  Peak_mag     Peak_MJD 
    14.71342  1.62785   5.21657       3.84918          2845.6198  0.27729  0.01041     0.11437  55.23394     16.41814   8232.50976     -8.5331  1.52617  11464.89871    1e-05   58537.7634  52.85539  25.34859  19.28698  58575.56853 
    14.73984  1.88567  16.41609        4.3609         2927.25256  0.35881  0.01092     0.44252  44.61185     18.81563   4805.23508    -8.67074  1.07531   11513.3672  0.00363  58537.62575  52.84412  31.69243  19.25005  58575.56853 
    14.38472  1.78495   5.52953       3.08029         3151.09146  0.34463   0.0157     0.26043  28.65952     17.38404   5396.06623    -13.7401  0.54157   7813.59412  0.00013  58532.55639  52.47476  28.23471  19.31539  58576.38724 
    14.41238  1.84289    5.8519        2.3921         2703.89569  0.26767  0.01267     0.04367  49.69107     18.97447   9968.81336   -10.10614  1.08772  12961.12174  0.00524  58536.19035   52.9546  24.05973  19.25091  58576.38724 
    13.00598  1.82401  12.11314       1.91503          2693.4311  0.41422  0.01105     0.07618  47.29963     17.54221   3615.87518   -11.26334  1.44117  13034.96364  0.00019  58535.03315  52.95608  36.93713   19.2165     58575.25 
    12.13459  1.75323   22.0271       2.30573          3121.1564  0.47469  0.01289      0.0817  37.85742     18.84524   7047.63073   -10.00313   0.9353  11617.93387  0.00389  58536.29336  52.84014  40.80109  19.27523  58575.25471 
    14.43896  1.56464   3.44523       4.08727         2297.00567  0.25523  0.01329      0.0185  49.96306     17.53273   9309.90429    -9.73381  0.87501  10314.48788  0.00019  58536.56268   52.7566  22.96148  19.25005  58574.39214 
    12.93882   1.7602  18.23029       2.81536         2952.41977  0.40898  0.01269     0.03869  43.02476     16.00101    7357.2929    -8.91638  0.05786  13151.83274    1e-05  58537.38011  52.95711  35.90943  19.28038     58575.25 
    12.15164  1.55126  25.86689        3.6871         3047.91731  0.37953  0.01015     0.03108  44.60713     17.88648   6085.65601     -9.6335   0.1556   9939.64419  0.00043  58536.66299  52.71645  33.52224  19.25314  58572.71929 
     13.3042  1.85958  20.79796       3.73035         2989.19286  0.48786  0.01149     0.13344  35.40409     16.02749   7136.18686   -12.04654   0.6294   9019.94696    1e-05  58534.24996  52.61537  41.46024  19.24244  58575.56853 
    13.97914  2.04738  20.84478        4.8633         2976.90325  0.44519  0.01125     0.22662  35.39211     18.12988   4783.26078   -10.16508  0.15599   8950.18485  0.00075  58536.13141   52.6086  37.83136  19.24875  58575.25471 
    14.57359  1.79835   5.41232       4.99095          2197.7308  0.29147   0.0168     0.09624  50.76267     18.47783   7430.09327    -8.49043   1.3133  15923.10661  0.00167  58537.80606  53.13486  26.28903  19.30219  58576.38724 
    12.74976  1.98265  11.87356       4.79218         2769.03552  0.43586  0.01279     0.16198  39.08476     18.02286   4555.37454    -9.27018  1.41387  12191.42033  0.00059  58537.02632  52.88432  37.66416  19.24951  58576.38724 
    14.81345  1.47795   26.6742       3.01689         2963.77245  0.42933  0.01215     0.30606  41.64045     19.90642   8107.26832    -9.28803  0.73973  12518.52734  0.04479  58537.00846   52.9119  37.49332  19.25003  58576.38724 
    14.10311  1.66501  19.81484       3.57245         3084.72773  0.46219  0.01046     0.17014  36.17597     18.09697   4445.43268     -9.4022  0.14579   9030.94174  0.00069   58536.8943  52.61802  39.42271   19.3199  58578.38848 
    14.40807  1.58619   7.02267       4.16315          3251.3431  0.42011  0.01376     0.23395  30.89343     19.72743   9316.12071    -9.46704  1.03821   8922.92097  0.02966  58536.82946  52.59578  34.87415  19.20027     58572.21 
    13.36886  1.57649  29.76832        4.9704         3016.81755  0.48115  0.01332     0.02449  31.80453     18.00019   3873.11143    -8.67925  1.33103   11052.2969  0.00056  58537.61724  52.78387  40.14412  19.27961     58575.25 
     14.1456  1.59907  13.04087       2.95804         3022.07337  0.37296  0.01056     0.13727  44.64005     18.21088   3538.70226     -9.1864   0.6269  12794.76004   0.0009  58537.11009  52.93583  32.94615  19.37068  58576.38724 
    15.00435  1.89929   0.90396       3.93022         2256.25528  0.24714  0.01012     0.06868  65.03447      16.0882   5697.75926    -4.73906  1.13789  15242.34899    1e-05  58541.55743  53.11383  23.17632  19.26225     58575.25 
    14.57802  1.89998    4.8309       3.82856         2163.22711  0.39468  0.01949     0.04176  37.57686     16.78509   6356.72023    -7.52885   1.1223  13624.12508    3e-05  58538.76764  52.97796  33.88137  19.28389     58575.25 
    15.03345  1.55619  16.53259       2.61149         3063.62873  0.43418  0.01037     0.08273  38.60547     18.67798    8806.9479    -8.85858  0.90841  10949.70836  0.00265  58537.43792  52.79012  37.44187  19.25831  58575.25471 
     12.0241  2.02346  14.06683       4.70445          3109.3884  0.45063  0.01222     0.03512  34.60773     16.46689   8143.93585    -8.03972  0.72256  10616.09224    2e-05  58538.25677  52.75521  38.14761  19.23586     58575.25 
    12.44826  2.09369   3.59024        4.8477         2382.09399  0.43248  0.01134     0.15119  42.61279     16.59913   8052.89472    -9.82526  1.06751  12758.65782    2e-05  58536.47124  52.93006   37.9132  19.26584  58575.25471 
    13.08241  1.44118  22.01707       3.11823         2742.83954  0.41877  0.01203     0.28314  42.68258     19.09698   6964.33648   -10.90493  0.73527  12010.99016  0.00695  58535.39156  52.87772  36.72118  19.27862     58575.25 
    14.29187  1.55929   6.76355       3.76322         2759.16276  0.39925  0.01637     0.09369  35.99229     16.87689   3183.78736   -12.63532  1.11842  11106.26883    4e-05  58533.66117  52.79731  34.02487  19.33063     58575.25 
    13.79898  1.94898  16.30341       4.68766         2721.00331  0.46281  0.01335     0.01279  39.95935     18.85306   6318.22278   -12.96397  0.49268   9943.13812  0.00396  58533.33253  52.70886  40.14145  19.27677     58575.25 
    14.56596  1.93353  18.51474        3.5084         3087.87077  0.48372  0.01164     0.45613  32.38354     16.29906   8756.60156    -8.94781   0.8309   9604.56016    1e-05  58537.34869  52.66328  40.48429   19.2595  58574.39214 
    12.25823  1.46434   3.01404       4.89785         3249.42269  0.47737  0.01421     0.01507  32.83812     19.40453   9006.96192    -9.40056  0.44021  11033.13136   0.0141  58536.89593  52.78476  40.04954  19.33674  58575.56853 
    12.67602  1.84632  24.67535       4.20901         3150.18233   0.4488  0.01161     0.03816  37.74833     19.80786   5191.08929    -9.54039   0.5901   10319.0001  0.03569   58536.7561  52.73695  38.55643  19.24557  58575.25471 
    14.20105  1.61165   2.72836       2.62554         2839.91674  0.13346  0.06013     0.03728  22.93952     17.30564   6937.13644   -14.33492  0.76452   9653.28046  0.00011  58531.96157  52.64099  10.50467  19.27395  58575.56853 
    13.04541  1.73733  24.99516       4.53374         2968.24747  0.49495  0.01419     0.02015  33.19745     18.24061    7900.6682    -9.87267  1.25691  10204.34689  0.00097  58536.42382  52.71775  41.60169  19.28855  58575.25471 
    12.77447  1.94764  25.51498       4.54861         3173.21747  0.49631  0.01345     0.18632  32.83809     16.57237   8978.00487   -10.44477  1.56974   9075.95554    2e-05  58535.85172  52.61515  41.63786  19.26479     58575.25 
    14.13618  1.74255    4.7443       1.84451          3018.3148  0.21519  0.01239     0.11426   48.9333     20.07301   7975.96265    -11.9214  1.49762  11928.26216  0.06573  58534.37509   52.8814  19.29456  19.25641  58574.39214 
    14.16152  1.75824   4.83274       3.57735         3238.02928  0.15567  0.01042     0.08156  47.33831     16.24386   7773.31462    -11.9377  1.30329   7039.31936    1e-05  58534.35879  52.42098  13.88313  19.23967  58575.25471 
    13.37824  1.51774  29.00531       4.20434          2882.7294  0.43955  0.01369     0.01107    40.269     18.82767   8772.53202   -11.14252  0.40809  11130.01754  0.00374  58535.15397  52.80737  38.17333  19.29943  58574.39214 
    13.69272  2.02014  10.55329       4.84804         2822.97571  0.48281  0.01131     0.21526  34.45814     16.71593   4063.38568    -8.11778  0.66651   10253.6011    3e-05  58538.17871  52.72471  40.84213  19.24345  58576.38724 
    14.16828   1.5145  19.60874       3.61141           2840.184  0.47718  0.01182     0.01061  37.00332     16.25111   5407.80486   -10.20261  0.70972  10270.94786    1e-05  58536.09388  52.73144  40.85714  19.32017  58576.38724 
    14.45275  1.66607  28.08755       2.65484         3096.81438  0.43361  0.01027     0.08662   41.3154     17.62633   8910.66541   -10.86839  1.10714   9757.77002  0.00023  58535.42811  52.69493  37.81811  19.22879  58574.39214 
    14.94021  1.44629   9.72269       3.70227         2719.37362  0.49576  0.01444     0.01298  32.99718     16.32753   4101.98475   -10.25416  0.31463  10762.61984    1e-05  58536.04233  52.76356  41.62691  19.27199  58576.38724 
    12.37024  1.66815  20.78928       4.41917         2828.79684  0.37106   0.0118     0.01656  44.46978     17.20184     7176.928    -8.44315   0.4759  13380.32895    9e-05  58537.85334  52.97443    32.757  19.33987  58576.38724 
    12.92488  1.62708  21.37342        4.2136          2982.8808  0.33509  0.01054     0.22211   48.3346     17.63169   5073.89547    -9.31413  0.98486  11919.11978  0.00024  58536.98236  52.87987  29.98573  19.28846  58574.39214 
     13.3251  1.67246    8.5573         4.176         3094.31799  0.37105    0.011     0.03169  42.97106     16.07095   4794.02865    -9.43332   0.6243  11664.66342    1e-05  58536.86317  52.85279  32.57278  19.23125  58574.39214 
    14.52752  1.64565  19.78077       3.12284         2867.22436  0.34426  0.01056     0.04226  49.61945     17.75083      4311.76    -9.06298  0.49561  14275.25669  0.00031  58537.23351  53.03839  30.93664  19.25923     58575.25 
    13.60624  1.59904   9.73409       4.63136         2788.61742  0.44577  0.01292     0.21563  36.97662     16.90682   9671.95255    -8.04755  0.80298  12870.04927    4e-05  58538.24895  52.92732  38.16321  19.25034  58575.25471 
    14.29198  1.55596   8.63319       1.48401         2758.82891  0.40927  0.01326     0.16703  41.79262     16.42442   6845.55556    -11.1411  1.53549  13711.55111    1e-05   58535.1554  52.99123  35.76275  19.25383  58575.56853 
    13.26305  1.64777   5.69105       4.86947          2925.8387  0.45545  0.01362     0.13037  34.90564     17.52502   4688.63841     -9.1321  0.23245   10902.4941  0.00019  58537.16439  52.77896  38.61213  19.24587  58575.56853 
    14.93181  1.50243  25.18321       4.30133         2864.24672  0.45546  0.01505     0.03866  35.76346     16.19657   6060.67859    -8.44423  1.13955  13116.31371    1e-05  58537.85226  52.94133  38.77351  19.26245  58574.39214 
    14.78582  1.57076  19.53214       4.88241         2914.16962  0.45136  0.01322     0.01121  36.39548     19.50142   8553.08519     -9.9814   0.6031  11075.17876  0.01763  58536.31509   52.7957  38.53818  19.27729  58575.56853 
    14.65756   1.7269  27.49027       4.49694         3012.88193  0.42402  0.01084      0.0214  37.59825     18.17694   6384.47847    -9.33001  0.74697   9639.14247  0.00083  58536.96648  52.67746  36.40377  19.30862  58574.39214 
    14.12051  1.28861   4.83182       3.68523         2979.43796  0.31788   0.0166     0.08339  37.65116      18.8191   4264.49574   -12.27104  1.23499  10279.98589  0.00366  58534.02545  52.73347  27.29715  19.30561  58576.38724 
    13.86931  1.86669  14.18664       4.99115          3094.3619  0.47061  0.01326     0.06243  33.72651      17.9761   3668.34863   -11.63573  1.16292   9212.10433  0.00053  58534.66077  52.63008  39.66352  19.22451  58574.39214 
    14.53608  1.74752   7.10084       2.67205         2659.33488    0.421  0.01655     0.24138  37.94406     17.85232   4315.15651    -9.36333  1.29851  13857.46274   0.0004  58536.93316  52.99342  36.20016  19.27738  58576.38724 
    15.03231  1.40617   5.73007       4.64803         2582.01665  0.44617  0.01592     0.02458  36.31228     17.48885   9949.47257    -7.22931  0.47818  14529.30866  0.00017  58539.06719  53.03132  38.08078   19.2019  58575.25471 
    14.05382  1.56875   3.04971       2.95561         2640.05915  0.09388  0.04177     0.03002  18.58765     17.07491   6749.73084   -13.38522   0.9085   9769.93594    7e-05  58532.91127  52.63431   7.10327  19.28918  58574.39214 
    12.34773  1.73605  28.91354       3.45567          3063.3082  0.40472  0.01331     0.06458  40.15923     16.34896   5283.93942   -10.44186  0.12661  12075.20353    1e-05  58535.85463  52.87797  35.13191  19.30168     58575.25 
    14.95945  1.82301  22.37214       3.80643         2634.73862  0.48759  0.01041     0.03608  37.22877     17.29957   5370.12841    -10.4785  0.93166   10027.9844  0.00011  58535.81799  52.71109  41.79177  19.27338  58578.41776 
    12.92244  1.72588  16.69163       3.12039         3013.51895  0.36809   0.0112     0.02505  45.58992     16.95032   6962.35612    -8.55915  0.48286  13274.18395    5e-05  58537.73734  52.96927  32.62725  19.24816  58574.39214 
    12.85099  1.51527  25.45816       3.46598         2930.37022  0.36445   0.0105     0.06489   48.9817     16.41102   6971.62244   -12.85726  1.42344  10832.31417    1e-05  58533.43923  52.79776  32.68316  19.22334  58574.39214 
     14.9814  2.05909   13.7182        3.3804          2966.6737  0.48562  0.01316     0.02122  33.84483     16.51828   5264.04961   -10.07652  1.19767  10619.52973    2e-05  58536.21997  52.75383  40.95374  19.22291  58574.39214 
    13.20771  1.91419  17.25606       4.88113         3066.58521  0.41233  0.01017     0.10552  37.93682     16.57028   6661.64762    -9.95809  0.50809   9569.41461    2e-05   58536.3384  52.67181  35.45361  19.26214  58574.39214 
    13.56364  1.87707  13.97128       3.67101         3120.56958  0.35975  0.01159     0.27171  46.88336     16.92432   6293.88345   -12.60045  0.54212  10331.11219    5e-05  58533.69604  52.75353   32.0341   19.2586  58575.56853 
    13.72986  1.87775  10.05022       4.10615         2980.84102  0.41903  0.01125     0.32932  38.64075      19.2495   4184.48035   -10.04471  1.31381   9626.83616  0.00987  58536.25178  52.67835  36.14066  19.33461  58578.41776 
    13.66445  1.64818  12.47401       4.10565         3277.10826  0.48775  0.01322     0.03452  31.26181      18.2492   3412.55866    -7.68037  0.24284  11066.50266  0.00099  58538.61613  52.78369  40.57302  19.23521  58578.38848 
    14.86523  1.57518   7.51825       4.20612         2805.18577  0.45308  0.01296     0.03486  36.23923     16.92212   8760.80088   -10.04758  0.91761   9648.47789    5e-05  58536.24891   52.6756  38.65726  19.22696  58572.71929 
    14.73027   1.8737   5.32071       2.13509         2937.85157  0.35694  0.01172     0.02472  40.23645     16.17319   6166.20674    -6.68528  1.02531   10674.4752    1e-05  58539.61121  52.77101  30.99413  19.36701  58576.38724 
    12.37911  1.70744   6.86317        4.8105         2600.88907  0.43332  0.01097     0.01534  41.22174     16.66934   8639.84386    -9.02443  0.38766  11624.71119    3e-05  58537.27207  52.84683  37.77804  19.19264  58572.38908 
    14.16672  1.78636   5.67712       4.68718         3184.19442  0.18759  0.01091      0.1771  51.04028     19.53964   6481.87861   -11.60301  1.31133   9246.36124  0.01925  58534.69348  52.66313  16.93445  19.28093  58574.39214 
    14.91548  1.79899   4.83675       4.49515         3129.52178  0.31349  0.01446     0.05309  37.75494     16.98822   6810.20778    -8.61296   0.4293   7936.27107    5e-05  58537.68353  52.50892   26.9331  19.24554  58576.38724 
    13.71382  1.48904  25.22223       4.68848         3091.07118  0.48311  0.01221     0.16293  33.94968      18.9706   5260.78373   -10.84732  0.74418   8652.73967  0.00519  58535.44918  52.57616   40.7633  19.31317  58576.38724 
    12.21785  1.59011  29.71728       4.31469         2979.27187  0.42929  0.01188     0.01134  39.91702     19.07551   8186.05206   -12.40354  0.92612  10281.71837  0.00661  58533.89296  52.73787  37.22741  19.26708  58575.56853 
    13.81846  1.79754  24.91289       3.60476         2839.09973  0.43239  0.01065     0.04366   42.6421     19.51477   3098.63447   -10.45112  0.92494  10509.49683  0.01818  58535.84537  52.76166  37.90942  19.24023  58575.56853 
    13.57617  1.52219  16.15774        3.0756         2914.44923  0.43496   0.0114     0.01736  39.82623      18.6589   7000.56048    -10.7219  0.44164  10467.22734  0.00253  58535.57459  52.75324  37.70494  19.27121  58574.39214 
    12.99648  1.59013   8.27289       4.32497         3026.68718  0.41292  0.01066     0.02206  40.70317     18.68233   5697.36545   -10.19927  0.97113   9071.47178  0.00267  58536.09722  52.63051  35.92444  19.14276  58669.59328 
     12.9364  1.72905   18.3463       4.32021         2637.50756  0.43745  0.01045     0.03762  40.63225     17.39614      7501.85   -10.10436  1.34542   9959.96819  0.00014  58536.19214  52.71154  38.04741  19.26834  58576.38724 
    13.98175  1.50702  29.72593       4.14666          2794.1938  0.49094  0.01534     0.01381  37.59366     17.49894    7557.2204    -13.5758  0.80583  10125.96222  0.00018  58532.72069  52.72025  42.14781  19.32633  58578.38848 
    12.31602  1.89061  20.88723        4.8666         3002.25065  0.38282  0.01093     0.01564  42.71475      16.8035   8810.25461    -9.13796  1.52413  10398.28907    4e-05  58537.15853  52.75254  33.57263  19.34168  58576.38724 
    13.77173  1.57399  22.23707       3.68697         3066.27262  0.45392  0.01249     0.23912  35.47469     16.36873   9410.34788    -9.61972  0.21541  10413.64689    1e-05  58536.67678  52.74031   38.5892   19.2692  58574.39214 
    15.11183  1.76094  25.45522        3.1685          3114.3008  0.49608  0.01067     0.01256  32.57551     17.45159   3115.69231    -7.79323  0.99231    9409.4204  0.00016  58538.50326  52.64589  41.56125  19.23898  58574.39214 
    12.59272  1.77031    5.3426       3.75935         3077.35255  0.41758  0.01082     0.01439  40.17228     16.73089   9163.80794    -9.49774   0.8697  10170.62325    3e-05  58536.79876   52.7289  36.25079  19.27892     58575.25 
    15.16984  1.23531  26.42621       4.42058         2904.86418  0.34147  0.01082     0.01028   48.0926     17.06304   8961.46014    -8.50901  0.66255  12930.22782    6e-05  58537.78749  52.95024  30.53149  19.31367  58575.56853 
    14.82346  1.69785  13.57241       4.10448          2906.1053  0.41275  0.01265     0.32555  38.78806     18.13274   4019.58257    -8.79453  1.28921  11416.13305  0.00075  58537.50196  52.82669  35.62218  19.27471  58575.56853 
    15.05389  2.07122  17.64109       4.12789         2878.77041  0.39565  0.01027     0.17573  43.95701     20.01304   6340.20525    -9.23082  0.69097  10774.05522  0.05725  58537.06568  52.78542    34.862  19.32242  58578.38848 
    13.34427  1.62758  14.44832       3.90013         3009.81172  0.48102  0.01306     0.05589  34.86118     19.24579   3891.00608   -12.21393    0.999   9576.14422  0.00978  58534.08256   52.6662  40.77089  19.28618     58575.25 
    15.15594  1.67649   17.9755       3.15276         2984.96574  0.48657  0.01477     0.46901    34.378     16.89603   3591.84465    -9.99797  0.78359  11735.30547    4e-05  58536.29852  52.84177  41.14364  19.20229  58574.39214 
    13.99413  1.43712  18.33179       3.06144         3034.65029  0.40225  0.01078     0.02844  41.21621     17.69073   5108.14566    -9.53962  1.08775  11788.21359  0.00027  58536.75687  52.85895  35.06905  19.23719  58574.39214 
