 texplosion  fnickel    Pspin  log(Bfield)      Mns  thetaPB   mejecta    kappa  kappagamma      vejecta  temperature    alpha  cutoff_wavelength  log(nhhost)      A_V         MJD0  kenergy  mnickel             TSD   log(L0)  Peak_mag     Peak_MJD  log(E_rad)  log(Peak_lum)  Rise_Time    E_fold  tau_1  delta_m15     r_peak     frac 
  -32.03875   0.0073  1.44009     13.23294  1.34545  1.08911   4.32839  0.24654     0.33493  12454.46892   5565.36155  0.13114         3294.30313     19.61002  0.02263  59718.35242  4.00501   0.0316   8862909.52229  45.13336  18.95195  59801.50039    51.83924       44.88965   40.72837  73.99712  103.5    0.08198  -22.67678  0.99946 
  -30.13143  0.08123  1.82648     13.38595  1.77952   1.3834   6.00772  0.20252     0.16986  12974.71708   7571.86116  0.57879         2232.24745     17.78007  0.00033  59720.25974  6.03299  0.48798   9320595.13581  45.02648  18.94483  59803.40906    51.75181       44.81502   45.51175  70.92607   83.0     0.0901  -22.68161   0.9912 
  -29.14941  0.00411  1.79131     13.52019  1.73726  0.74616   6.84438  0.11648     0.08641  10498.77165   7258.67942   0.5132         3948.23813     18.54906  0.00197  59721.24175  4.50027  0.02815    4716807.7281  45.32872   18.9684  59800.54773    51.78052       44.85215   36.69539  76.31778   92.5    0.08044  -22.59596  0.99949 
  -32.64465  0.13963    2.051     13.56354  2.12558  0.98551   5.50654  0.23289      0.4731    12717.505   5881.85434  0.16676         2765.14143     16.12612    1e-05  59717.74651  5.31263  0.76889   6196405.56847  45.18025  18.91243  59803.44822      51.835       44.87329    43.4085  67.89235  113.0    0.08602  -22.69276  0.98666 
  -18.54356  0.00645  2.03107     13.53653  2.04203  0.87225   3.74794  0.09343     0.31589  14362.84735   7072.62832   0.1285         3997.79961     17.35219  0.00013  59731.84761  4.61213  0.02418   6610913.76083  45.14319  18.92022  59799.50607    51.78019        44.9043   37.27077  63.10979   89.0    0.06183  -22.67603  0.99955 
   -17.3059  0.04576  1.76738     13.33603  1.76432  0.90393   3.99675  0.06414     0.08995  12061.96096   8219.21731  0.55018         4044.31195     16.56927    2e-05  59733.08527  3.46873   0.1829  10889221.74494  44.98377  18.93933  59803.40906    51.86516       44.88901    41.0957   73.6298   72.0    0.05821  -22.60437  0.99667 
  -20.97922  0.04167  1.68578      13.2082  1.67663   1.4014   6.55966  0.04841     0.06848  12186.98955   8920.35348   0.4414         3775.18836     18.53513   0.0019  59729.41195  5.81168  0.27335   16961194.0864  44.81023  18.91269  59799.50607    51.77639       44.84644   36.55922  76.45396   69.5    0.05312  -22.61217  0.99514 
  -33.08097  0.07999  1.68761     13.43616  1.56617  0.88438  10.07282  0.12063     0.19495  10634.26429   7390.31512  0.78111         3474.37817     18.56969  0.00206   59717.3102  6.79506  0.80573   5557541.50386  45.26426  18.90861  59797.57986     51.8632       44.90613   36.69539   69.4685  107.0    0.08556  -22.62598  0.98517 
  -30.50612  0.39122  1.83375     13.39096  1.73279  1.28639   4.86512  0.31214     0.31994  13162.49977    7164.9577  1.73351         2266.04496     16.62344    2e-05  59719.88505  5.02803  1.90335   8939828.77425  45.02958  18.96957  59798.61178    51.76627       44.85387   35.95874  71.91748   93.5    0.08788  -22.71263  0.96496 
  -35.06316   0.0346  1.87511     13.45239  1.93208  1.36535    6.1111  0.23954     0.24135  12407.15595   6942.94155  0.04194         3791.97505     18.88225  0.00424  59715.32801  5.61166  0.21147   7854496.19268   45.1137  18.95373  59798.61178    51.75145       44.87298    27.1425  72.00293   95.5    0.08823  -22.69743  0.99646 
  -23.56197  0.03726   1.5444     13.21209  1.43213  1.05898   6.31254   0.1073     0.46842  13054.98678   5290.95616  0.62908         3010.56029     19.07097  0.00654  59726.82919  6.41777  0.23519  11943591.55775  44.97017  18.95368  59799.50607    51.78854       44.87143    32.5341  77.05444  128.5    0.06997  -22.65987  0.99564 
    -18.878  0.01936  1.56298      13.2482  1.63184  0.84415   6.25068  0.04847     0.04772  12183.97292   8090.96538  0.47396         3911.10077     16.98799    5e-05  59731.51317  5.53519  0.12099  11803258.31001  45.02161   18.9606  59804.46354    51.84217       44.87091   44.52034  70.20516   69.5    0.06912  -22.62989  0.99802 
  -20.75304  0.00872  1.74615     13.31391  1.71093  1.48919   3.97626  0.09031     0.15412  12464.46471    8346.4333  0.15903         4067.84814     16.87557    4e-05  59729.63813   3.6851  0.03465  11413022.37547  44.96051  18.96221  59800.54773    51.77236       44.83228   37.67106  78.42758   73.5      0.057   -22.6093  0.99938 
  -20.88243  0.07097   1.9618     13.38623   2.0555  1.30727   3.76719  0.07543     0.19273  14063.22057   7081.65811  0.01818         5088.73988     16.43539    2e-05  59729.50873  4.44442  0.26736  12404318.14271  44.90288  18.92554  59798.61178     51.8072       44.87949   40.34597  63.24344   79.5    0.05834  -22.67958  0.99534 
  -38.51057  0.03478  1.79452     13.46544  1.83455  1.25988   6.04755  0.26902     0.22315  11080.56099   6966.90143  0.13928          4339.4091     18.42456  0.00148   59711.8806  4.42925  0.21035   6432277.35819  45.21611  18.96481  59801.50039    51.79569       44.91237    32.5341  68.97919   94.5    0.08228  -22.64333  0.99655 
  -20.81314  0.00134  1.67297     13.16621  1.57233  1.44871   4.40271  0.15715     0.18407  13410.81949   7182.66287  2.66107         2480.57125     16.41605    1e-05  59729.57803  4.72343  0.00589  19007058.26754   44.7395  18.92023  59799.50607    51.74491       44.78187   40.41262  81.50538   93.0    0.07442  -22.63631  0.99988 
  -17.94064  0.00273  1.46612     13.27087  1.40453  0.71223   4.39257  0.07193     0.07171  11491.45841   8178.56905  0.58916         4058.11098     18.89498  0.00436  59732.45052  3.46016  0.01201   8052869.56463  45.17809  18.94044  59799.50607    51.75744       44.85759   35.95874  70.20516   73.5    0.05961  -22.61295  0.99979 
  -26.28969  0.00365  1.68815     13.31194  1.67528  1.14363   3.63479  0.18034     0.17995  13255.83961   7632.96347  0.04201         4432.90608     18.35575  0.00126  59724.10148  3.80997  0.01325  10540038.74391  45.01527  18.93147  59801.50039    51.82613       44.89512   42.05829  63.24691   76.5    0.07247  -22.67437  0.99977 
  -28.43323  0.00383   1.6624     13.28883  1.57571  1.17787    3.9571  0.27789     0.42383  13690.23875   7403.61676  0.97638         2068.95178     17.74267  0.00031  59721.95794  4.42412  0.01515  10693153.98535  44.99574   18.9119  59803.40906    51.79451        44.8674   42.82148  68.47938   99.5    0.08475  -22.70013  0.99972 
  -15.12899  0.00144  1.72059      13.2595  1.63032  1.24585    5.7847  0.04029     0.07478  12337.98339   8341.89728  0.50346         4284.94504     17.78752  0.00034  59735.26218  5.25287  0.00834   13565742.1888  44.87732  18.91155  59799.50607    51.81845       44.87907   40.34597  67.26137   71.0    0.05646    -22.618  0.99984 
  -23.80028   0.0169  1.88473      13.4449  1.81224  1.35915  10.08027  0.06343     0.33925  10420.98218   7549.67088  0.47148         4336.40095     16.26851    1e-05  59726.59088  6.53005  0.17034   7704055.44851  45.08984  18.98677  59799.50607    51.83601       44.91042   30.81181  78.77672  115.0    0.08792  -22.57451  0.99684 
  -24.53106   0.0447  2.03754     13.47998  1.97369  1.42555   10.4748  0.06399     0.41751  10296.65841   5477.43087  0.58863         4142.38484     17.63991  0.00024  59725.86011  6.62469  0.46817   8343638.95418  45.02456  18.93409  59804.46354    51.81724       44.88955   42.80802  67.84732  123.0    0.08696  -22.57219  0.99105 
  -23.68666    0.002  1.77782     13.31866  1.77673  1.26989   3.87959  0.15479     0.29736  13833.58136   7142.80684  0.19675         3310.45508     19.71943  0.02912  59726.70451  4.42876  0.00776  12019506.39714   44.9388  18.97208    59803.646    51.80682       44.94627   25.68481  69.28388   93.5    0.06855  -22.70091  0.99986 
  -21.65603  0.00102  1.54337     13.19071  1.38913    1.392   6.59223  0.08015     0.11481  11263.45928   4130.14895  0.65143         3747.37514     18.52717  0.00187  59728.73514  4.98888  0.00671  12766371.94882  44.92858  18.96073  59801.42693    51.81292       44.92715   35.36622  65.66071   98.0    0.07497  -22.59365  0.99987 
  -25.69866  0.07737  1.86061     13.50953  1.84973  0.81994   5.63847  0.12527     0.41952  12922.58414   6580.82174  0.06747         5715.45142      18.0284  0.00059  59724.69251  5.61678  0.43626   5690747.00744  45.24147  18.92645  59799.50607    51.85865       44.92587   34.98307  64.33154  116.5    0.07562  -22.66532  0.99222 
  -28.00843  0.04303  1.62302     13.26416  1.56771  1.10049   5.60209  0.16635     0.29329  13436.68656   4770.27911  0.80024          2255.8234     17.30919  0.00011  59722.38274   6.0334  0.24104  11361022.57944  44.98804  18.93446  59803.40906     51.7774       44.85811   43.80008   69.2131  103.0    0.07615  -22.69896  0.99571 
  -26.59677  0.15121  1.69516     13.37275  1.62976  1.09542   3.15267  0.27798      0.4517  13129.70805   7481.96743  0.03309          5070.0579     19.03832  0.00607  59723.79439  3.24202   0.4767    7813652.3752  45.12969  18.93128  59798.61178    51.80254       44.93036   37.07854  61.09446   93.0    0.08457  -22.67539  0.99156 
  -22.05228  0.17893  1.81238     13.33818  1.65595  1.11325   2.92916  0.32174     0.49977   13416.0746   7671.34659  1.95659         2603.15479     16.24768    1e-05  59728.33889  3.14501  0.52412   10641351.8305   44.9444  18.96888  59800.54773    51.79624       44.90365   27.43394  74.73263  100.0    0.09257  -22.66971  0.98941 
  -30.75867  0.16284  1.83609     13.38153  1.76406  1.55647   5.03308  0.20114     0.26892   11418.7921   7514.84678   0.7542         2654.55728     16.43659    2e-05   59719.6325  3.91473  0.81957   9528981.89884  45.00852  18.92658  59800.54773    51.83856       44.91787   39.38338  62.84568  102.5    0.08052  -22.59551  0.98498 
  -38.12672  0.09974  1.65089     13.46593   1.6014  0.95966  11.00931  0.11937     0.08302   9616.80745   7985.07011  0.32494         4206.22928     16.72284    3e-05  59712.26445  6.07364  1.09808   4741271.31259  45.36201  18.94804  59803.40906    51.82561       44.87707    43.4085  67.89235   90.5    0.08232  -22.55398  0.98165 
  -23.07027  0.01538  1.74211     13.46093  1.55491  0.74618    5.1676  0.15945     0.27203    11674.436   3477.81065  0.97561         3475.30057     18.18538  0.00085   59727.3209  4.20134  0.07947   5245718.92311  45.25859   18.9534  59800.54773    51.83721       44.89796   42.40773  64.60979  107.0    0.09579   -22.6301  0.99838 
  -29.57348  0.00174  1.91176     13.47157  1.93019  1.00209   4.40366  0.22808     0.49386  12915.36537   7144.04335  0.09098         3853.02245     17.86393  0.00041  59720.81769  4.38182  0.00766   7467041.09748  45.11843  18.95466  59803.40906    51.81237       44.87815   44.52034  70.20516  109.0    0.08149  -22.67831  0.99986 
    -27.714  0.37418  1.80211     13.47184   1.7117   0.7877   5.09169  0.16114     0.23051  12648.50267    7092.3982  0.54822         2685.68263      16.0409    1e-05  59722.67717  4.85923  1.90522   5876534.19551  45.22159  18.96572  59804.46354     51.8295       44.84997   44.52034  75.00294   99.5    0.07958  -22.63946  0.96501 
  -34.00189  0.01503  1.91321     13.50767   1.9626   1.0411   6.06813  0.21528     0.30251  11662.91555   4255.99466  0.35285          3577.4747     19.75112  0.03132  59716.38928  4.92376  0.09122   6439120.27466  45.18933  18.96229  59801.12889    51.80794       44.94242   26.04244  69.84753  104.5    0.08293  -22.68483  0.99844 
   -27.3337  0.00724  1.71926     13.44418  1.69223  0.74011   4.84161   0.1813     0.15128  13415.60491   6808.04766  0.12209         3818.53498     17.41682  0.00015  59723.05747  5.19802  0.03504   6006068.49611  45.24803  18.93553  59796.09467    51.77967       44.88452   34.24642  69.93628   82.0    0.07747  -22.69529  0.99938 
  -29.97675  0.02226  1.69172      13.3435  1.69756  1.07303   9.52423  0.08596     0.05259   10927.5456   7958.04587  0.46573         4015.07631     19.64536  0.02455  59720.41442  6.78426  0.21203   9274451.74363  45.07472   18.9673  59798.40999     51.8308        45.0048   23.97249  63.35587   83.0    0.07423  -22.66436  0.99641 
  -28.10518  0.30068  1.76348     13.60395  1.74126  0.49592   4.01704  0.20321     0.21026  13387.08889   7730.84299   0.6169         2024.50844     17.64163  0.00024  59722.28599  4.29444  1.20784   3115508.48243  45.52344  18.93383  59800.54773    51.81331       44.84403   38.66312  83.60238   82.5    0.07102  -22.67958  0.97867 
   -27.7174  0.04215  1.85299     13.43293  1.75224  1.20041   7.48815  0.08687     0.14568   8603.48767   7234.72779  0.75152         4287.92794     16.08069    1e-05  59722.67377  3.30637  0.31562   7608282.29601  45.09541  18.96667  59803.40906    51.77848       44.78736   46.23266  83.90372  122.0    0.08473  -22.51701  0.99403 
  -29.75235  0.00111  1.91197     13.45502  1.80107  1.31558  15.77485  0.04821     0.13337   7564.65633   9309.78734  1.17909         3800.84255     16.33812    1e-05  59720.63882  5.38482  0.01747   7520747.44951  45.08515  18.96657  59799.50607     51.7881       44.82338   37.67106  84.24694  107.5    0.08661  -22.47106  0.99966 
  -15.52583  0.00458  1.71627     13.43108  1.63371  0.67307   6.10633  0.03619     0.04524  10391.31447   8781.49487  0.85763         3991.65057     19.01191  0.00571  59734.86534  3.93322  0.02799    6137593.5117  45.22485  18.98638  59804.46354    51.77365       44.91946   25.68481  67.57156   73.5      0.053  -22.54849  0.99947 
   -24.8113   0.0592  1.74722     13.45518  1.72588  0.70051   3.64706  0.16825     0.19839  13142.75473   7140.49048  0.20881         4583.16677      16.2698    1e-05  59725.57987  3.75788  0.21591   6013906.58379    45.242  18.93794  59805.45156    51.77749       44.83567     32.485  78.81586   85.0    0.06729  -22.68609  0.99612 
  -33.21532  0.01359  1.96277     13.52779  2.04724  1.39103   9.68036  0.13203     0.14494  10592.13224   7919.62604  0.29227         4826.42367     18.75444  0.00316  59717.17585  6.47867  0.13154   6443674.01303  45.18514  18.91446  59798.36164    51.83992        44.9041   37.30373  61.85983   93.0    0.08848  -22.66044  0.99781 
  -33.32501  0.00188  1.70459     13.45017  1.68913  1.38805   8.27035  0.17089     0.43621   10221.5194   8353.36676  0.35963         4026.51418     18.68088  0.00266  59717.06616  5.15445  0.01556   5732827.52307   45.2749  18.96015  59800.54773    51.80841       44.84013   42.80802  76.71526   87.5    0.08896   -22.5984  0.99974 
  -26.46241  0.00595  2.03558       13.545  2.10363  1.19374   5.58721  0.14899     0.29461  12484.40374   7156.04856  0.05088         4137.08811     18.31627  0.00115  59723.92876  5.19466  0.03327    6578905.9856  45.15629  18.93643  59801.12889    51.84955       44.89464   40.34597  65.81793  100.0    0.08914   -22.6398  0.99942 
  -33.42721  0.10439  1.72759     13.43729  1.67995  1.13242   7.31726  0.18459     0.25391  11252.85972   3354.11529  0.26835         4316.01724      16.8653    4e-05  59716.96396  5.52715  0.76384   6214455.86469  45.22586  18.94144  59799.50607    51.85402        44.9194   36.69539  63.15048   99.5    0.09084  -22.65876  0.98685 
  -25.47735  0.01112  1.88767     13.45259  1.82515   1.0515    6.7934  0.11552     0.38198  11854.89738   6406.45082  0.31756         3875.82297     18.81927  0.00366  59724.91382  5.69521  0.07555   7512397.73151  45.10251  18.97577  59800.54773    51.83011        44.8507   39.38338  79.76441  121.5    0.08454  -22.61149  0.99858 
  -34.17165  0.01465  1.73501     13.30983  1.80066  1.44135   3.62782  0.29313     0.17647  12161.96228   7578.35615  0.09604         3276.68482       18.497  0.00174  59716.21951  3.20096  0.05316   12083516.5695  44.96348  18.94267  59800.54773    51.82965       44.89553   42.44069  64.57682   79.5    0.07657  -22.68294  0.99913 
  -32.13188    0.176  1.65948     13.47925  1.57809  0.83425   7.32165  0.14988     0.09898  10485.72744   7927.91749    0.317          4804.6679     17.56509   0.0002  59718.25929  4.80212  1.28863   4440140.16909  45.37964  18.93278  59801.50039    51.79439        44.8895   37.67106  69.63247   85.5    0.08635  -22.63109  0.97769 
  -24.59031  0.00997  1.77525     13.52907  1.87155  0.53042   3.16087  0.18132     0.28712   15113.0098   7199.67399  0.15293         2940.54688     19.00575  0.00563  59725.80085  4.30662  0.03151    4790580.1933  45.36214  18.96812  59801.12889     51.8629       44.88785   40.50318  77.64696   84.0    0.05789  -22.74431  0.99946 
  -31.73675  0.06624  1.75519     13.47718  1.68222  0.88351   5.04611  0.22128     0.38407  12114.13539   6897.09598  0.41876         2659.30725     17.25598   0.0001  59718.65442  4.41742  0.33427   5345466.99335  45.27809  18.94214  59798.61178    51.79942       44.87816   37.27077  70.60545  105.5    0.09046  -22.63281  0.99397 
  -28.55138  0.00347  1.74536      13.5665  1.62951  0.64229   6.75655  0.15504     0.23946  11442.18437   4701.14352  0.62629           3081.544     18.02092  0.00058  59721.83979  5.27679  0.02342   3393546.74458  45.46648  18.97366  59801.50039    51.78954       44.90438    32.5341  70.20516  104.0    0.09028  -22.60148  0.99956 
  -29.14239  0.00594  1.46766     13.13999  1.59609  0.93241   5.84527  0.13411     0.06374  12596.37677   7709.14771  1.51235         2376.82772     17.53049  0.00019  59721.24878  5.53252   0.0347  16754687.32117  44.91452  18.93925  59797.57986    51.84898       44.93858    33.6539  63.65282   77.0    0.07532  -22.66255  0.99947 
  -21.37916   0.1312  1.95813     13.50869  1.86803  0.96828  10.93949  0.04448     0.08113     9222.343   7396.48712  0.76508         5514.97973      17.6038  0.00022  59729.01201  5.55017  1.43526   6389913.03318  45.15105  18.93331  59798.61178    51.84068       44.87842   39.38338  68.22396  115.0    0.08905  -22.69656  0.97285 
  -20.52502  0.05347  1.94315     13.63077  2.00159  0.53025   3.85411  0.14344     0.23771  15213.40287   6974.45385  0.47876         2148.55502     19.30159  0.01113  59729.86615  5.32114  0.20609   3842900.60915  45.40855  18.95143  59799.50607    51.84717       44.90632   38.40771  63.82135   81.0    0.06619  -22.72221  0.99629 
  -28.78825  0.05033  1.70062     13.58948  1.56565  0.58181  11.57778  0.06372     0.04543   8714.39494   7719.63543  0.85168         4007.25462     18.86074  0.00403  59721.60292  5.24477  0.58267   2784643.37438  45.55756  18.92971  59801.50039    51.78781        44.8651   35.95874  75.34212   98.0     0.0868  -22.53371  0.98907 
  -28.08572  0.03072  1.71446     13.43011  1.64454  1.00701    5.7098  0.20462     0.12253  11999.77945   8307.37757  0.24373         4238.63494     16.06092    1e-05  59722.30545   4.9045  0.17538   6193035.36954  45.22473    18.946  59799.50607    51.77242       44.86853   39.38338  68.49284   73.0    0.09265  -22.67495  0.99688 
  -31.17137  0.06137  1.80519      13.4822   1.7375  0.83362   7.11255  0.15654     0.14567  11916.83147   7549.95292  0.34566         3409.38396     18.73906  0.00305   59719.2198  6.02524  0.43648   5706714.13861  45.23934  18.96744  59803.40906    51.83359       44.88947   39.38338   73.6298   91.0    0.08165  -22.63678  0.99199 
  -35.76847  0.02585  1.54629     13.27179  1.50001  1.34284   7.75241  0.17568     0.33433  12141.14251   7252.19122  0.08194         3075.51978     19.28728  0.01076   59714.6227  6.81684  0.20043   9525950.58606  45.08745  18.96482  59806.40811    51.79404       44.87278   28.11019   78.0537  107.5    0.08359  -22.68139  0.99665 
