 log(Bfield)      Mns    Pspin  cutoff_power  cutoff_wavelength  fnickel    kappa  kappagamma   mejecta  log(nhhost)  temperature  texplosion  thetaPB     vejecta      A_V        MJD_0   log(KE)      M_Ni  Peak_mag     Peak_MJD 
    13.74289  1.80348  3.51124       1.56591         3188.95635  0.01476  0.28009     0.26442   2.21019     16.38851   7166.09605   -18.88983  0.97606  8081.35299    1e-05  55542.71017  52.24255   0.66214  20.23814      55608.4 
    13.71448  1.85016  3.60046       1.54536         3501.10657  0.00134  0.09318     0.17357   5.80226     18.74923   7786.92735   -18.93056  1.40443  6614.02999  0.00312  55542.66944  52.18614   0.07875  20.25487  55605.20727 
    13.54506  1.49668   3.0557       1.27379          3422.7256  0.00423  0.25918     0.36258   2.24337     16.93697   7331.88936   -19.44249  1.50198  7689.75559    5e-05  55542.15751  52.20148   0.19049  20.27623      55608.4 
     13.9403  1.72732  3.41219       0.51642         4538.45872  0.09442  0.05748     0.10444   8.65017     16.54219   7662.02954   -21.09243  0.56749  6956.37336    2e-05  55540.50757  52.27065   6.10011  20.26575      55608.4 
     13.7306  1.52116  3.11864       1.61648         3384.29172  0.01243  0.25541     0.22142   2.13368     17.35932   7166.22978   -19.28722  0.68916  7692.30366  0.00013  55542.31278  52.19473   0.55153  20.18477  55605.20727 
    13.62725  1.66876  3.31876       1.23205         3566.19195  0.01166  0.10297     0.15696   5.31018     18.00722   7633.50981   -18.62727  1.49128  7337.64588  0.00056  55542.97273  52.26676    0.6708  20.30016      55608.4 
     13.6196  1.44919  2.96457       0.79011         4192.45276   0.0071  0.10911     0.21831   4.25192     16.63621   8262.50837   -19.05025  1.06793  6665.19553    2e-05  55542.54975  52.15831   0.38596  20.17991  55605.20727 
    13.73183  1.70778  3.34536       0.65974         4263.38925  0.02921  0.04469     0.05167   9.41491     17.36691   6996.12793   -16.38539  1.20189  6650.51062  0.00013  55545.21461  52.23975   1.92272  20.23333      55608.4 
    13.58094  1.45429  2.95284       0.82905         4164.92203  0.00122  0.14668      0.2859   3.07381     16.97129   7530.50888   -19.67516  1.37458  5981.62763    5e-05  55541.92484  52.02509    0.0604  20.23533      55608.4 
    13.62899  1.52442  3.07508       0.91589         3852.79352  0.00475  0.06941     0.15363    7.6988     17.85584   8023.18854   -22.23338   1.1665  6275.26615   0.0004  55539.36662  52.16967   0.29913  20.24898      55608.4 
    13.62157  1.51684  3.10919       1.67939         3314.79635   0.0129  0.24404     0.23414   2.39164     16.73096    7154.1384   -19.65484  0.97172  7764.60976    3e-05  55541.94516  52.21872   0.59359  20.20174      55608.4 
    13.44688   1.2761  2.76092       1.59173         3365.10751  0.00123  0.32191     0.31635   1.69703     16.98311   6880.15849   -19.23795  1.36477  7546.97569    5e-05  55542.36205  52.14447   0.05038  20.24223      55608.4 
    13.86105  2.04026  3.88248       1.80528         3286.77783  0.03629  0.20856      0.2326   2.81833     18.50653   6991.77845   -19.94798  0.80156  8004.14445  0.00178  55541.65202  52.26697   1.75598  20.22001      55608.4 
    13.71093  1.61772  3.22176        0.8261         4183.28763  0.01469  0.05571      0.0926   8.27118     16.84684   8151.18004    -19.8876  1.00866  6197.75525    4e-05   55541.7124  52.16597   0.93922  20.21684  55605.20727 
    13.71563  1.57107  3.03632       0.39966         5139.29379  0.05594   0.0647     0.06742   6.69876     19.56955   7068.27764   -20.26787  0.88647  6711.70122  0.02062  55541.33213  52.21395   3.40726  20.24458      55608.4 
    13.69371  1.74375  3.37803       0.70252         4002.99039  0.01518  0.08536     0.16277   6.10719     17.86862   7535.95342   -20.75115  1.31118  6794.44685  0.00041  55540.84885  52.21495   0.90417  20.24809      55608.4 
    13.81477  1.88617  3.55707       0.70391          4024.9892   0.0057  0.12369     0.21812   4.20038     16.63909   8104.24715    -20.3335   0.9238  6893.85551    2e-05   55541.2665  52.18619   0.30874  20.22326      55608.4 
    13.40984  1.14626  2.47514       0.77089         3827.98939  0.00622  0.14656     0.36137   3.90878      16.3607   7744.15072   -18.75095  1.45155  7317.66376    1e-05  55542.84905  52.22959   0.33052  20.27737      55608.4 
    13.63994  1.55498  3.07499       0.64843         4152.52748  0.00189  0.15809     0.36217   3.51626     18.79825   7861.23781   -20.09643  1.17862  7053.94311  0.00349  55541.50357  52.18501   0.09755  20.24339      55608.4 
    13.81626  2.03762  3.86368       1.39072         3610.03728  0.00133  0.10112     0.35863   5.47004     19.59801   8493.84344   -19.25794  1.11973  6992.11641  0.02202  55542.34206  52.22809   0.07687  20.22555      55608.4 
    13.88079  1.57848  3.07619       0.49641         4591.03159  0.00786  0.06504     0.13915   7.83965     17.87834   7841.39393   -20.97869  0.56748  6984.21569  0.00042  55540.62131  52.26444   0.49688  20.23379      55608.4 
    13.63073  1.48264   3.0356       0.78776          4368.9852  0.04318   0.0451     0.03872   8.45506     19.26505    7118.2371   -18.60175  1.04141  6471.91681  0.01023  55542.99825  52.20572   2.77538  20.25299  55608.85564 
    13.67076  1.52454  2.98155       0.69363           3813.359  0.01449  0.06419     0.12309   9.22413     19.74324   7401.30558   -21.32632  0.91918  7348.66008  0.03076  55540.27368   52.3245   0.94945  20.22807      55608.4 
    13.71032  1.61796  3.28902       1.20611         3765.03695  0.02068  0.04609     0.09258  10.59736     18.08118   8499.98488   -20.25335  0.97924  6275.41513  0.00067  55541.34665  52.20047   1.39675  20.25895      55608.4 
    13.62111  1.70971  3.36164       1.53391         3172.98113  0.00408  0.30652     0.47981   2.01227     17.77145   7369.72775   -20.79751  1.40366  7822.23954  0.00033  55540.80249  52.20091   0.17771  20.19908  55605.20727 
    13.96767  1.59708  3.20992       0.75126         3836.55299  0.09911  0.09134     0.19115   6.53131     19.11583   7827.05005   -24.12963  0.46281  6557.86454  0.00725  55537.47037  52.19119   6.00022  20.21287  55605.20727 
    13.76487  1.59243  3.13586       0.43371         4651.69788  0.03006  0.05841     0.06426   8.37401     17.53811   7623.64369   -19.51127   0.8081  7180.26631  0.00019  55542.08873  52.29499   1.92802  20.25066      55608.4 
    13.65915  1.54712  3.16481       1.57665         3421.41446  0.00126  0.31054      0.2839   1.66292     17.84017   7360.99285    -19.2464  0.87199    7564.763  0.00038   55542.3536   52.1434   0.05116  20.19577      55608.4 
    13.77149   2.0438  3.93021       1.68151         3481.47213  0.00686  0.11982     0.11676   4.28145     17.72088   7427.35025    -18.1645  1.23319   7327.2097  0.00029   55543.4355  52.24136   0.37364  20.21706      55608.4 
    13.71543  1.76607  3.47794       1.45343         3630.30062  0.00598  0.18196     0.29513   2.94978     18.18971    7941.8533   -20.19222  1.12677  6547.15121  0.00086  55541.40778  52.09832   0.29339  20.23565      55608.4 
    13.53388  1.41979  2.95333       1.92786         3249.70168  0.00136  0.31826     0.30574   1.68598     16.56906   7007.87815   -19.48529   1.1095  7475.08308    2e-05  55542.11471  52.13516    0.0556   20.2548      55608.4 
    13.55935   1.5418  3.17138       1.41728         3319.74755  0.03597  0.02859     0.03266  17.30946     19.70782   6756.45047   -17.52853  1.53217  8007.21842  0.02835  55544.07147  52.45553   2.68427  20.23898      55608.4 
    13.78391  1.71088  3.38454       1.40201         3485.70013  0.03899  0.12406     0.48762   5.36422     16.94286   8571.56892   -22.71973  0.85814   6688.7756    5e-05  55538.88027  52.18744   2.24949  20.20491      55608.4 
      14.174  1.94129   3.4689       1.35473          3180.4798  0.01876   0.3079     0.35385   1.81741     20.32839   7100.76625   -21.75749  0.32564  8039.97907  0.11834  55539.84251   52.2098   0.78875  20.22366  55605.20727 
    13.89545  1.57283   3.0737       0.29119         4734.03327  0.02904  0.05699     0.10979  10.14273     16.19885   7311.79646   -21.44381  0.52863  7474.88115    1e-05  55540.15619  52.34829   1.94268  20.23446  55605.20727 
    13.80646  1.51133  2.91391       0.68166         4137.75533  0.02766  0.12268      0.1838   4.55807     19.98424    7350.8558   -23.47278  0.59831  6838.19766  0.05358  55538.12722  52.18853   1.53053  20.21562      55608.4 
    14.10483  1.70257  3.26515       0.39741         5165.13177  0.05191  0.08458     0.17236   6.42838     18.22745   7572.05161    -22.1572  0.36367   6938.6963  0.00094   55539.4428  52.23857   3.13082  20.26417      55608.4 
    13.62835  1.67539  3.26639       0.66614         4033.49709  0.01038  0.18047     0.27736   2.95959     18.18976   7198.93266   -21.42238  1.49402  7123.42476  0.00086  55540.17762  52.17202   0.50941  20.25056  55605.20727 
    13.64588  1.54391  3.04958       0.53498         4563.74173  0.00505  0.07269     0.16404   7.69542     17.34634   7972.99972    -21.1904  1.16773  6772.77243  0.00012   55540.4096  52.23589   0.31756  20.24605  55605.20727 
    13.56588  1.45126  3.15239       1.49495         3469.71389  0.08828  0.03793      0.0413  14.26805     17.71927   7303.38577   -18.40302  1.28244  7510.17157  0.00029  55543.19698   52.3833   6.34225  20.24037      55608.4 
    13.57742  1.47767  3.04957       1.81812         3259.47237  0.00353  0.28421     0.38294   1.93397     17.22346     7414.083   -19.95648  1.06307  7455.21286    9e-05  55541.64352   52.1534   0.15148  20.27917      55608.4 
    13.84924  1.95011  3.72866       0.80096         4000.30282  0.05527   0.0684     0.15975   7.85385     17.72113   7799.81408   -21.04186  0.96896  6635.87828  0.00029  55540.55814  52.22018   3.49343  20.20858      55608.4 
    13.50537  1.44698   2.9277       1.41218         3044.32273   0.0078  0.27075     0.25692   2.35894     18.61546   6892.93801   -20.54575  1.54913  8227.16493  0.00229  55541.05425   52.2671   0.35732  20.21565      55608.4 
    13.68677  1.79079  3.52305       1.80893          3374.7697   0.0093  0.26055      0.4857    2.2235     16.79241   7636.44626   -20.64452  1.19849  7004.30367    3e-05  55540.95548  52.11915   0.41828  20.28378      55608.4 
    13.51418   1.1967  2.59317          1.06         3886.34784  0.01713  0.04629     0.13908  10.99634     17.49166   9100.97428   -19.06129  1.09997  6201.11825  0.00017  55542.53871  52.19355   1.16603  20.19267      55608.4 
    13.71479  1.89148   3.6086       1.81823         2579.54855  0.00395   0.2339     0.32784   2.71542      17.6473   7071.66896   -18.13311  1.42419  8463.88281  0.00025  55543.46689  52.31062    0.1889  20.22822      55608.4 
     13.7798  1.44837  3.00248       1.50983         3445.51357   0.0317  0.10535     0.15378   5.26287     17.84707   7581.34983   -21.84725   0.5656  6976.75547  0.00039  55539.75275  52.22197   1.82016  20.22758      55608.4 
    13.65733  1.47726  2.99799       1.12553          3791.9257  0.01849  0.07149     0.11169   7.57684     19.18539   7542.29046   -22.05376  0.90628  6540.89581  0.00851  55539.54624  52.20408    1.1588  20.28726      55608.4 
    13.72233  1.81331  3.47629        0.7575         4154.64075  0.00213  0.08895     0.16454   5.25023     18.58071   7713.94334   -19.09104  1.30864   6624.5576  0.00212  55542.50896  52.17672   0.12245  20.25955  55605.20727 
    13.69601  1.74607  3.41601       1.10868         4084.19315  0.00527  0.08027     0.15723    5.7768     18.68291   8341.52385   -18.83723  1.42519  5877.75149  0.00268  55542.76277  52.08316   0.30991   20.2001  55605.20727 
    13.82491  1.81721  3.57725       1.31639         3536.37446  0.03336  0.10114     0.20489   5.83706     16.08675   7058.46743   -20.92691   0.7996  7216.09588    1e-05  55540.67309  52.26245   1.96558  20.24698  55608.85564 
    13.62156  1.54804  3.14107       0.90854         4331.87722  0.01315  0.03448     0.03383   10.5533     17.66564   8432.07617   -16.26495  1.29761  6217.47225  0.00026  55545.33505  52.19202   0.88757  20.22038      55608.4 
    14.14709  1.82907  3.50308       0.58135         4561.51539  0.00725   0.0497     0.07174   9.57971       16.525   7535.62491   -20.80571  0.36524  6773.77511    2e-05  55540.79429  52.25735    0.4793    20.244      55608.4 
    13.49111  1.21161  2.59891       0.72153         4555.47978  0.09233  0.07127     0.18585    6.8561     16.69176   8703.61664    -20.2429  1.38896   6093.3109    3e-05   55541.3571  52.13238   5.65469  20.24562      55608.4 
    13.64735  1.67914  3.26952       0.68933         4024.32939   0.0032  0.23482     0.41349   2.09519     17.59319   7751.58903   -20.22807  1.39023  6975.90245  0.00022  55541.37193  52.10723   0.14133  20.21614      55608.4 
    13.68269   1.7103  3.37786       1.04185          3596.8362   0.0107  0.14359     0.31816   3.78579     18.59483   7681.72311      -19.34  1.34229   7154.0467  0.00219     55542.26  52.20615   0.56331  20.22284      55608.4 
    13.58693  1.56359  3.14512       1.45104         3262.99772  0.02543   0.1945     0.36534   3.17997      17.8043   7624.72728   -20.24699  1.38193  7584.28053  0.00035  55541.35301  52.23556   1.27482  20.23302  55608.85564 
    14.09907  1.73352  3.27103       0.78295         4332.60705  0.05255  0.03818     0.05041     12.45     20.04389   7605.45788   -21.66058  0.38515  6219.18687  0.06146  55539.93942  52.20738   3.67165  20.29551      55608.4 
    13.79999  1.98689  3.79644       1.46732         3394.17033   0.0023  0.15427      0.2924   3.88583     17.58018   7156.77736    -20.0275  1.01178  7332.12637  0.00021   55541.5725  52.23061   0.12189   20.1845      55608.4 
    13.70138  1.72923  3.53211       2.00842         3539.36114  0.04958  0.06367     0.29704   8.38519     17.52154     8496.539   -19.22595   1.2608  6255.17754  0.00018  55542.37405  52.17532    3.1805  20.26665      55608.4 
    13.73589  1.88228  3.67214       1.77386         3511.96111  0.00299  0.24469     0.46657   2.31896     17.76589   7579.67657   -21.81146  1.15751  6611.57923  0.00032  55539.78854  52.07486   0.13615  20.27895  55608.85564 
    13.70325  1.61156  3.23831       0.82799         4494.96222  0.06538  0.06188     0.09808   6.85238     16.25889   8480.06961    -18.5795  1.09728  5907.66449    1e-05   55543.0205  52.10545   4.00335  20.26491      55608.4 
    13.68779  1.86875  3.66119       1.52022          3369.8301  0.00989  0.25704     0.30675   2.05291     16.25003   7213.83621   -19.04536  1.52826  7395.25555    1e-05  55542.55464  52.15503   0.43303  20.26419      55608.4 
    13.63019   1.5991  3.27516       1.05926         3948.98261  0.10051   0.0699     0.10553   6.92586     19.02526   7755.53203   -19.53553  1.51413  6395.70204  0.00589  55542.06447  52.17549   6.17031  20.25491      55608.4 
    13.74889  1.97278  3.76772        1.2593         3938.25378  0.00106  0.13722     0.23954   3.50513     19.31265   7354.23195   -19.52343  1.51132  6140.70052  0.01141  55542.07657   52.0642   0.05476  20.26619      55608.4 
    13.43945  1.17782  2.51113       0.69183         4172.84128  0.01442  0.15837      0.3047   2.69944     18.84375   8046.74395   -18.47735  1.37091  6656.43381  0.00388  55543.12265  52.10119   0.68896  20.23325      55608.4 
    13.74086  1.87091   3.5298       0.79265         4103.25713   0.0064  0.04974     0.09071   9.84503     19.55276   8234.65395   -19.78033  1.33436   6439.9302  0.01984  55541.81967  52.21604   0.42551  20.21099      55608.4 
    13.99655  1.69936  3.35258       0.96866         4287.64204  0.01187  0.05451     0.09061   8.77746     16.53093   7875.99935   -20.42084  0.50844   5789.7882    2e-05  55541.17916  52.11262   0.76935  20.20273  55605.20727 
    13.78074  1.75475  3.48072       1.67645         3325.94691  0.01225  0.18066     0.29221   3.24966     18.11529   7265.86086   -21.23043  0.79512  7452.74367  0.00072  55540.36957  52.22307    0.6177  20.19972      55608.4 
    13.74095  1.66645  3.36683       1.59134         3562.05527  0.03933  0.10194     0.17966   4.85542     16.27228   8025.10558   -20.04835  0.90514  6468.83959    1e-05  55541.55165  52.14741    2.2125  20.25003      55608.4 
     13.6854  1.76019  3.50842       1.37467         3724.07552  0.00655  0.21917     0.41628   2.31055     16.98749   7664.17515   -18.46266  1.36962  6676.93326    5e-05  55543.13734   52.0829   0.29812  20.20567  55605.20727 
    13.71084  1.76526  3.38772       1.45134         3343.63362  0.03899  0.14945      0.2608   4.15139     19.87964   7521.26348   -20.10114  1.00793  7701.36324  0.04211  55541.49886  52.28104   2.10504  20.25824      55608.4 
     13.7341  1.72789  3.40786       0.94627         3426.55588  0.12962  0.21276     0.40299   3.20684     18.92811   7086.25074   -21.86815  0.94888  7907.98153  0.00471  55539.73185  52.27292   6.51373  20.25509      55608.4 
    13.49586  1.37965  2.90767       1.38404         3502.18814  0.01158   0.0433     0.04721  11.88064     18.89294   7799.38349   -17.85867  1.39711  7535.94317  0.00434  55543.74133  52.36996   0.80152  20.19961      55608.4 
    13.63642  1.67663  3.36668        1.5014         3268.19184  0.01015  0.03276     0.03652  17.24112     18.18583    7137.3236   -17.74312  1.55905  7678.77809  0.00085  55543.85688  52.41882   0.75692  20.22346      55608.4 
    13.72238  1.70263   3.7485       1.48085          3364.7178  0.18491  0.03806     0.05276  15.01366     17.73656   7562.30914   -15.34805  1.40564  7794.45014   0.0003  55546.25195     52.42  13.42043  20.22257      55608.4 
    13.59539  1.58231  3.20236       1.23927         3642.75138  0.00643  0.22423     0.38786   2.42965     16.82071    7612.7584   -19.61377  1.47728  7137.59181    4e-05  55541.98623  52.14774   0.29753  20.25758      55608.4 
    13.62479  1.49773  3.07474       0.93572         4023.60672  0.03195  0.05471     0.11133    8.9691     17.34832   8247.15597   -19.80372  1.23718  6240.20732  0.00012  55541.79628  52.17978   2.08109  20.25046  55605.20727 
     13.7818  1.96058  3.84183       2.19454          3375.4986  0.00285  0.16526      0.2836   2.98967     16.43249   7929.77767   -19.67929  1.04659  6452.11501    2e-05  55541.92071  52.08733   0.14018  20.24312      55608.4 
    13.61944  1.66364  3.27706       1.33244         3487.51854  0.00494  0.18736     0.33597   3.32397     19.31952   7583.23798   -21.75461  1.37092  7207.00994  0.01159  55539.84539  52.19675   0.25072  20.22577      55608.4 
    13.81058  2.03006  3.77675       0.88644         4201.61986  0.00371  0.07047     0.14535    6.7462     16.54298    7540.0627    -20.6753  1.33706  5835.56125    2e-05   55540.9247  52.09318   0.22655  20.26708      55608.4 
    13.77751  1.95242  3.67852       0.83807         4384.26843  0.00143   0.1684     0.29818   3.10612     18.52664   7828.39066   -21.01986  1.16722  6447.86537  0.00187  55540.58014  52.09161   0.07129  20.29666  55608.85564 
    13.76575  1.75868  4.09418       1.52678          3387.5889  0.32345  0.04358     0.06896  12.27902     17.24952    7404.6689   -15.58518  1.48029  8023.26849   0.0001  55546.01482  52.42737  22.53434  20.27022      55608.4 
    13.66827  1.78505  3.57064       1.29358         3740.34444  0.00914   0.0335     0.03302  13.33964     18.17946   7322.22315   -18.10699  1.51898  6968.12792  0.00084  55543.49301  52.31231   0.64762  20.24435  55605.20727 
    13.74064  1.56527  3.09522       0.66172         4370.55538  0.01851  0.10202     0.20669   5.09176     16.61343   7890.49249   -21.97489  0.83929  6629.69035    2e-05  55539.62511  52.17402    1.0539  20.20985      55608.4 
    13.65674   1.6423  3.42706       1.13124         3845.64082  0.09501   0.0427     0.04622  10.50494     17.65013   7519.58716   -16.63001  1.34955  6958.28712  0.00025  55544.96999  52.28937   6.40504   20.2062      55608.4 
