 texplosion  fnickel     Pspin  log(Bfield)      Mns  thetaPB   mejecta    kappa  kappagamma      vejecta  temperature    alpha  cutoff_wavelength  log(nhhost)      A_V         MJD0   kenergy  mnickel           TSD   log(L0)  Peak_mag     Peak_MJD  log(E_rad)  log(Peak_lum)  Rise_Time    E_fold  tau_1  delta_m15     r_peak     frac 
  -29.98383  0.17604   2.70858     15.01549  1.91342   1.4433   1.08996   0.1843     0.30159  11723.44815   4623.27144  0.79341         3345.36629     20.40541   0.1413  48269.31617   0.89361  0.19188   12137.70566  47.60104  16.19403  48284.63696    50.38991       44.15866    4.72963  14.18888   15.5    1.29972  -20.25867  0.99802 
  -37.91835   0.0148  10.13451     14.83984  1.78202  0.83421   1.34307  0.24159     0.46974  12958.66791   4323.56615  2.32506         2230.73447     20.04269  0.06129  48261.38165   1.34538  0.01988  355345.89201   44.9575  16.22505  48279.70968    50.23384       43.81844    9.45926  21.28332   19.5     0.9168  -20.00632  0.98977 
  -41.29607  0.04952   3.05752      14.9387  2.01633  1.35001   1.68828  0.17795     0.27651    8455.4221   4788.63484  0.79694         4495.99836     17.01122    6e-05  48258.00393   0.72002  0.08361    23212.1364  47.23695  15.48949   48274.7824    51.17376       44.93869    4.72963   16.5537   21.5    0.78121  -19.70547  0.99823 
  -39.99245  0.04498   2.46813     14.84253  1.91487  0.91866   4.85406  0.06056     0.07055  12368.42724   4872.53066  4.12518         3443.94588     20.97558  0.52517  48259.30755   4.42957  0.21833   22367.94087  47.41662  16.02452  48269.85513    50.20347       43.67862   14.18888  26.01295   19.5    0.94658  -20.97897    0.996 
  -31.08539  0.03438   3.90544     15.16096  1.77857  0.66434   3.68189  0.05383     0.09802  10600.28697   4860.06528  0.81236         4674.45219     17.75626  0.00032  48268.21461   2.46793  0.12658   12003.57344  47.25627  15.96183  48277.24604    50.61284       44.29224    7.09444  18.91851   16.0    1.28476  -20.22727  0.99405 
  -37.32193  0.04155   4.07706      14.7797  1.71442  1.47133   1.57086  0.15196     0.42087  11206.58273   4524.28126  1.29027         2675.10489     16.03834    1e-05  48261.97807   1.17682  0.06527   72984.68309  46.41904   16.3302  48282.17332     50.4141       44.11598    4.72963   16.5537   18.5    1.01608  -20.28693  0.99502 
    -50.874  0.03309   0.91125      14.8759  1.58054  0.93872   5.69907  0.08099     0.02603   8039.68501   4782.61998  0.45813         2349.03682      17.9758  0.00053    48248.426    2.1974  0.18859    2158.22069  49.21428  16.60979  48284.63696    50.11069       43.68729    7.09444  21.28332   28.0    0.59143  -18.95219  0.99992 
  -37.71809  0.01285   1.27998     15.17203  2.03052  1.23987  18.55172  0.02437     0.01801  10578.07041     4401.733   0.3042         3676.60599     17.76494  0.00032  48261.58191  12.38296  0.23844    1398.84578  49.21628  16.67673   48287.1006    50.01352       43.66576    9.45926  14.18888   20.5    0.78284  -19.44151  0.99993 
  -34.89575  0.09013   2.12259     15.10164   1.7272   0.7225   2.65025  0.08145     0.08673  10103.07812   4424.87489  3.48239         3997.31229     19.99058  0.05436  48264.40425    1.6137  0.23886    4524.94719  48.19684  15.54243  48269.85513    50.67079       44.32576    9.45926  18.91851   16.0    1.13813  -21.25147  0.99856 
  -27.11277  0.11869  15.08926     15.01146  1.74689  1.52546   1.68646    0.179     0.27988  13098.99489     4354.492  2.82089         3352.14099     19.18666  0.00854  48272.18723   1.72615  0.20016  350337.41207  44.60929  16.56886  48282.17332    50.21302       43.73664    7.09444  26.01295   17.5     1.0805  -19.50918  0.80926 
  -53.22193  0.07538   1.41948     14.83716  1.73586  1.32803   2.87663  0.16834     0.03493   7716.84747   5245.25921  4.80695         4486.04158     17.97483  0.00052  48246.07807   1.02186  0.21684    6874.82548  48.36684  16.57752   48287.1006    49.84084       43.48974    7.09444  15.03474   28.5    0.58729  -19.17386  0.99958 
  -40.73517  0.03869   3.66133     14.78042  1.41217  1.15896   4.44667  0.08274     0.04524   8853.72721   4840.82945  2.93622          4263.3934     20.16745  0.08169  48258.56483   2.07929  0.17203    48321.8963  46.60731  16.95783  48289.56424    49.80197       43.34938   14.18888  18.91851   22.5    0.70369  -19.86806  0.98738 
  -43.86445  0.00987   2.31917     14.78752   1.9409  1.46858   2.31428  0.13172     0.25724  10581.51287   4700.99456  4.97036         2836.44181     20.19282  0.08661  48255.43555   1.54575  0.02283   25789.51149  47.41474  15.63676  48272.31876    50.30152       43.91117    9.45926  18.91851   21.5    0.83223  -20.13683   0.9997 
  -53.07783  0.00586    1.0955     14.60146  1.33068  1.48872  11.35261  0.03998     0.02942   7407.95586   4803.18558  3.32451          4443.9949     19.27235   0.0104  48246.22217   3.71638  0.06656    9293.67183  48.34551  15.85665  48282.17332    50.61343       44.44207    4.72963  11.82407   25.0    0.63413  -19.22766  0.99987 
  -48.99738  0.00387   1.69691     14.70759  1.81924  1.50543   3.15453  0.11454     0.17371   9672.66639   4249.76274  1.42389         3615.17168     18.55513  0.00199  48250.30262   1.76058  0.01221   18699.94466  47.79758  16.07647  48277.24604    50.16074       43.84922    7.09444   16.5537   22.5    0.74156    -19.854  0.99993 
  -26.99811  0.09041  10.46168     15.05109  1.52882  1.00657   2.66282    0.082      0.0706  11095.90261   4581.75047  2.30559         4213.79902     16.47768    2e-05  48272.30189   1.95567  0.24074  122799.02225   45.3248  15.17898  48247.68237    50.92913       44.36383   14.18888  33.10739   17.0    1.17565  -19.78677  0.86093 
  -32.13687  0.03056  12.81086     14.98141  1.89634  0.99581   3.55879  0.05578     0.09153  10742.80506   4681.80548  3.95447         3011.68613     19.62578  0.02347  48267.16313   2.44999  0.10876  314828.73224  44.83353  15.23276  48267.39149    50.52215       44.14784    9.45926  18.91851   19.0    1.04955  -19.83256  0.92424 
  -34.00278  0.04519   6.65326     14.97047  1.62723  1.04687   3.28105  0.06945     0.07844   8720.06293    4863.1921  1.32518         4587.02126     17.71824  0.00029  48265.29722   1.48826  0.14826   76630.70839  45.94982  16.20914  48282.17332     50.0173       43.65518    7.09444   16.5537   18.5    0.99372  -19.91873  0.96642 
  -45.94509  0.02554   2.54458     15.12154  1.73848  0.57793   6.70519  0.06559     0.03011   8590.00425   4804.12118   0.7953         2679.12689     16.60446    2e-05  48253.35491   2.95138  0.17127    5972.35683  47.92164  15.39982   48274.7824    50.58481       44.30677    7.09444  14.18888   24.5    0.60466  -19.17251  0.99742 
    -56.512  0.02028   2.02641     15.14302  1.63855  0.30845   2.96017  0.16128     0.09071   8201.61096   4341.50718  0.71024         2865.69909     18.48467   0.0017    48242.788    1.1878  0.06003     3233.6719  48.36015  14.72287  48272.31876    50.63581       44.39367    4.72963   16.5537   26.5    0.57989  -19.32274   0.9991 
  -53.63225  0.01312   1.30818     14.71026  1.56985  1.35515    8.4205  0.07854     0.06194   9654.87197   4588.24641  1.66382         4114.11155     18.57785   0.0021  48245.66775   4.68229  0.11046    9472.93895  48.25489    15.571  48277.24604    50.50747       44.27495    4.72963  14.18888   27.0    0.63664  -19.12583  0.99973 
  -35.05477  0.00149   5.01807     14.78904  1.65361  1.06191   1.48546  0.12333     0.35247  10620.06857   4794.40271  1.24794         4634.68883     20.29662  0.10999  48264.24523   0.99941  0.00222  102149.89191  46.07697   16.5158  48279.70968    50.15851       43.68876    9.45926  23.64814   16.5    1.21828  -20.67566   0.9997 
  -30.03108  0.00655   1.36265     15.04486   1.4679  1.22101  14.50782  0.01144     0.01058   6947.35376   7926.74033  2.86157         5301.23331     19.27499  0.01046  48269.26892   4.17704  0.09503    2058.57823  48.85321  16.06383  48277.24604    50.58088         44.196    7.09444  21.28332   16.0    1.03146  -20.53056  0.99993 
  -46.84234  0.00719   3.68278     14.68187   1.3186  0.83312   5.12915   0.0818     0.07517   9345.44673   4824.06542  2.49648         4318.68717     18.46807  0.00163  48252.45766   2.67222   0.0369   71869.05661  46.40007  15.84906  48277.24604    50.44323       44.10792    4.72963  18.91851   23.0    0.71578  -19.82799  0.99631 
  -37.45923  0.00928   1.30789     14.70871  1.52469  1.15224   1.10404  0.13147     0.41408    9980.9183   4945.06895  4.60516         4002.83913     19.47435  0.01656  48261.84077   0.65607  0.01024    9262.27956  48.25217  14.96666  48267.39149    50.64906       44.29475    7.09444  21.28332   13.0    1.42427  -21.87696  0.99997 
  -44.87451  0.01367   4.73329     14.73522  1.61596  1.08612   1.57206  0.18599     0.15226   8454.47087   4697.13169  3.92142         3372.63205     16.06302    1e-05  48254.42549    0.6703  0.02149  113794.91293  46.07083  15.65778   48274.7824    50.79384       44.45075    7.09444  18.91851   23.0    0.75084   -19.8714  0.99732 
  -32.59504    0.016   6.63451     15.01588  1.53282  0.67654    6.1815  0.02343     0.02015   7673.90782   5437.92477  2.69318         5041.41797     19.67997  0.02659  48266.70496   2.17147   0.0989   58231.94775  46.04556  15.71785   48274.7824    50.41096       44.13105    7.09444  14.18888   16.0    1.13397  -20.65249  0.97439 
  -29.65609  0.20263   7.72012     14.99991  1.72417  0.95474     1.365  0.14426     0.10935   9568.79756   5357.55906  3.99631          4249.9974     20.97286   0.5219  48269.64391   0.74555  0.27659   95462.67571  45.75034  16.31362  48282.17332    49.99374       43.57474   11.82407   16.5537   17.0    1.05831  -20.55975  0.92286 
  -30.59637  0.13879   7.20812      14.9109  1.62908  1.56502   1.02341  0.28756     0.28644  11677.22534   4920.31067  3.17203         3264.02005     19.84661  0.03902  48268.70363   0.83244  0.14204  118469.48183  45.69154  16.16941  48282.17332     50.0371       43.69965    7.09444   16.5537   18.0    1.01774  -19.98185   0.9617 
  -41.88878  0.04302   8.83277     14.99444  1.66405  0.56259   2.37614  0.13233     0.09269   9644.33071   4547.58586  4.46302         3799.25483      17.6742  0.00026  48257.41122   1.31839  0.10221   123676.7592  45.50553   16.1527  48277.24604    50.28793       43.86582   11.82407  21.28332   22.0    0.77102  -20.01455   0.9574 
  -30.27826  0.07002   3.27674     14.92579  1.53563  1.34475   3.72007   0.0603     0.06127  12304.87376    4472.8044  0.36056         3452.08156     17.65954  0.00025  48269.02174   3.35995  0.26049   21548.32099  47.09083   16.0574  48282.17332    50.36677       44.05381    7.09444   16.5537   15.0    1.38903  -20.14914  0.99182 
  -38.08084  0.12484   4.68508     14.97964  1.68871  1.17256   2.53435  0.10079     0.04765   9032.50673   4617.52018  4.11752         4216.18425     18.82471  0.00371  48261.21916   1.23342  0.31638   37802.79242  46.57744  15.78998  48277.24604     50.6728       44.37287    7.09444   16.5537   20.0    0.85596  -20.28413  0.97327 
  -56.06822  0.12824   5.64614     14.73701  1.80171  1.34395   4.41362  0.14537     0.01157    8288.7492   4638.28207  0.75807         3230.25522     18.29588   0.0011  48243.23178   1.80884  0.56599  179054.91117  45.76804  15.77376  48269.85513    50.48423       44.09862    9.45926  21.28332   26.5    0.53955   -19.2871  0.91964 
  -36.05051  0.03417   1.40171     15.04532  1.49622  1.19154   9.59263  0.04254     0.01339   9927.77941   4868.22292  0.85212         4618.23311     18.15741   0.0008  48263.24949   5.63987   0.3278    2215.53377  48.80505  16.40116  48282.17332    50.13317       43.74432    9.45926  18.91851   22.0    0.70253  -19.71259  0.99974 
   -38.6501  0.00171   9.18989     15.07875   1.6244  0.43431   1.36041  0.14828     0.33991   9101.22849   4676.62504  4.31023         4295.67535     17.99057  0.00054   48260.6499    0.6722  0.00233    88639.9836  45.60529  16.28739  48282.17332    50.16867       43.85607    7.09444   16.5537   18.5    0.99905  -20.48263  0.99886 
  -37.67763  0.09932   2.61274     14.67809  1.29363  1.11978   1.62241  0.15556     0.14134  11118.83237   4603.75397    3.019         2593.62837     16.87181    4e-05  48261.62237   1.19648  0.16113   36110.23031  46.98883  16.45493  48282.17332    50.18719       43.80342    9.45926   16.5537   19.0    0.96239  -20.31623  0.99395 
  -31.75244  0.16965    3.7911     15.10962  1.54528  0.54432   0.88366  0.23331     0.35765  11948.23755   4918.96509  2.24527         2932.49398     19.92847  0.04712  48267.54756   0.75252  0.14991   12448.64536   47.2052  14.63463  48264.92785    50.78627       44.49974    7.09444   16.5537   16.0    1.17939  -20.44971  0.99037 
  -34.19881  0.15285  12.83994     14.92846  1.94005  1.32913   0.72375  0.30297     0.27031   9692.39223   4755.58601   4.3201         3463.34845     19.28283  0.01066  48265.10119   0.40558  0.11063  412883.27352   44.7237  15.66206  48279.70968    50.06656       43.75437    9.45926  14.18888   19.5    0.93189   -19.9088  0.92513 
  -47.47192  0.00898   6.99657     14.64389  1.64452   1.0905   1.39965  0.22652     0.31091  10361.15714   4162.77552  2.23003         3701.06553     18.60422  0.00223  48251.82808   0.89632  0.01257  385344.41453  45.20927  16.26887  48279.70968    50.34943       43.91066   11.82407  21.28332   23.0    0.78148  -20.03361  0.99651 
  -42.15624  0.00846   1.24851     14.82166  1.88597   1.4574   8.16466  0.02249      0.0326   7733.93987   4657.79999  0.86855         5481.78953     16.64744    2e-05  48257.14376   2.91318  0.06905    6206.06883  48.55878   15.4622  48277.24604    50.33203       44.07496    7.09444  14.18888   20.5    0.86387  -20.05515  0.99992 
  -35.60856    0.139   2.15435     15.07395  1.58255   0.7901   2.24606  0.11611     0.08302  10194.48363   4274.85526  4.10321         3695.13673     19.62924  0.02366  48263.69144   1.39245  0.31219    4851.90837  48.11566  15.59769  48277.24604     50.2027         43.927    4.72963   16.5537   18.5    0.88257  -20.60538  0.99802 
  -65.87849  0.01045   1.68112     14.65561  1.79395  1.22181  16.80392  0.03777     0.01155   8308.03259   4200.85613  3.51165         3012.35824     19.56168  0.02025  48233.42151   6.91886  0.17556   22993.65144  47.70985  15.22535  48267.39149    50.46862       44.07653    9.45926  18.91851   28.0    0.52744  -19.20633  0.99865 
  -34.53604   0.0333   0.86397     15.11042  1.63342  1.42868   7.73783   0.0505     0.02952  10294.33844   4806.09883  1.04991         3806.51032     16.18584    1e-05  48264.76396   4.89151  0.25766     680.89472  49.77587  16.27405  48282.17332    50.29437       44.02443    4.72963  14.18888   20.5    0.81413  -19.60259  0.99998 
  -41.71367  0.04789   8.49922     14.73713  1.57705  1.29482   1.50312  0.26213     0.32146   9307.38615   4347.53355  0.33058         3692.97011     16.67616    3e-05  48257.58633   0.77674  0.07199  354940.76728  45.05778  16.15365  48277.24604    50.47035       44.17992    7.09444   16.5537   22.5    0.68537  -19.47162  0.96958 
  -41.86619  0.12293    1.5721     14.86703  1.70871  1.18036   1.37854  0.21187     0.16269   8888.01372   4539.46547  3.58182         2331.74387       17.987  0.00054  48257.43381   0.64961  0.16947    7234.09799  48.24917  16.12304  48279.70968    50.35365       43.94093    9.45926  21.28332   23.0     0.7174  -19.59326  0.99953 
  -35.09045  0.23601  10.85497     14.74565  1.41485  0.99096   0.94195  0.32932     0.46881  13739.61207   4196.70703    0.869         2902.31669     19.47485  0.01658  48264.20955   1.06073  0.22231  499433.21157  44.64982  15.65014   48274.7824    50.33975       44.01929    4.72963  18.91851   19.5    0.97912   -19.8217  0.84222 
  -28.22437  0.12189  16.27399     15.17303  2.01879  0.99837   1.94737  0.16628       0.187  13652.97094   4378.01819   1.2333         4044.59594     19.07867  0.00666  48271.07563   2.16536  0.23737  223787.40617  44.80111  15.05085  48272.31876    50.67806       44.44055    4.72963  14.18888   17.5    1.08477  -19.57414  0.79268 
   -32.0919  0.13056   8.57067     15.02351  1.65251    1.068   1.82298  0.20518     0.17788  12039.14675   4285.96446  3.45534         2861.26639      16.1838    1e-05   48267.2081   1.57616    0.238  101149.13307    45.616  16.83615  48289.56424    49.87515        43.4106    9.45926  18.91851   19.5    0.84655  -19.67442  0.91446 
  -35.52443  0.06719   6.52889     15.14952  1.75895  0.60235   2.93517  0.08875     0.10149  10355.73385   4321.28537  2.88924         2750.45013     17.58784  0.00022  48263.77557   1.87768  0.19722   34970.34824  46.34072  16.40725  48284.63696    50.10999       43.78677    9.45926   16.5537   19.5    0.89698  -19.98071  0.96136 
  -48.24616  0.00554   0.93778     14.96935  1.72685  0.78816  23.09285  0.02084     0.01345   9171.34155   4832.70352  2.18931         2300.63787     16.03873    1e-05  48251.05384  11.58698  0.12803    1623.98191  49.35132  14.86313  48252.60965    50.80266       44.34413    7.09444  28.37777   25.0    0.63416  -19.18674  0.99995 
   -48.8046  0.00135    5.0244     15.04798  1.79144  0.44551   1.86596  0.23594     0.21463   10659.3191   4586.98844  0.65722         2024.37117     20.03259  0.05989   48250.4954    1.2647  0.00251   33668.68643  46.59265  15.65335   48274.7824    50.36691       44.00074   11.82407   16.5537   22.5    0.71694  -19.73799  0.99969 
   -53.7611  0.01756   0.72339     14.74648  1.71484  0.93856    2.7037   0.1304     0.06558   8156.16075   4482.40693  4.18091         3195.98171     18.36333  0.00128   48245.5389   1.07289  0.04748    2678.11254   49.3565  15.94043   48274.7824    50.44729         44.115    7.09444  18.91851   25.0    0.67061  -19.63495  0.99999 
  -39.88157   0.0062   1.15953     14.85775  1.86128  1.15117   6.58621  0.03459     0.06816   9710.89102   4514.39363  0.15034          2288.6951     18.34625  0.00123  48259.41843   3.70494  0.04085    4474.00959   48.7594  16.37931  48284.63696     50.0274       43.65655    9.45926   16.5537   19.5    0.96721  -19.90138  0.99996 
  -37.13043  0.03791   3.99376     15.13889  1.77077  0.86098   5.56103  0.06528     0.03654   8746.91221   4585.01706  0.67546         3367.80814     16.22748    1e-05  48262.16957     2.538   0.2108   13834.19248  47.17329  16.21346  48282.17332    50.30845       44.00163    4.72963   16.5537   21.0    0.74777  -19.52607  0.99128 
  -36.11359  0.01575   2.76766     14.83602  1.64498  0.74987   2.16884  0.09961     0.14965   9534.23922   6443.36094  2.34583         4814.22233      21.1146  0.72331  48263.18641   1.17605  0.03416   24897.89299  47.20462  16.31865  48279.70968     50.3406       43.87443    9.45926  23.64814   17.0    1.07297  -21.52582  0.99885 
    -36.083  0.03767   4.34421     14.79299  1.70882  1.37479   1.90744  0.13672     0.23071  12420.25744   4667.12234  0.23024         3148.72978     18.19615  0.00087    48263.217   1.75525  0.07185   77688.91479  46.33536  16.66337   48287.1006    50.12587        43.7752    7.09444   16.5537   17.0    1.17144  -20.26795  0.99363 
  -32.80506  0.03338   4.92397     14.84874  1.67513  1.57051   1.54026  0.16995     0.35246  12116.49723   4946.08111  2.19646         4420.80034     17.02487    6e-05  48266.49494   1.34889  0.05142   75687.30621  46.22924  16.33001  48284.63696    50.17215       43.79281    9.45926  18.91851   15.5    1.15309  -20.74561  0.99406 
  -32.02385  0.18189   5.13436     15.10789  1.81909  1.14128   1.75317  0.16533     0.10237  11878.14842   4593.08059  1.57506         2881.61073     19.41502  0.01445  48267.27615   1.47553  0.31888   27092.78465  46.67487  16.14287  48282.17332    50.40964       44.18856    7.09444  11.82407   18.0     1.0576  -19.85963  0.97472 
