 texplosion  fnickel    Pspin  log(Bfield)      Mns  thetaPB   mejecta    kappa  kappagamma      vejecta  temperature    alpha  cutoff_wavelength  log(nhhost)      A_V         MJD0   kenergy   mnickel            TSD   log(L0)  Peak_mag     Peak_MJD  log(E_rad)  log(Peak_lum)  Rise_Time    E_fold  tau_1  delta_m15     r_peak     frac 
 -214.19309  0.01526  2.08619     13.68415  1.88946  1.10596  17.21899  0.13637     0.08365   7280.58363   9589.13315  2.54711         2832.56385     18.91357  0.00455  55990.30691   5.44462   0.26273  3270174.87184   45.3919  22.60281  56119.02554    51.62059       44.60365   58.60675  77.83709   74.5    0.07369  -21.98394  0.99456 
 -197.88036  0.32599  1.27841     13.79695  1.55746  1.22404   18.6826  0.13211     0.03557    7223.4084   5527.91879   1.7143         2834.97616     17.72719   0.0003  56006.61964   5.81499   6.09037   602113.41627  46.46824  21.98782  56088.40718    51.77531       44.79122   65.93259  72.86392   82.0    0.07159  -21.79949  0.94194 
 -174.97447  0.00237  0.79431     13.77619  1.32305  0.87503   26.3539  0.24049      0.4916  10782.13194   7485.29111  3.18796         2362.60627     17.74273  0.00031  56029.52553  18.27601   0.06252   217265.95578  47.25345  22.03111  56060.14407    51.75985       44.79634   47.61798  73.25844   67.5    0.06365   -22.3317  0.99969 
  -189.4009   0.0232   2.3544     14.03683  2.07345  0.60181  11.34175  0.18715     0.14175   7344.74751   7964.16639  4.39773         2497.84722     18.89265  0.00434   56015.0991   3.64973   0.26309   900775.86887  45.88716  20.36008  56008.32838    52.28141       45.46826   34.79776  48.53371   78.5    0.07354  -21.98829  0.99403 
 -224.73843  0.16078  1.09006     13.73319  1.60936  1.43745  18.44812  0.16444     0.37018   6672.47468   3375.84981  2.33284         2621.18225     16.31423    1e-05  55979.76157   4.89951   2.96607   606717.96036  46.61761  22.35475  56135.51235    51.49293         44.585   38.46068  65.93259   84.5    0.07119  -21.51245  0.97966 
 -129.00381   0.3461  1.68683     14.09082  1.77182  0.98438   10.8576  0.16592     0.11503   7614.23081   6242.83262  2.13488         2987.90822     19.44529  0.01549  56075.49619   3.75503   3.75785   308129.43907  46.57439  22.40037  56130.80184    51.56482       44.67991   34.79776  66.84832   66.5    0.10735  -21.88507  0.94846 
 -211.82503  0.11261  1.26154     14.21256  1.82746  0.28638  30.63393  0.02793     0.19116   6011.04917   6178.37768  1.02252         3132.30694     20.42581  0.14809  55992.67497   6.60283   3.44984   101471.76189  47.32255  21.47413  56038.94674    51.92556       44.93881   49.44945  79.66855  107.5    0.09752  -22.11135  0.97377 
 -157.81659  0.00382  1.15794     13.83148  1.49512  1.04982  21.65641  0.17306      0.0801   9088.53107   3482.81168  1.35109         2630.06225      17.5333  0.00019  56046.68341   10.6709   0.08279   404479.52247  46.70925  22.34594  56130.80184    51.64397       44.67282   34.79776  77.83709   65.0    0.07807  -22.09242  0.99927 
  -175.9499    0.005  0.88222     13.97247  1.82118  1.56079  36.06289  0.06798     0.02167    7093.5375   8303.70873  1.45295         3077.76638     18.89217  0.00433   56028.5501  10.82464   0.18045   149414.05214  47.46365  22.16006  56102.53873    51.66913       44.73282   45.78652  71.03246   60.0     0.0851  -22.01699  0.99934 
 -135.17004  0.04481  1.54085     14.13782  1.95274  1.37907  19.05634  0.04366      0.0132   3409.57879     9371.847  3.93027         3086.77069     16.49874    2e-05  56069.32996    1.3215   0.85397   228212.83536  46.82563  21.07051  56017.74942    52.00579       45.06975   44.87079  69.59552   65.0    0.10983  -21.61826  0.99128 
 -256.69429    0.009   1.1173     13.85609  1.99131  0.93465   36.0476  0.04859     0.35348   5582.81316   3751.35619  3.67819         2669.76003      19.8743  0.04159  55947.80571   6.70208   0.32425   447834.56631  46.82053   22.6656  56147.28865    51.32344       44.49554   25.64045  59.52248   89.0    0.09929  -21.50256  0.99827 
 -192.54069  0.09802  1.90555     13.65393  1.66557  1.24025  11.71952  0.17051     0.01878   7908.14983   5702.03333  2.19195         2874.83349     19.19493   0.0087  56011.95931   4.37207   1.14874  2764167.41638   45.4888  22.49714  56137.86761    51.50463        44.5462   50.36518  67.76405   63.5    0.09979   -22.1129   0.9767 
 -107.07398  0.48429  0.83881     14.29962  1.96042  1.02514   23.4403  0.20924     0.04438  15183.59819   7207.24042  2.26874         2551.06301     16.58548    2e-05  56097.42602   32.2359  11.35195    32229.52762  48.20561  22.65876  56142.57813    51.48514       44.59526   48.53371  59.82885   58.0    0.07998  -22.26738  0.97467 
 -116.45448  0.05819  2.43137     13.81918  1.44521  0.51303   4.10833  0.18359     0.27435  10883.96154   3705.66925  2.57981         2583.56557     17.91302  0.00045  56088.04552   2.90313   0.23906  1824280.44429  45.39598  22.27068  56119.02554    51.53149       44.64099   32.05057  65.93259   84.0    0.11774  -22.03025   0.9898 
 -335.75055  0.03701  1.18746     13.48548  1.85415   1.2983   32.4888  0.10906     0.01145   7111.87136   4889.32682  3.78015          2165.0217     16.75478    3e-05  55868.74945   9.80232   1.20243  2595561.13327  45.97352  22.88483  56168.48598    51.47477       44.49947   48.53371  76.92136   77.0    0.16024  -21.24153  0.99182 
  -203.4957  0.00231  1.95261     13.63722  1.57671  0.84562   9.43053  0.12081      0.1078   6937.38832   8189.50259  3.92359         2633.85988     17.71578  0.00029   56001.0043   2.70742   0.02183  2967312.50166    45.413  21.95691  56067.20985    51.76267       44.76397   49.44945  83.33147   89.5    0.09405  -22.05455  0.99948 
 -129.62393  0.01685  2.46892      13.9264   1.8213  0.89543   7.58883  0.10928     0.04011   6860.21876   6989.78402  1.10651         3100.37161     19.83892  0.03834  56074.87607   2.13048   0.12791  1446784.04959  45.58381  22.56132  56154.35442     51.3494       44.52874   25.64045  55.23689   71.0    0.10923   -21.7876  0.99613 
 -151.39423  0.17337  2.81719     13.91959   1.9553  0.54564    7.4249  0.12882     0.28161   8976.05478   5528.07363  2.62297         2623.55634     17.68382  0.00027  56053.10577   3.56853   1.28723   2086813.3667  45.34094  22.59263  56151.99917    51.81739       44.99712   31.13484  53.11237  105.5    0.10201  -22.03855  0.95436 
 -108.26783  0.02085  1.64712     14.12148   1.8903  0.98918  13.71304  0.16276     0.28371   9609.85238   8422.45289  1.67996         2945.27958     20.18142  0.08436  56096.23217    7.5543   0.28596   272162.82859   46.6771   22.2045  56095.47295    51.70295       44.72621   48.53371  74.66981   50.0    0.11146  -21.99074  0.99644 
 -271.39111  0.11539  0.99365     13.91539  1.78422  0.58879  56.06091  0.04535     0.22928   7203.32942   5281.05389  3.19312         2383.50593     19.97786  0.05279  55933.10889  17.35217   6.46913   241520.75735  47.14287  22.44224  56137.86761    51.47844       44.62725   35.71349  57.69102   96.5    0.09858  -21.69884  0.96869 
 -216.12987  0.01292  1.91215     13.78342  1.75811  0.65158  10.83313  0.16668     0.09515   7904.10105   6035.68687  2.50569         2427.74512     17.36447  0.00013  55988.37013   4.03725   0.13997  1618297.97606  45.74179  22.92085  56184.97279     51.3238       44.51432   34.79776  46.09289   93.5    0.08721  -22.07626  0.99728 
 -331.51097  0.04879  0.87225     14.02085  1.97932  0.44495  46.01317   0.0693     0.02822   5831.87088   4093.20856  3.41013         2239.17736     19.11874   0.0073  55872.98903   9.33523   2.24512   127035.79204  47.58015  21.87699  56100.18347    51.73104       44.79821   46.70225  65.93259   86.0    0.09481  -21.13791  0.99266 
  -121.9686   0.3392   0.8145     14.25558  1.81101  0.90062   19.7672  0.15371     0.01155   9397.34206   3305.31812  1.52925         2836.55989     18.18422  0.00085   56082.5314  10.41315     6.705    34383.99381  48.16863  21.74728  56055.43356     51.8977       44.90831   46.70225  79.66855   54.0    0.09364  -21.95068  0.98273 
  -87.55507  0.00558  0.77084     13.96432  1.42839  1.55096  17.78656  0.31626     0.20458  15381.32737   8142.14075  4.98231         2633.33569     17.95887  0.00051  56116.94493  25.10192   0.09933    92887.74951   47.6818  22.37219  56119.02554    51.58173       44.57924   55.85956  76.00563   50.0    0.07282   -22.1746  0.99963 
 -180.99295  0.00118  0.90515      13.8468  1.83254  1.10919  27.46383  0.28444     0.01812  10878.03896   3322.04484  3.44697         2125.36308     20.37779  0.13259  56023.50705  19.38606   0.03239   282305.55155  47.16774  22.68463  56163.77546    51.43463       44.63566   33.88203  47.61798   62.5    0.06482  -22.30882  0.99987 
 -253.77649  0.25373  0.96544     14.01997   1.8484  0.51525  58.34269  0.03347     0.29669   7643.89223   4960.48611  3.21519         2352.35255     20.32217  0.11665  55950.72351  20.33493  14.80304   145919.77091  47.40208  22.76539  56154.35442    51.35003       44.49407   35.71349  54.24749   95.5     0.0975  -22.03213  0.93804 
 -309.65116   0.0244  1.48679     13.66324  1.91085  0.70181  18.77887  0.18188     0.01182   6365.01147   3135.12286  0.61739         2202.71662     17.28205  0.00011  55894.84884   4.53832   0.45817  1849511.79556  45.93851  22.65301  56147.28865    51.84115       45.00409   39.37641  54.94383   67.0    0.12608  -21.37917  0.99525 
 -237.87419    0.052   0.7958     13.77819  1.62033  1.02448  19.40954  0.28479     0.02514    8463.7353   8164.59802  3.19804         2222.88988     17.54547   0.0002  55966.62581   8.29405   1.00934   264632.42805   47.2542  22.74985  56182.61753    51.37849       44.47445   38.46068  68.67979   76.5    0.06081   -21.1838  0.99631 
  -147.9523  0.04164  2.54784     13.73385  1.75192  0.79532   2.93826  0.25668     0.20001   8810.30113   8400.06232  2.81977         2609.67745     17.97643  0.00053   56056.5477    1.3605   0.12235  3597331.74607  45.14403  22.61256  56142.57813    51.40829       44.54437   35.71349  56.77529   82.5    0.11356  -22.04423  0.99567 
 -296.91497  0.03346  0.83702     13.78915  1.71354  0.77664  20.82428  0.13977     0.21401   6125.41923   7317.44187    4.163         2454.59535     16.33611    1e-05  55907.58503   4.66089   0.69675   294362.29175  47.18839   22.6393  56128.44658    51.75315       44.74861   65.93259  77.83709  110.5    0.06016  -21.10124  0.99739 
  -136.0531  0.05863  2.56729     14.18822  1.84519  0.26776   6.75125  0.10435     0.05376   9451.92997   7226.97594  2.92562         2707.17496     20.35552  0.12597   56068.4469   3.59792   0.39579   474652.03726  46.03956  21.34439  56020.10467    51.91946       44.96003   44.87079  73.25844   76.5    0.12664  -22.17873  0.98698 
 -172.14821  0.00236  1.69719     13.80238  1.91718  1.25013  17.23511  0.13244     0.19361    8084.2925   7746.56138  0.81343         3180.73469     20.47121  0.16441  56032.35179   6.71932   0.04073  1274040.36262  45.98686  22.70785  56196.74908    51.29056       44.55454   23.80899  48.53371   69.0    0.08592  -22.24596  0.99946 
 -132.58887  0.27508  0.76154     14.23666  1.61788  0.70333  34.86313  0.11354     0.15917   10385.6341   7515.97506  4.69555         2687.32777     19.63397  0.02392  56071.91113  22.43157   9.59011    29297.18994  48.24758  21.81194  56064.85459    51.77869       44.80196   50.36518  77.83709   72.0    0.06054  -22.14926  0.97334 
 -109.14458  0.24803  1.70051     14.21084  1.82378  0.78831  12.84395   0.2286     0.07086  10972.06536   6522.87617  1.79747         2904.80352      16.6224    2e-05  56095.35542   9.22364    3.1857   185466.72819   46.8004  22.83835  56182.61753    51.25385       44.48778   41.20787  43.03933   58.0    0.09795  -21.98001   0.9572 
  -211.8708  0.02559   1.1165     13.84079  1.70897  1.31785  26.62748  0.05453     0.03029    3972.0896   4321.10518  2.12816         3128.99167     17.85227   0.0004   55992.6292   2.50608   0.68139   411799.23289  46.79117  21.82867  56062.49933    51.82139       44.84015   43.03933  76.92136   91.0     0.0714  -21.22615  0.99547 
 -133.83452  0.01107  2.67971     13.69267  1.67936  1.00353   7.37948   0.1382     0.03876   8186.85244   8645.88212  3.29959         2880.49302     16.14985    1e-05  56070.66548   2.95044   0.08166  4611002.51181  44.97402  22.78451  56166.13072    51.45049       44.49698   39.37641  68.67979   64.0    0.12248  -21.94815  0.99661 
  -77.57308  0.17743  2.28594     14.23719  1.85255  0.61058   5.52153  0.15466     0.18981   7275.95169   7048.92966  2.74804         3050.76035     20.73744  0.30351  56126.92692   1.74368   0.97969   301531.63531  46.33915  22.84886  56166.13072    51.33061       44.50976   27.47191  55.85956   56.0    0.14818  -21.97732  0.97606 
 -131.64168  0.47826  1.12992     14.18715  1.69529  1.06932  24.66819   0.0911     0.02325   9742.53441   7880.07276  3.06745         2621.65871     18.82671  0.00373  56072.85832  13.96717  11.79775    84889.31887  47.46315  21.99826  56097.82821    51.67195       44.75264   41.20787   63.1854   68.5    0.08746  -22.02281  0.92932 
 -222.99988  0.00104  1.63859     13.67978  1.72969  1.27983  18.94349   0.1788     0.03034   7423.80407   6061.57399  2.46292         2512.45364     18.64761  0.00247  55981.50012   6.22788   0.01963  1884333.56504  45.80271  22.96512  56189.68331    51.33506       44.54437   28.38764  43.03933   79.0    0.07348  -21.73914  0.99972 
  -161.5117  0.15081   1.6585     13.86362  1.79623  1.26741  15.48994  0.21998     0.03034   8846.74602   4516.61916  2.70258         2597.31305     17.05894    6e-05   56042.9883   7.23176   2.33602   859730.94235  46.14941  22.37613  56140.22287    51.53643       44.71028   32.05057  53.11237   66.5    0.07363   -22.1284  0.96876 
 -147.82006  0.24416   1.3891     13.99204  1.83326  1.27506  18.94037  0.18878     0.48999  10245.23898   6824.49243   3.3478         2553.90973     19.72366   0.0294  56056.67994  11.85932    4.6245   340746.69063  46.71417  22.24108  56114.31503     51.7092       44.76919   52.19664  67.98345   67.0    0.08172  -22.17644  0.95878 
  -166.1004  0.32993  0.90267     13.97642  1.67076  1.13169  32.62519   0.1452     0.01057  10692.17113   8513.43857  1.93603         2535.64137     17.36949  0.00013   56038.3996  22.24908  10.76388   140911.07197  47.43176  22.46837  56114.31503    51.65629       44.61042   59.52248  86.99439   52.5    0.08182  -22.27859  0.95492 
 -135.80551  0.01325  2.70095      13.9749  1.88578  0.83563   8.21951   0.1317     0.12777   6814.36139   5795.86683  3.75163         2736.70506     19.72832  0.02972  56068.69449   2.27679   0.10893  1433987.02023  45.52476  22.01524  56071.92037     51.7209       44.72822   47.61798  80.16419   75.5    0.10873  -21.84008  0.99625 
 -216.07963  0.00211  0.83913     13.90852  1.97119  1.34633   34.1875  0.12869     0.03424   8664.20472   5127.28823  3.26962         2324.25625     19.52785  0.01873  55988.42037  15.30918   0.07207   196405.30969  47.42276  21.68301  56078.98614    51.86625       44.93635   43.03933   63.1854   73.5    0.08195  -21.51466  0.99978 
 -126.45482  0.00247  2.38709     13.98702  1.65241  0.71608   6.17168  0.23511     0.41087   9248.23662   8841.63913  3.40972         2848.51586     16.34976    1e-05  56078.04518   3.14882   0.01527   928166.35591   45.7636   22.7374  56154.35442    51.43541       44.57119   44.87079  56.77529   53.0    0.12657  -22.02133   0.9995 
 -154.78098  0.10331  2.37996     13.98482  1.49584  0.45182  36.27225  0.01136     0.04017   4528.06974   7925.05149  2.56478         3111.01057      16.1125    1e-05  56049.71902   4.43637   3.74724   843724.01351  45.76439  22.72115  56149.64391    51.54313       44.64486   40.29214  64.10113  107.0    0.12116  -21.78594  0.87424 
 -125.07684  0.01581  1.82828     14.14948  1.77314  0.66452   9.51774  0.24504     0.22509  10999.28099    8462.1459  2.56077         2628.13307     18.28121  0.00106  56079.42316   6.86894    0.1505   276495.87443  46.55182  21.97017   56093.1177    51.70702       44.83721   33.88203    59.661   48.0    0.13096  -22.11961  0.99744 
    -140.58  0.00847  1.53385     13.99167  1.78197  1.30928  11.72197  0.20708     0.04542   8614.22804   4042.22816  3.15242         2688.44847     17.25624   0.0001     56063.92   5.18872   0.09925   404531.35541  46.54123  21.57162  56029.52571    51.88875        44.8681   46.70225  86.99439   59.5    0.10017  -21.97021  0.99882 
  -136.7787  0.01045  2.73709     13.93018  1.94204  1.04001   4.08978  0.31936     0.15615   8793.13302   9819.36073  3.09779         2749.59755     18.94568   0.0049   56067.7213   1.88631   0.04272  1863331.60285  45.41224  22.66511  56140.22287    51.77758       44.92298   43.95506  55.46504   51.0    0.13193  -21.98323  0.99855 
 -184.42416  0.00362  1.10821     13.94765  1.82761  1.31849  45.24523  0.06806     0.03854   6738.74319   5771.96595  4.30656          2752.9966     19.39436  0.01377  56020.07584  12.25625   0.16367    265241.6135  47.01784  22.42044  56078.98614    51.66039       44.63052   56.77529  88.82586   75.0    0.06622  -21.74532  0.99903 
 -223.26481  0.02849  1.93816     13.62774  2.10355  1.41458  10.10235  0.16458     0.38636   10046.6236   5033.27113  0.82883         2570.30538     17.94037  0.00048  55981.23519   6.08261   0.28785  4074402.81032  45.40695  21.50529  56050.72304    51.96804       45.02303   46.70225  67.22726   90.5    0.11047  -22.39059  0.99561 
 -122.92039  0.01232  0.74354     13.99068  1.51044  0.99485  29.27379  0.16026      0.0374   11454.7653   3703.98484  1.12055         3353.98264     18.62984  0.00237  56081.57961  22.91282   0.36056    80940.49279  47.79718  22.28794  56100.18347    51.67694       44.74763   52.19664  65.93259   58.0    0.09542  -22.21004  0.99881 
 -223.31098  0.00961  1.64493      13.7242    2.026   1.1458  15.97866   0.2037     0.04095   9124.71285   6000.17553  0.79127         2403.83654     20.26131   0.1014  55981.18902   7.93608   0.15354  1812766.59978  45.88485  22.28089  56119.02554    51.61033       44.71706   39.37641  61.35394   72.0    0.08597  -22.14129  0.99824 
 -135.24889  0.09379  1.05252     14.06807  1.81007  1.09506  20.32901   0.1924       0.035  10356.76586   3373.71296  1.87326         2800.95178     18.12927  0.00075  56069.25111  13.00744    1.9067   136089.57265  47.34826  22.62111  56135.51235    51.36753       44.48289   34.79776  65.01686   60.0    0.07924  -22.11472  0.98999 
 -197.72117  0.00396  1.89213     13.82364   1.7189  0.52005  10.56056  0.25236     0.01504   8055.94032   7178.22704  4.30534         2114.87099     16.83369    4e-05  56006.77883   4.08833   0.04182  1287310.31497  45.84051   22.4382  56123.73606    51.53274       44.60157   46.70225  65.01686   63.0    0.09555    -22.067  0.99917 
 -117.12461  0.29567  1.33556     14.03826  1.63721  1.22259  17.98594  0.14465     0.22994   8557.11621   3092.51621  2.56099         2664.43407     19.03441  0.00601  56087.37539   7.85625   5.31792   227372.41985  46.87488   21.9289  56060.14407    51.76082       44.75238   44.87079  83.33147   68.0    0.06367  -21.85671  0.94912 
 -137.91453  0.28752  1.17939     14.13553   1.7388  0.87389  23.63125  0.11096     0.37795  10167.62733   4470.02021  1.14412         3113.08296      19.2301  0.00944  56066.58547  14.57314    6.7944   120314.41355  47.28546  22.98501  56196.74908    51.27268       44.48076   30.87429  43.29988   64.0    0.11249    -22.151  0.95381 
  -304.3738  0.00107  1.22764     13.41907  1.66217  1.26193  19.74967  0.17573     0.01594   6510.22466   7140.73506  1.84589         2104.18743      20.3281  0.11826   55900.1262    4.9932   0.02119   3376675.8825  45.78289  22.26501  56123.73606    51.54701        44.6885   36.62922  57.69102   82.0    0.07395  -21.55192  0.99982 
