 log(Bfield)      Mns    Pspin  cutoff_power  cutoff_wavelength  fnickel    kappa  kappagamma   mejecta  log(nhhost)  temperature  texplosion  thetaPB     vejecta      A_V        MJD_0   log(KE)      M_Ni  Peak_mag     Peak_MJD 
    12.94488  1.68431  1.91422       1.13299         2606.76447  0.10247  0.06233     0.01305   4.38425     20.99716   4690.28088   -19.17489  1.12594  6606.15038  0.55193  56713.95511  52.15411   5.61273  20.56957  56786.94333 
    14.14518  1.77824  3.36532       0.04311         5078.25047  0.04132  0.02117     0.07625   12.1255     21.11552   4386.09085   -15.07615  0.48758  6567.42548  0.72485  56718.05385  52.25232   2.87112  20.54181  56786.94333 
    13.11414  1.93323  2.46056       1.49849         2482.25802  0.03402  0.06031     0.01559   4.71084     20.96238   7775.65589   -19.62527  1.37149  6814.90919  0.50945  56713.50473  52.18929   1.89907  20.50642     56772.07 
    12.97169  1.47032  2.17637       0.92106         3194.72303  0.32383  0.05187     0.01497   5.75617      20.8128    3076.1642   -17.74521  1.13299  7022.93399  0.36101  56715.38479  52.23739  19.01297   20.6476     56772.07 
    13.73791  1.60409  2.89712       0.04493          5071.1821  0.00442  0.03015     0.10801   8.55617     21.17964   6125.22895   -14.96988  1.19158  6668.59874  0.84017  56718.16012  52.23288   0.28482  20.56275  56786.94333 
    13.16989  2.16738  2.63839       0.67131         3385.62964  0.00208  0.04855     0.01312   5.56473     20.97937   9588.34309   -20.97253   1.3556  6705.11335  0.52979  56712.15747  52.19354   0.12086  20.52091     56788.97 
    13.14379  2.05593  2.49581       0.65917         2935.77976  0.10191  0.05348     0.01356   5.06333     20.96527   8229.57544   -20.92146  1.23929  6537.06186  0.51286  56712.20854  52.16118   5.79463  20.54867  56786.94333 
    13.35416  1.81366  2.40556       0.64067         2065.46093  0.01116  0.06858     0.01803   4.51678     20.83558   9550.69007   -21.07739  0.52835  7179.52797  0.38046  56712.05261   52.2298    0.6161  20.56141     56772.07 
    13.38544  1.82068  2.63866        2.7716         2071.51785  0.01739   0.1322     0.03886   2.55057      20.5713   9864.59729   -20.25867  0.51815   7451.8613  0.20703  56712.87133  52.19171   0.81634  20.47468  56786.94333 
    14.19695  1.76705   2.1312       0.05719         2673.79366  0.01573  0.01722     0.07193  12.85665     21.25292   7387.60036   -12.27138  0.40475  6083.68126  0.99459  56720.85862  52.19113   1.10613  20.57747  56786.94333 
    13.94108  1.58253  2.98186       0.39648         2188.09821  0.00692  0.01842     0.05047    14.626     21.18567   6860.46875   -15.16995  0.57446  6828.86269  0.85192  56717.96005  52.30285   0.49982  20.54827  56786.94333 
    12.95107  1.78059  1.94461       0.03919          3388.7897  0.30286  0.05964     0.01163   4.64559     21.00454   8927.56438   -21.28732  1.40747  6734.18695   0.5614  56711.84268  52.17737  16.84271  20.51913     56786.97 
    12.97612  1.56095  2.11646        4.7929         2316.12429  0.00155  0.04938     0.01297   5.45473     20.94198   7079.42429   -18.03264  1.48432  6601.89072  0.48608  56715.09736   52.1779      0.09    20.673     56772.96 
    13.05856   1.7237  2.42169        0.7434          3099.8022  0.00188  0.13913     0.03912   2.26544      20.7909   5745.14834    -19.6219  1.25803  7185.17952  0.34326   56713.5081   52.1439   0.08481   20.6069     56772.07 
    13.00405   1.6387  2.20175       0.76045         2635.47768  0.30176  0.09595     0.02604    3.1729     20.91539   6751.65486   -18.55597  1.27352  7162.24872  0.45721  56714.57403  52.18555  15.11783  20.59226     56772.07 
     12.8944   1.4838   1.9681       1.73434         2398.54195  0.34836  0.06423     0.01649   4.59173     20.95524   5611.48072   -17.75739  1.40004  7013.53082  0.50115  56715.37261  52.21135  19.31437  20.52507     56788.97 
    13.20456  1.69234  2.41051       0.72385         2993.45215  0.34247  0.06863     0.01916   4.36281     20.81825   5345.54646   -18.98171  0.72741  7055.78465  0.36557  56714.14829  52.21074  18.73474   20.5679     56772.07 
    12.99806  1.45265  2.29226       0.91612         3087.64193  0.17849  0.03255     0.01042   8.69686     20.89077   5938.17206    -18.0745  1.31984  6828.07996  0.43201   56715.0555    52.255   11.5446  20.50946  56786.94333 
    13.47294  1.47717  1.77375       0.76326          2823.8957  0.07017  0.05019     0.01044   4.95454     21.01153   8139.30723   -19.36994  0.25136  6311.76032  0.57051  56713.76006  52.12831   3.96742  20.59907     56772.96 
    12.86495   1.6776  1.89227       1.97524         2114.08937  0.38833  0.05204     0.01139   5.63351     20.95557   4526.12747   -17.58609  1.46951  7072.83494  0.50153  56715.54391  52.24123  22.67902  20.55702     56788.97 
    13.42076  1.91847  2.54556       0.76208         2541.50909  0.16044  0.08725      0.0227   3.43314     20.84507   8278.56813   -19.48094  0.51023  6989.84949  0.38887  56713.64906  52.17416   8.22081  20.56195  56786.94333 
    13.94213  2.14304  4.10586       0.03768         3849.48733  0.07728  0.03285     0.08805   8.32726     21.12226   9644.44086   -17.46373  1.08169  6786.16108  0.73619  56715.66627  52.24541    4.9498  20.58552     56786.97 
    13.61975  2.10127  2.02493       0.61381         2043.15487  0.01015  0.06432     0.01161   4.08436     21.01953   8181.94501   -21.75411  0.24189  6533.19157  0.58111  56711.37589  52.13626   0.54568   20.5292     56786.97 
    13.09636  1.93725  2.51046       4.11077         2452.54873  0.00109  0.13017     0.03482    2.2978     20.85603   7926.57145   -17.39678  1.33174  7155.62376   0.3988  56715.73322  52.14228   0.04974  20.57584     56772.96 
    13.27359      2.0  2.66256       0.48339         2951.33746  0.03711  0.07639     0.02142   3.75088     20.87382   6515.92547   -21.53016  0.86392  6836.53115  0.41548  56711.59984  52.16561   1.94904   20.5768     56788.97 
    13.27351  1.63226  2.30746       0.16301         3143.87303  0.00522  0.08074     0.02338   3.47933     20.94728   6015.95452    -22.8248  0.64073  6719.12508  0.49205   56710.3052  52.14148   0.26846  20.52867     56771.07 
    13.21745   2.1944  2.46127       0.84227         2086.36155  0.00148   0.0908     0.02028   3.35227     20.91994   5590.03682   -20.09842  0.90008  7124.02254  0.46202  56713.03158  52.18774   0.07529  20.62225     56788.97 
    14.08497  1.98345  3.27292       0.24844         2503.80665  0.01949  0.01746     0.06023   13.9864     21.18898    6215.7229   -14.02192  0.63136  6483.38458  0.85844  56719.10808  52.25385   1.39447  20.60963  56786.94333 
    13.29956  1.75191  2.52322       4.16714         2082.31995  0.01322   0.0435     0.01281   6.60389     20.87304   7066.86845   -19.07126    0.701  6934.66623  0.41473  56714.05874  52.24086   0.80228  20.59781     56772.96 
    13.81877  1.57997  2.72898       0.00062          5778.8459  0.00426  0.01225     0.04985   20.2179     21.15465   5763.56474   -14.72425  0.96526  6472.68048  0.79319  56718.40575  52.28361   0.32754  20.56307     56788.97 
    14.11169  1.57893  2.40332        0.0086         5295.56687  0.00717  0.01026     0.03396  23.25941     21.21804   8017.75804   -13.44665  0.39073   6490.6318  0.91784  56719.68335  52.29732   0.56583  20.57749     56788.97 
     13.7531  1.86622  3.19431       2.16407         2371.97792  0.00635  0.04895     0.01968   6.51766     20.72274   7990.83728   -19.25735  0.33169  7315.15463  0.29341  56713.87265   52.2859   0.38417  20.53706     56786.97 
    13.58175  1.57832  2.94553       0.75519         3493.59577  0.05871  0.04269     0.01875   7.41726     20.68707    9957.7486   -18.74544  0.39687  7321.27729  0.27027  56714.38456  52.29984    3.6623  20.49324     56786.97 
    13.38826  1.40692  1.95165       0.33954         3668.61523  0.00431  0.05742     0.01545   4.61676     21.05821   7226.62771    -21.4526  0.39135  6393.12851  0.63524   56711.6774  52.13152   0.23905   20.5969  56786.94333 
    13.12425  1.70681  2.62537       1.12174         3098.94098  0.03906  0.12571      0.0391   2.37646       20.807   5238.27013   -19.52491  1.31611  6882.00855  0.35623  56713.60509  52.11304   1.79365  20.65527     56772.96 
    13.51108  1.50542  2.34619       0.85612         2161.91768  0.00904  0.08236     0.02509    3.8124     20.81471   6845.61729   -20.65235  0.35239   7136.3782  0.36261  56712.47765  52.20484   0.47676  20.70426     56771.07 
    13.09861  1.60435  2.32076       0.25157         2781.38113  0.02589  0.10452     0.02988   2.84877     20.79501   8368.55957   -21.86239  1.01377  6951.99924  0.34653  56711.26761  52.14595   1.25673  20.56592  56786.94333 
    13.23027  1.38868  2.03259       0.74764         2922.35324  0.31898  0.05998     0.01791   4.59973     20.97739    7960.8033   -19.18147  0.51337  6783.45803  0.52737  56713.94853  52.18258  17.69324  20.54382  56786.94333 
     13.2328   1.6977  2.31433       3.56966         2640.44801  0.00143  0.11595     0.03382   2.53418     20.87403   4507.95219   -17.91173   0.6229  7077.06265  0.41568  56715.21827  52.14602   0.06694  20.61444     56772.96 
     13.2284  1.85903  3.06412       2.70719         2551.19966  0.00285  0.10786     0.04199   2.85148     20.77119   9230.93932   -19.28637     1.39  7174.57848  0.32804  56713.84363  52.17344   0.13837  20.56075     56788.97 
    13.09522  1.83395  2.28784        0.6435         2876.07704  0.02697     0.06     0.01405   4.37529     20.99428   3003.99731    -20.1491  1.39815  6301.15595  0.54828   56712.9809  52.11282   1.47658  20.52386     56788.97 
    13.29588  1.65468  2.27751       1.94264         2403.98676   0.0018  0.06199      0.0156   4.54056     20.79552   7537.45923   -20.51289  0.53999  6741.57203  0.34693  56712.61711  52.17573   0.09938  20.51817     56786.97 
    13.12745  1.68527  2.72524       2.21532         2589.74962  0.10205  0.04957     0.01842    6.4388      20.8493   6097.49391    -19.1533  1.33222  7344.39912  0.39267   56713.9767   52.2881   6.15692   20.5377  56786.94333 
    13.28684  1.62668  3.09202       3.41721          2886.3797  0.01824   0.1408     0.06126   2.26526      20.5123   3161.80645   -18.67098  0.93684  7270.49478  0.18073  56714.45902  52.15414   0.82483  20.52588     56786.97 
    13.02277   1.7585  2.11476       1.04856         2022.15488  0.00653  0.08278     0.01898   3.53795     21.01949    9695.6972   -20.52254  1.47662  6918.11585  0.58105  56712.60746  52.16887    0.3374  20.51239     56788.97 
    13.80303   1.7495  3.70564       0.25825         2691.70924  0.00947  0.02614     0.07484  10.74144     21.10022   3445.49342    -16.7229  1.10677   6859.8286  0.69976   56716.4071  52.27906   0.64111  20.56233  56782.61667 
    13.25573  1.70579  2.28268       0.53106         2755.62067  0.02636  0.06065     0.01566   4.58825      20.9422   7142.57585   -20.05981  0.69617   6744.2152  0.48633  56713.07019  52.17726   1.46123  20.58279     56788.97 
    13.87462  1.84444  3.76427       0.30337         2148.93661  0.03549  0.04657     0.16459   5.66221     21.05772   6151.69919   -14.87831  1.18059  6695.51993  0.63452  56718.25169  52.19416   2.07509  20.54493  56786.94333 
     13.2518  1.56437  2.37964       2.49661         2817.19061  0.01474  0.07626      0.0244   4.10477     20.82321   3251.02035    -19.2604  0.59322  7217.37754  0.36977   56713.8696  52.22335   0.79321   20.5636     56788.97 
    13.69357  1.68267  2.87293       1.11096         2821.12076  0.00312  0.11523     0.04065    3.0533     20.56878    5891.7955   -18.99807  0.29407  7642.77676  0.20583  56714.13193  52.23711    0.1544   20.4999     56788.97 
    13.00325   1.6888  2.10025       0.48029         2782.83876  0.37587   0.0939      0.0215   3.06386     20.95894   6820.43086   -19.64163  1.17064  6881.83657  0.50544  56713.48837  52.14645  18.64064  20.61968     56772.96 
     13.1723  1.94748   2.7132       0.20898         4389.60632  0.04153  0.08581      0.0256   3.38805     20.85474   9844.01248   -20.95549  1.40719   6948.2408  0.39762  56712.17451  52.16735   2.11981  20.56391     56772.07 
    13.06257  1.65923  1.83856       0.91311          2857.3566  0.10672  0.05556     0.01051   4.58533     21.02978   3886.08185   -18.87409   0.7639  6295.47089  0.59499  56714.25591  52.11738   5.91476  20.58992     56772.96 
     13.0046  2.00793  2.02976       1.71401         2168.79246  0.02908   0.0564     0.01002   4.36142      21.0005   6802.70787   -20.44335   1.3428  6186.37632  0.55619  56712.68665  52.09648   1.59071  20.61084     56772.96 
    13.01723  1.72831  2.22741       1.51253         2061.74268  0.10962    0.102     0.02565   2.94127     20.89049   9549.66382   -19.20156  1.44692  7088.97261  0.43173  56713.92844  52.16701   5.37171  20.65699     56771.07 
    13.01664  1.16058   2.3659       2.75103         2636.69401  0.00525  0.10364     0.04603   2.96184     20.69409   6261.50707   -19.67634  1.23523  7058.45471  0.27467  56713.45366  52.16415   0.25787   20.5311     56788.97 
    13.09098  1.45888  2.48857       1.57814         2048.60694  0.00657  0.16413      0.0567    2.0565      20.6783   5819.64568   -19.83701  1.18962  7468.35334  0.26487  56713.29299  52.16382   0.28781  20.47543  56786.94333 
     14.0459  1.87103  4.48692       0.02201         3978.84838  0.01802  0.01899     0.05936  14.90596      20.8795   4777.53946    -17.7973  0.70541   6891.4004  0.42094   56715.3327  52.31242   1.30567  20.54245  56786.94333 
    13.92252  1.65837  3.11294       0.06217         3570.54386  0.02639  0.02581     0.09302  10.15818      21.1476   5506.88831   -14.10604  0.73879  6725.92622  0.78042  56719.02396  52.25673   1.76613   20.6353     56788.97 
    13.28287  2.17606   2.8619       1.05823         2274.66059  0.06156  0.09698     0.02806   3.19512     20.93233   7392.58307   -19.75864  1.12703  7097.49802   0.4754  56713.37136  52.17854   3.09006  20.52926  56786.94333 
    13.19088  1.94236  2.26391       0.13835         2753.87739  0.36165  0.05679     0.01333   4.97498     20.97827   4366.45658   -20.24237  0.77346  6849.65759  0.52844  56712.88763  52.19981  20.47071  20.63477     56771.07 
     13.0497  1.63369  2.07119       0.98294         3298.03124  0.00245  0.05123     0.01182   5.11119     20.92024   6760.49228    -18.6551  0.93423  6482.06096  0.46234   56714.4749  52.15488    0.1397  20.50721     56786.97 
    13.46859  1.45385  1.85474       0.71422         2873.82651  0.26322  0.06124     0.01488   4.54234     21.04817   4270.14892    -18.7414  0.26773  6867.15525  0.62072   56714.3886  52.19181  14.55282   20.5112  56786.94333 
    13.51048  1.11836  2.14161       0.00388         3900.68628  0.01709  0.01661      0.0683  14.56526     21.14879    4684.2655   -15.14261  1.57024  6463.31943  0.78257  56717.98739  52.25471   1.23295  20.52915     56788.97 
    13.01388  1.41436   2.4086       0.12002         4575.64108  0.00296  0.14243     0.04764   2.32174     20.53336   4601.60547   -20.51462  1.50666  7336.25543  0.18971  56712.61538  52.16537   0.13502  20.54252  56786.94333 
    13.97784  1.60614  2.51944       0.09455         3206.27602  0.00598  0.01669     0.05506   13.7599      21.2298   6681.30371   -14.60532  0.54031  6239.00744  0.94303  56718.52468  52.21904   0.42647  20.53676  56786.94333 
    14.06401  1.55609  2.49953        0.0114         5066.91791  0.02452  0.01075     0.04512  21.52669     21.17959   9080.42251   -14.28684  0.47779  6302.42314  0.84006  56718.84316  52.26556    1.9072  20.55059  56786.94333 
    13.16555   2.0098  2.39168       1.80079         3125.95532  0.10495  0.05718     0.01546   4.74784     20.98799   5178.09629   -17.87374  0.84943  6738.46232   0.5404  56715.25626  52.18037   5.86966  20.56322     56788.97 
    13.31874  1.70734  3.07055       1.38928          3301.3682  0.00574  0.10461     0.04087   2.75202     20.69863    3936.1444   -18.72692  0.94335  6727.04003  0.27756  56714.40308  52.11288   0.27597  20.56004     56772.07 
    13.31921   1.5176   2.6773       0.65084         2000.11091  0.02473  0.16612     0.05901   2.15176      20.5261   7810.77535   -20.13972  0.67005  7728.49969  0.18656  56712.99028      52.2   1.09992  20.57869     56771.07 
    13.56485  2.03883  3.06148       0.94486         3513.89772  0.07902  0.12488      0.0438   2.45681     20.81738   4916.64976   -19.73064  0.48128  7122.50138  0.36485  56713.39936   52.1474   3.66627  20.65769     56772.07 
    13.82766  1.65511  2.14006       0.03698         2056.71624  0.02552  0.01245     0.05248  16.87439      21.2596   5649.81662   -14.15711  0.96983  6023.77625  1.01002  56718.97289  52.20616    1.8955  20.49577  56786.94333 
     13.1999  1.56778  2.45751       3.69039         2099.19777   0.4617  0.11899     0.03831   2.52636     20.85305   7382.96966   -17.51081  0.80708  7169.04564  0.39607  56715.61919  52.15682    21.609   20.5084     56786.97 
    13.18165  1.36811  2.52186       1.37945         3639.05221  0.23491   0.0261     0.01057  10.76688     20.90616   3208.67819   -15.63463  0.73022  6749.08961   0.4476  56717.49537  52.26515  15.91933  20.60734     56771.07 
    12.80078  1.29423  1.69019       0.57889         2347.75978   0.0013  0.08428     0.01962   3.50494     20.92374   8958.41111   -19.82415  1.35015  7028.67716  0.46608  56713.30585   52.1815   0.06684  20.52376     56788.97 
    14.16331  1.95306  3.45917       0.17494         2440.12388  0.00963  0.01931     0.09184  12.91752     21.14173   7197.56367   -14.26018  0.55125  6609.88109  0.76994  56718.86982   52.2636   0.67771    20.602  56782.61667 
     14.1049  2.07543  3.36543       0.06825          5758.6597  0.06492  0.01873     0.08753  13.31742     21.20549   3815.47787   -13.45396  0.72512  6562.49582  0.89169  56719.67604  52.26006   4.59913  20.51114     56786.97 
     13.1961  1.66833  2.39267       0.16829          2319.6708  0.00652  0.07545      0.0224   3.95221     20.89285   6980.83422   -22.58046  0.87581  7002.36872  0.43408  56710.54954  52.19264   0.34758   20.6709     56772.96 
    13.17776  1.88095  2.00008       0.16017         3054.52787  0.00581  0.06545     0.01228   4.22278     21.00071   9459.28006   -22.15657  0.66927  6641.53134  0.55647  56710.97343  52.15442   0.31527  20.54623  56786.94333 
    13.27509  1.45733  2.16676       0.81774         2997.10416  0.02154  0.04402     0.01321   6.71343     20.94298   3119.52392   -19.66635  0.53546  6963.65238   0.4872  56713.46365  52.24618   1.31249  20.51233  56782.61667 
    13.65522  1.99874  2.30897         0.281         3437.93649  0.00255  0.04945     0.01072   5.68783     20.98056   7164.83204   -20.27717  0.27217  6771.37214  0.53124  56712.85283  52.20443   0.14912  20.55282     56786.97 
    13.76516  1.71099  4.09932       0.10258         2768.83872  0.03188  0.02944     0.07596  10.60779     20.94587   7435.03526   -17.16089  1.42652  7294.64747  0.49045  56715.96911  52.33128   2.15364  20.62804     56788.97 
    13.11205  1.80846  2.25004        0.9185         2595.39834  0.00983  0.06024     0.01535   4.38076       21.057   7654.56904   -19.88816  1.24592  6553.42449  0.63348  56713.24184  52.14706   0.53849  20.53182     56786.97 
    14.05567  1.79138  2.63689       0.05212         3446.92799  0.00676  0.01348     0.05819  18.69585     21.19271   9598.66391   -12.68029  0.63124  6554.04148  0.86583  56720.44971  52.28802   0.51226  20.62842     56772.07 
    13.06976  1.76721  2.54923       1.66435         2144.58715   0.4355  0.05637     0.01857   5.70231     20.94086   3373.80897   -17.92986  1.43688  7323.46069  0.48483  56715.20014  52.27278  25.51015  20.54505  56786.94333 
    13.01994  1.47309  2.21847       3.24093          2357.2364  0.03623  0.08905     0.02889   3.48743     20.92589   8804.61996   -20.00593  1.16101  7186.87889   0.4684  56713.12407  52.20022   1.86458  20.59659     56772.07 
