 texplosion  fnickel    Pspin  log(Bfield)      Mns  thetaPB   mejecta    kappa  kappagamma      vejecta  temperature    alpha  cutoff_wavelength  log(nhhost)      A_V         MJD0   kenergy  mnickel              TSD   log(L0)  Peak_mag     Peak_MJD  log(E_rad)  log(Peak_lum)  Rise_Time     E_fold  tau_1  delta_m15     r_peak     frac 
   -28.5907  0.00696  1.85969     13.37244  1.51654  0.56688    2.2625  0.24707         0.5  14632.04776   5340.82931  4.99914         2128.47532     20.42554    0.148   55663.8093   2.88952  0.01574    8763199.56359  44.96816  22.51148  55738.77329    51.59201       44.56889   36.64548  107.04338  101.5    0.06646  -22.31057  0.99957 
   -31.1607  0.48595  0.99387     12.56709  2.19765   1.4475   5.30072  0.23594     0.01528  14976.10033   5260.73221  2.98933         2066.47922     19.36499  0.01287   55661.2393   7.09185  2.57588  148001369.32331  44.44587  22.49698  55741.09449    51.29817       44.51658   35.68113   46.28903   57.5    0.17605   -22.1206  0.97834 
  -36.36975  0.04233  2.40572     13.75143  1.73727  0.73452   5.14113  0.32817     0.10375  11388.80315   7535.82041  4.30161         2078.08516     20.24275  0.09716  55656.03025   3.97779  0.21763    2933048.64517   45.2789  22.47196  55738.77329    51.43592       44.69422   36.64548   41.46726   62.0    0.10538  -22.20943   0.9931 
  -39.18485  0.13619  1.32235     13.07396  1.85883  0.50277   6.59604  0.12538      0.0126  11739.38428   6476.08189  1.68412         2338.63602     16.99921    6e-05  55653.21515   5.42252  0.89828   21470044.79261  44.96356  22.49815  55734.13088     51.2166       44.46381   32.78806   44.36032   67.0    0.15467  -21.94341    0.987 
  -34.26334  0.00543   2.6604     13.53218  2.05629  0.77992   2.65343  0.25411     0.07681  14024.20494   9699.13794  1.10278         2729.56104     17.31068  0.00011  55658.13666   3.11309  0.01441   11653023.96757   44.6656  22.39652   55748.0581    51.42859       44.57528   41.46726   55.93258   43.0    0.19232  -22.01878   0.9995 
  -40.01356  0.00198  1.51722     13.04795  1.86603   0.8352   9.47404  0.07377     0.01304   9038.15647   7221.23355  4.34438         2160.08324     20.18304  0.08468  55652.38644    4.6166  0.01873   31983863.37119  44.67273  22.59576  55745.73689    51.60359       44.51249   50.14645  120.54435   88.5    0.08001   -22.1134   0.9997 
  -62.93385   0.2409  0.71028      12.7334  1.50667  0.29374   5.36206  0.21023     0.03085  10274.00019   9987.70337  1.40273         2509.42229     16.88546    4e-05  55629.46615   3.37628  1.29172   24092590.45239  45.36213  22.58233  55745.73689    51.33569       44.48506   43.39597   54.96822   76.5    0.11028  -22.15858  0.98682 
   -60.3721  0.00246    1.098     12.75162  1.35602  1.14957   8.69258  0.22591     0.01366  10985.27344    6130.0883  1.26292         2438.40807        20.08  0.06679   55632.0279   6.25745  0.02139   47647763.04039  44.64186  22.57457  55736.45209    51.37728       44.47348   50.73669   62.09282   72.5    0.10859  -22.23171  0.99972 
  -34.80439  0.02795  1.33666     12.92953  1.88684  0.78998   4.92001  0.19414      0.0192  14390.81598   5534.56693  3.48545         2329.77368     17.10837    7e-05  55657.59561   6.07805   0.1375   43304024.00085  44.65601  22.50312  55745.73689    51.38102       44.51497   44.36032   56.89693   57.0    0.19926  -22.03237  0.99805 
   -39.0685  0.00184  0.85191     12.45213   1.3864  1.34809   3.15833  0.23755     0.03338   12632.4872   3946.07943  1.08514         2449.91026     20.53206  0.18914   55653.3315   3.00651   0.0058  116472468.30737  44.48373  22.47419   55748.0581     51.4228       44.62073   43.39597   48.21774   70.5     0.1331  -22.24869  0.99994 
  -42.52059  0.43173  1.83163     13.07301  1.51403  1.24259   3.52451   0.2699     0.03823  12396.42057   9120.54797  4.22033         2140.66993     16.10711    1e-05  55649.87941   3.23086  1.52162   33698672.07582  44.39569  22.48838   55752.7005    51.54633       44.57008    51.1108   78.11274   48.0    0.15998  -21.98505  0.95952 
  -32.18386  0.35342  1.22436     12.92501  1.41437  0.91493   5.54943  0.30193     0.01103  14097.86582   3157.44687  4.85668         2198.27881     16.50299    2e-05  55660.21614   6.57934   1.9613   27808809.85068  44.79941  22.37869  55745.73689    51.24611       44.47869   39.53855   44.36032   51.5     0.1876  -22.05167  0.97302 
  -53.10315  0.00154  1.70255      13.2712  1.70172  0.71822   4.95251   0.3069     0.03702   9709.58386   5596.20611  0.76891         2714.99386     16.62699    2e-05  55639.29685   2.78518  0.00764   13137213.09041  44.91903    22.541  55736.45209    51.30758       44.50366   36.64548   49.18209   79.0    0.09425   -22.2292  0.99985 
  -41.91934  0.24761  0.72539     12.67298  1.29374   0.7758   4.71898  0.23375     0.01143  10577.49289   9313.64941  1.88311         2563.86711     20.99788  0.55285  55650.48066   3.14949  1.16849   28499572.26495  45.20471  22.30173  55775.91252    51.73687       44.64081   75.21967  103.18596   63.5    0.11601  -22.61115  0.99301 
  -61.09721   0.0067  0.84231     12.64402  1.46321   0.6488   7.65754  0.24402     0.01502  11227.03267   6411.57329   1.5582         2402.69016       16.025    1e-05  55631.30279   5.75766  0.05132   49662548.06135  44.88718  22.43184  55766.62771    51.84364       44.54391   71.36226  269.05499   81.0    0.10863  -22.17915  0.99951 
  -34.29347  0.45566  1.45939      12.8556  1.56477  1.48819   6.83732  0.14108     0.01005  12962.69671   9725.85034   1.0291         2659.65106      16.2555    1e-05  55658.10653   6.85337   3.1155   60174109.89979  44.35554  22.34383   55755.0217     51.5395       44.64584   50.14645   60.75435   40.5    0.21452  -21.88911  0.94381 
  -51.43307  0.05506  1.18689     13.30283   1.9378  0.29047  10.94011  0.19188     0.01342  14602.57435   5879.97473  0.79018         2244.80506     16.13777    1e-05  55640.96693  13.91579  0.60235    6284651.60152  45.60906  22.48797  55743.41569    51.34153       44.51455   41.09314   51.48492   67.0    0.14053  -22.32744   0.9938 
  -51.48123  0.47459  1.64642     13.25631  1.94439  0.55065    6.5469  0.22523     0.02787  12762.41953    5925.1645  1.80493         2316.72336     18.06601  0.00065  55640.91877   6.36105  3.10707   15033422.46776  44.94749  22.50204  55743.41569    51.37794        44.5232   44.36032   54.96822   70.0    0.12425  -22.22476   0.9481 
  -41.49512  0.39366  0.87698      12.8619    1.427  0.41248   2.72387  0.31899     0.01347   8858.42284   7940.07518  1.19164         4351.43495     16.77953    3e-05  55650.90488   1.27505  1.07228   19249064.10245  45.25288  22.50157  55734.13088    51.26477       44.45809   34.71677   49.18209   66.5    0.14371  -22.09537  0.98923 
  -39.27595  0.21936  0.92098     12.99836  1.47103  0.41382   9.79525  0.25537     0.01125  14116.67915   6607.36307  4.78823         2075.62102     17.48654  0.00017  55653.12405  11.64415  2.14873   11674010.35206  45.44075  22.62205      55738.3    51.39743        44.5001   43.39597   60.75435   64.5    0.12582  -22.39659  0.98152 
  -41.48728  0.05391  1.07739     12.78079  1.42962  0.88857   5.14993  0.18655     0.12295  12679.80905    8748.9574   1.4758         2305.19987     20.51735  0.18284  55650.91272   4.93917  0.27762   42286753.90987  44.73312  22.57486  55741.09449     51.4605       44.51545   39.53855   75.21967   91.0    0.04453   -22.6857  0.99659 
  -48.71001  0.01829  1.01522     12.86385  1.60395  0.52745   3.96875  0.28623     0.02205   10198.5471   8949.89259  1.03395         2892.75599     18.09259  0.00069  55643.68999    2.4624  0.07261   28736416.05051  45.00248   22.4835   55748.0581    51.33318       44.52277   43.39597   49.18209   65.0    0.11458  -22.08336  0.99917 
  -37.31323  0.04616  1.18978     12.77491  1.60215  1.28186   6.57767  0.23273     0.02015  18213.47352   3955.56386  0.01694         3106.04703      19.3077  0.01128  55655.08677  13.01621   0.3036   59377521.62186  44.54899  22.26922      55751.8    51.49864       44.49617   45.32468   87.75629   48.0    0.21288  -22.27246   0.9962 
  -41.17766  0.29212   1.2278     12.87023  2.19214  0.91227   9.80699  0.06968     0.01076  10295.02675   6710.42419  4.72619         2098.50988     20.73667  0.30297  55651.22234   6.20037  2.86479   55780450.30971  44.68497  22.49709  55736.45209    51.27077       44.46361   37.60984   49.18209   88.0    0.09484  -22.31396  0.97195 
  -35.35527  0.00125  1.91512      13.6134   1.7825  0.47902   5.27624  0.32612      0.0107  12677.28737   6964.68313  1.33312         2719.76918     17.48575  0.00017  55657.04473    5.0583   0.0066    3601171.71488  45.39904   22.5221   55748.0581     51.4155       44.49268   43.39597    70.3979   46.5    0.19088  -21.97488  0.99986 
  -32.45968  0.04491  0.99174     12.63341  1.39579  0.87349   2.77296  0.31477     0.05247  17128.07983   7315.44367  1.30772         2492.51448     16.85702    4e-05  55659.94032   4.85275  0.12453   68962318.63194  44.58226  22.50596      55738.3    51.30619       44.49304   36.64548   50.14645   54.0    0.21219  -22.18357  0.99836 
  -35.48141  0.00637  1.15718     12.85276  1.62972  0.68339   6.59517   0.1369      0.0341  17540.18748   7814.74185  0.20687         2132.81079     16.24866    1e-05  55656.91859   12.1038  0.04204   39922024.11681  44.75294  22.43091  55741.09449    51.39819       44.56905   38.57419    51.1108   55.0    0.17752  -22.29259  0.99942 
   -42.5383  0.01358   1.6205     13.11035  1.85707  0.88212   5.06633  0.24914     0.01735  13141.46451   8125.16886  2.88106         2064.20707     18.55956  0.00202   55649.8617   5.21925  0.06883     27242121.184  44.68313  22.56689  55736.45209    51.25864        44.4502   30.85935    51.1108   49.5    0.17248  -22.01443  0.99882 
  -41.21908  0.13472  1.76341     13.06453  1.95636   1.1806   5.72702  0.21216     0.03541  14991.35295   3176.84016  4.81877         2134.62327     18.80928  0.00358  55651.18092   7.67781  0.77156    41967409.6667  44.44468   22.5893  55736.45209    51.41348       44.49661   37.60984   72.32661   59.5    0.15806  -22.22657  0.98528 
  -47.98762  0.10591  1.03545     12.69455   1.5717  0.82696    9.4386  0.14109     0.05275  14087.64603    6180.0725  1.80043         2133.92047     19.11889   0.0073  55644.41238  11.17407  0.99968   63878720.59979   44.6296   22.5321  55745.73689    51.51938       44.62408   47.25339   60.75435  100.0    0.07474  -22.52012  0.98772 
  -38.79287  0.05435  0.85284     12.65339   1.7941  1.16245   9.16811  0.33059     0.01143  17989.43669    4745.6583  2.06428         2026.23456     20.31679  0.11522  55653.60713  17.69873  0.49833   59789164.68065  44.88433  22.41211   55748.0581    51.40338       44.56082   42.43161   54.00387   56.0    0.14905  -22.54353  0.99715 
  -41.78032  0.18667  1.11728     13.05016  1.38366  0.51625   3.88439  0.33252      0.0117   9856.01498   7142.29672  1.84238         2702.78101     19.93135  0.04743  55650.61968   2.25088  0.72511    12730468.1369   45.2087  22.67657  55736.45209    51.04835       44.43113   28.93064   30.85935   63.0    0.13077  -22.01888   0.9909 
  -45.10773  0.04302  1.29156     12.86521  1.92402  1.17281   6.19431   0.3154     0.04079  17322.74159   9270.03007  3.33044         2006.94299     19.44096  0.01534  55647.29227    11.088  0.26649   55442280.21774  44.58698  22.33675  55773.59132     51.6455       44.59141   69.43355   92.57806   52.5    0.15902  -22.51596   0.9969 
  -19.18388  0.20008  3.30553     13.83076  1.57693   0.9311   1.90609   0.3157     0.08228  12433.94667   9806.61191  4.06258         2224.66523       18.856  0.00399  55673.21612   1.75788  0.38136    3488205.69787  44.88557   22.4499  55741.09449    51.33241       44.51005   38.20007   51.48492   33.0    0.26577  -21.73688  0.97437 
  -47.74208  0.11416  1.24064     13.12537   1.8272   0.4946     6.738  0.23865     0.01069  10720.14722   6716.48102  1.54741         2317.57952     18.60058  0.00221  55644.65792   4.61912  0.76924   14660682.54277  45.17718  22.47837  55743.41569    51.31144       44.50687    40.5029   48.21774   68.5    0.11778  -22.07802  0.99123 
  -46.28664   0.3644  1.02678     13.09496  2.11078  0.26879   7.65372  0.10746     0.01548  10269.90393   4423.01139  0.85898         2921.67665     16.95482    5e-05  55646.11336    4.8154    2.789   13344224.40647  45.44504  22.47325  55738.77329    51.31639       44.51647   35.68113   48.21774   86.0    0.09592  -22.11291  0.97007 
  -45.02305  0.41179  0.92287     12.53723  1.32289  1.26648   7.06322   0.2967     0.02638  15977.63634    8314.5748  1.58426         2095.85303     18.17507  0.00083  55647.37695   10.7561  2.90857   88135944.33653  44.51493  22.44967   55750.3793    51.53565       44.61873   49.18209   64.61177   55.5    0.14329  -22.38753   0.9682 
  -34.07916  0.00498  1.63378     13.11465  2.18354   0.9697   6.46844  0.20912     0.01462  14453.07989   8776.01224  3.40183         2258.09431      19.3725   0.0131  55658.32084   8.06023  0.03222   31919622.36644  44.67756  22.40853   55748.0581    51.39942       44.49715   44.36032   63.64742   47.5    0.18503  -22.16461  0.99954 
  -57.80306  0.23386  1.71264     13.13305  1.62657  1.22059   4.22723  0.27104     0.07586   9113.97467   4699.34216  4.90825         2176.12012     20.62249  0.23293  55634.59694   2.09459  0.98856   24006630.68518  44.63245  22.51598  55745.73689    51.35898       44.54195   41.46726    51.1108   94.5    0.06427  -22.31647  0.98007 
  -34.05418  0.10391  2.48672     13.51857  2.03584  0.71939   3.50792   0.2272     0.33762  12879.38408   6587.64471  2.95702         2234.65247     16.62858    2e-05  55658.34582    3.4711   0.3645   10731921.04238  44.75566  22.48808  55738.77329    51.39246       44.53216   36.27136   57.27105  112.5    0.07168  -22.17666  0.98881 
  -43.40584  0.34207  1.76206     13.16152  2.12795  1.04804   7.61977  0.25782     0.01863  14351.87145   7736.75709  3.41655         2013.00581     16.92939    5e-05  55648.99416   9.36237  2.60647   29158851.79047  44.63999  22.49241  55743.41569    51.33247       44.50368   36.64548   53.03951   54.0    0.14681  -22.25147  0.95957 
  -57.11884  0.01804  1.08873     12.66669  1.19588  1.48708    8.0025  0.23544     0.02891  12357.81952   8340.68544  0.66783         2583.72327      17.9635  0.00051  55635.28116   7.29015  0.14438   61089411.77712  44.48673  22.50257  55745.73689    51.32188       44.47275   43.39597   54.96822   65.5     0.1067  -22.34843  0.99779 
  -34.42547  0.44738   1.2639     12.75002  2.07865  1.37718   2.92364  0.33364     0.02966  13761.21005   7699.71846  2.06003         2298.60975     19.23012  0.00944  55657.97453   3.30266  1.30796   97495100.17943  44.39422  22.43048   55750.3793    51.40166       44.50575   43.39597   60.75435   56.0    0.17597  -22.04984  0.98441 
  -27.35281  0.04271  1.55584     13.04906  1.67959  1.01194   3.40826    0.286     0.02232  16508.77085   4558.59966  0.49872         2767.02979     16.73493    3e-05  55665.04719   5.54101  0.14557   30118601.04743  44.63129  22.53805  55734.13088    51.29243       44.49994   32.78806   47.25339   43.5     0.2742  -22.02444  0.99742 
  -36.23037  0.13745  1.08749     12.67302  1.47719  1.22393   3.06692  0.33742     0.03571  14288.66159    4748.7453  0.50704         4701.43238     16.43182    2e-05  55656.16963   3.73519  0.42154   73125590.60024  44.50136  22.27479  55775.91252    51.65349       44.64612   66.54048   80.04145   57.5    0.18292   -22.2979  0.99465 
  -28.40571   0.0017  2.04571     13.28364  1.79204  1.07717   1.62099  0.31646     0.41773  12905.99045   7731.19347  4.97361         2175.78032     20.60637  0.22444  55663.99429   1.61061  0.00276   18861117.80367  44.62494  22.44164   55757.3429    51.48109       44.58202   52.07516   61.71871   86.5    0.05903  -22.34146  0.99993 
   -29.2389  0.02652  1.72299      13.1222  1.30911  1.43933    3.6063  0.32426     0.03265  15883.54379   7021.93375  0.98246         2395.58031     16.39601    1e-05   55663.1611    5.4273  0.09565    20556669.2385   44.6003   22.4542  55745.73689    51.36314       44.52269   43.39597   54.00387   42.5     0.2531  -22.13748   0.9974 
  -37.44607  0.00307  1.03505     12.70151  1.78306  0.76807   3.69036  0.20624      0.0298  14112.40824   5783.87049  1.18453         2364.12314     19.10484  0.00707  55654.95393   4.38428  0.01133   70127195.26143   44.6442  22.54445   55750.3793    51.37782        44.5392   45.32468   52.07516   64.5    0.17191  -22.06258  0.99987 
  -41.26823  0.00249  0.99951     12.64199  1.88936   1.4069    4.9938  0.30055     0.01196  13762.14434   4801.83096  1.23434         2471.11778     20.16962   0.0821  55651.13177   5.64197  0.01245   91142869.34478  44.58587  22.44955   55750.3793    51.46206       44.54426   47.25339   64.61177   57.0    0.16593   -22.1022   0.9999 
   -28.2259  0.08394  2.62835     13.48272  1.72595  0.96744   2.02941  0.31771     0.11383  14952.19072   9230.32428  2.16719         2335.19952     19.56702   0.0205   55664.1741   2.70649  0.17034   11988503.69578  44.58774  22.49084      55751.8    51.58529        44.6421   49.18209    70.3979   41.5      0.195   -22.0277  0.99294 
  -41.75817  0.16341  1.51871     13.02156  2.00913  0.90667   4.10833  0.28603     0.02417  12677.90279   8540.46866  2.27271         2261.81201     16.75657    3e-05  55650.64183   3.93902  0.67134   38963710.14197  44.61825  22.47274  55761.98531    51.51426       44.58381   57.86129   65.57613   54.0    0.15326  -22.07055  0.99002 
  -27.00685  0.17154  0.80042      12.3146  1.19054  1.47353    3.3958  0.20328      0.0627   20179.0784   8923.10288  0.10955         3580.75286      18.4768  0.00167  55665.39315   8.24845  0.58251  166335633.89638  44.31697  22.53043  55743.41569    51.34953        44.4706   44.36032   60.75435   44.5    0.22641  -22.27147  0.99274 
  -39.51027  0.00832  1.31079      12.8751  1.97785   1.0536   8.19735  0.19352     0.02613  16869.00937   7869.84143  2.94204         2091.30665     16.67391    3e-05  55652.88973  13.91489  0.06818   56088574.05113   44.5811  22.37882      55751.8    51.55054       44.65409   42.43161   61.71871   56.5    0.16236  -22.41301  0.99917 
  -35.47011  0.39869  1.38143     12.85184  1.37092   1.5304   3.73264  0.24712      0.0269  14028.70748   8451.03365  1.16103         2376.86854     20.08914  0.06821  55656.92989   4.38206  1.48816   48061954.12545   44.4434  22.49456      55738.3    51.35954       44.62728   36.64548   41.46726   46.5    0.19857  -22.09186  0.97224 
  -45.39122  0.17068  0.79068     12.46254   1.8382  1.16004   6.89269  0.28762     0.01009  12590.23331   5936.19682  4.43562         2043.19451     17.63836  0.00024  55647.00878   6.51753  1.17646  126804471.46105   44.6341  22.43172   55752.7005    51.52923       44.58316   46.28903    70.3979   71.5    0.12111  -22.15153  0.99209 
  -51.06901  0.00675   1.0568     12.66186  1.80142   1.4842   8.68882  0.25171     0.01598  14590.28876   7006.43941   0.4318         2066.60025     16.16867    1e-05  55641.33099  11.03356  0.05864   88654430.90603  44.52877  22.48824  55741.09449    51.60148       44.89258   31.82371   39.53855   64.5    0.13502  -22.30127  0.99944 
  -68.16057  0.00259  0.84044     12.43837  1.49489  1.44412   7.20073  0.28279     0.02707  12791.44541   9831.17501  0.26077         2007.60807     20.02209  0.05845  55624.23943   7.02818  0.01867  130225640.41388  44.47975  22.56511  55741.09449    51.41654        44.7068   37.60984   38.57419   74.0    0.10031    -22.305  0.99983 
  -39.01073   0.4758  0.80748     12.60925   1.9511  0.78361   7.51086  0.25371     0.01121  16360.70561   8060.37571   4.9941         2036.89592      20.3448  0.12289  55653.38927  11.99282  3.57369   71424930.50528  44.89102  22.58198  55743.41569    51.69384       45.01982   34.71677   35.68113   53.5    0.16402  -22.30069  0.97768 
