 texplosion  fnickel    Pspin  log(Bfield)      Mns  thetaPB   mejecta    kappa  kappagamma     vejecta  temperature    alpha  cutoff_wavelength  log(nhhost)      A_V         MJD0  kenergy  mnickel            TSD   log(L0)  Peak_mag     Peak_MJD  log(E_rad)  log(Peak_lum)  Rise_Time    E_fold  tau_1  delta_m15     r_peak     frac 
  -16.70115  0.47086  3.55689     14.06548  1.75865  1.13375   8.42753  0.05486     0.01764  8100.44214   6169.10587  0.59865         4732.10148     16.90545    4e-05  57508.09739  3.29872  3.96817  1528191.21009  45.22771  16.64222  57551.41895    51.21673       44.53944   23.96889  35.45043   57.5    0.21328  -21.56979  0.79228 
  -16.84767  0.40554  3.71032     14.02479  1.93797  1.20656   3.24812  0.13457     0.05972  8600.01665   6249.06473  0.54224          4600.5496     16.74917    3e-05  57507.95087  1.43304  1.31726   2210076.0761  45.07296  16.63964    57550.597     51.2128       44.53969   24.95096  34.46836   57.0    0.20965  -21.58959  0.92387 
  -17.33844  0.07002  3.06462     13.91896  1.62826   1.3738   8.54346  0.05898     0.03032  8157.54137   5739.24164  0.60806         4577.59378     18.49646  0.00174   57507.4601   3.3914  0.59817  2062430.39447  45.19344  16.64435    57550.585    51.22187       44.55055   24.04295   35.0739   56.0    0.22393  -21.58859  0.96806 
  -18.10927  0.00132  2.80987     13.84503  1.43386  1.07669   4.44988  0.10224     0.04826  7887.51993   6260.67089  0.63493         4415.38689     18.63929  0.00242  57506.68927  1.65141  0.00586  2145998.60047  45.19635  16.63175  57551.41895    51.21514       44.53093   26.40762  35.37637   57.5    0.21398  -21.55722  0.99967 
  -16.85164  0.05205  3.34984      14.2232  1.79306  0.59077  10.71977  0.04294     0.02037  7883.60265   6431.43778  0.64336         4708.08498     17.03334    6e-05   57507.9469  3.97431  0.55791    668420.9178  45.64734  16.63399    57550.585    51.21062       44.53682   24.04295  35.37637   56.0    0.22415  -21.57734  0.96914 
  -16.01014  0.24462  3.17198     14.11167  1.64519  0.85239   9.88659  0.04832     0.02099  8147.05156   5823.73153  0.62949         4788.62181     18.43137   0.0015   57508.7884  3.91449  2.41842   919088.57166  45.51904  16.62414    57550.597    51.21386       44.53688   24.95096  36.53056   56.0    0.23294  -21.58769  0.87711 
  -16.44677  0.37544  3.35037     14.06007  1.82712  1.56435   5.91311  0.07943     0.02891  7356.99054   6171.11259   0.7881         4553.18627     17.10936    7e-05  57508.35176  1.90917  2.22004  1444226.44099  45.32079  16.62923    57550.597     51.2156       44.54637   24.95096  34.46836   56.5    0.21433  -21.55802  0.89087 
  -15.67861  0.31184  2.76225     13.97062   1.4965  1.51955   7.78345  0.06586     0.02266  7106.16609   6143.15336  0.87401         4589.55649     18.60288  0.00223  57509.11993  2.34461  2.42723  1213897.62612  45.47721  16.63967    57550.585    51.21601       44.54861   24.04295   35.0739   55.5    0.22258   -21.5627  0.89093 
  -17.67583  0.10699  3.52942     14.10292   1.9027  0.89982   9.28605  0.04833     0.02103  7753.90908   5676.12052   0.6495         4685.91173     17.95776   0.0005  57507.12271  3.33042  0.99352  1370062.70487  45.31607  16.64293    57550.597    51.21148       44.53365   24.95096  34.46836   58.0    0.21026  -21.57755  0.94549 
  -15.16401   0.3491  3.11585     14.01671  1.62648  1.52968    8.3624  0.05499     0.02172  7379.54714   5734.54865   0.7961         4690.09151     17.79345  0.00035  57509.63453  2.71655  2.91933  1357676.37988  45.36014  16.65474    57550.585    51.21718       44.54049   24.04295   35.0739   58.0    0.21904  -21.56089   0.8579 
  -17.03091   0.2718  3.03542     14.34291  1.41493  0.30767  10.75693  0.04174     0.01397  8076.29838   6116.77476  0.63901         4701.73444      18.3399  0.00122  57507.76763  4.18543  2.92374   249558.08376  46.05797  16.65463    57550.597    51.22395       44.55011   21.28207  35.77258   57.5    0.20315  -21.58839  0.83621 
  -16.39136  0.00193  3.28089     14.25566  1.93553  0.69925   6.88231  0.06756     0.03558  6879.11843   6160.09636  0.85924         4477.02648     18.26058  0.00101  57508.40718   1.9428  0.01327   596049.54825  45.74838  16.62411    57550.585    51.21274       44.54763   24.04295   35.0739   54.0    0.22535  -21.54621  0.99936 
  -16.33652  0.39333  3.20281     14.45533  1.89801  0.51882    8.5148  0.06656     0.01839  7376.83704   6364.71604  0.74857         4738.48778     18.60994  0.00226  57508.46201  2.76402  3.34911   222083.97473  46.18956  16.61697  57551.41895    51.22155       44.53864   23.64674  35.77258   54.5    0.21018  -21.56546  0.86303 
   -17.4035  0.38116  3.27797      13.9402  1.64904  1.31441   6.18939  0.07673     0.02961  8342.28972   6278.97214  0.57671         4430.49003     16.89279    4e-05  57507.39504  2.56948  2.35916  2167029.71672    45.119  16.61501  57551.41895    51.21624       44.53492   24.96004  36.52148   57.5    0.20197  -21.57472   0.8724 
  -17.08141  0.03252  2.90284     13.86101  1.49846  1.44308   9.16934   0.0495     0.02709   7824.0019   6021.85774  0.67134         4723.76362      16.4449    2e-05  57507.71713  3.34829  0.29821   2223768.0049  45.17176   16.6332  57551.41895    51.22002       44.53648   24.95096  36.53056   56.0    0.22251  -21.58215  0.98356 
  -16.06548  0.33092  3.07546     14.24173  1.64605  0.69429   12.0542  0.04622     0.01342  7819.04576    6157.8739  0.70906         4619.38478     17.69055  0.00027  57508.73305  4.39615  3.98898   474923.57058  45.83285  16.62593    57550.585    51.21831       44.55563   24.04295   35.0739   56.0    0.21578  -21.57412  0.82223 
  -16.01642  0.25568  3.49248     14.08357  1.82582  1.29003  11.37728  0.04127     0.01682  7864.62388    5903.8498   0.6991         4593.38112     17.81665  0.00036  57508.78212   4.1978  2.90893  1407323.12423  45.29564  16.63788    57550.585    51.20878       44.53451   24.95096  36.53056   58.0    0.22323  -21.56092  0.85127 
   -16.0584  0.32499  3.38695     14.05365  1.75984  1.25641   9.19049    0.055     0.01968  8136.08984   6150.84883  0.67786         4546.73961     17.47273  0.00016  57508.74013  3.62909  2.98681   1464246.2209  45.28909    16.634    57550.597    51.20815        44.5347   24.95096  34.46836   56.5    0.21718  -21.58778  0.84861 
   -18.3936   0.0064  2.72321     14.01561  1.41992  0.65754   4.25369  0.11714     0.05601  7615.23128   6092.74279   0.7133         4339.93914     16.69046    3e-05  57506.40494   1.4715  0.02723   909972.82126  45.59192  16.63978    57550.597    51.21555        44.5412   24.95096  34.46836   57.0    0.20643  -21.56052  0.99854 
  -16.16689   0.0193  3.96182     14.37471  2.16301  0.53269   8.94458  0.04572     0.02555  7752.76504   6145.02666  0.75026         4459.27874     17.25096   0.0001  57508.63165  3.20701   0.1726   561349.00254  45.65888  16.62923  57551.41895    51.21165       44.53564   24.96004  34.45928   58.0    0.22862  -21.55159  0.98969 
  -17.47887  0.00781  3.43469      14.0884   1.8828  0.86926   5.34683  0.08473     0.04295  8049.53256   6093.75313  0.60963         4445.83251     18.00786  0.00057  57507.31967  2.06664  0.04177  1372769.02843  45.33428  16.64985    57550.597    51.21605       44.53281   24.95096  36.53056   57.0    0.21293   -21.5691  0.99767 
  -17.77906  0.00312  2.82268     13.87775  1.51159  1.30767   3.39568  0.15277     0.07197  7593.04753   5684.60611   0.7033         4495.21411     17.25605   0.0001  57507.01948  1.16785   0.0106  1963695.59577  45.25388   16.6328    57550.585    51.22024        44.5398   24.04295  35.37637   55.0    0.21388  -21.56581  0.99945 
  -16.90447  0.29489  3.47155      14.1391   1.8217  0.84102   7.22566  0.06322     0.02465  7804.08817   5914.31119  0.68899          4607.6328     17.80176  0.00035  57507.89407  2.62512   2.1308  1074312.88875  45.41715   16.6377    57550.585    51.20432        44.5421   24.04295   35.0739   57.5    0.21565  -21.57912  0.88706 
  -16.96233  0.00373  3.46618     14.05398  1.87202  0.98096   3.86396  0.11372     0.05966  8012.49332   5958.30148  0.62909         4681.64505      19.0301  0.00595   57507.8362  1.47977  0.01441  1628819.73115  45.24958    16.651    57550.585    51.21766       44.54306   23.64674  35.47011   56.5    0.21974   -21.5805  0.99917 
   -17.4052  0.13135  3.28949      13.9518  1.70536  1.36911   11.1028   0.0421     0.01745  7832.37927   6143.23418  0.65141         4621.18719     18.33274   0.0012  57507.39334    4.063  1.45838  2139405.55229  45.13611  16.65195    57550.585    51.20362        44.5455   24.04295   35.0739   58.0      0.215  -21.56994  0.92035 
  -16.42412  0.06887  3.28935     14.11554  1.74127  0.82027  13.59315  0.03587     0.01585   7860.3488   6213.50043  0.68101         4678.79181      16.6832    3e-05  57508.37442  5.00992  0.93619  1027578.85872  45.46368  16.62573    57550.597    51.21139       44.53691   24.95096  34.46836   55.0    0.22139  -21.57175  0.94902 
  -16.35777  0.03011   2.9094     14.24763  1.62968  0.55276  13.04201  0.03882     0.01764  6949.26867   6189.11636  0.90786         4561.24674     16.39678    1e-05  57508.44076  3.75708  0.39268   409513.42931  45.94107  16.63377    57550.597    51.21624       44.54374   21.28207  35.47011   52.5    0.22837  -21.57122  0.98098 
  -16.05825  0.08194  2.90643      14.1203  1.45559  0.56265   7.70529  0.05763     0.02874   7815.1631   6041.49799    0.754         4538.67234     17.59256  0.00022  57508.74029  2.80732   0.6314   656112.98689  45.68819  16.63541    57550.597    51.21802       44.54135   24.95096  34.46836   56.0    0.22677  -21.57826  0.96426 
  -16.46981  0.05403   3.3056     14.03569  1.87201  1.52354  10.88536  0.04408     0.02276   7655.3989   6237.78987  0.67384         4696.36349     18.86735  0.00409  57508.32873  3.80545  0.58809  1611567.00755  45.29541  16.62422  57551.41895    51.21351       44.53457   24.95096  36.53056   55.0     0.2232  -21.57336  0.97039 
  -17.70871  0.08659  3.32246     14.00723    1.832  1.40803   9.79024  0.05299     0.02255   7765.6854   5922.92123  0.66613         4648.98022     17.12678    7e-05  57507.08983  3.52193  0.84777  1816330.68405  45.22966  16.64105    57550.597    51.21881       44.54181   23.96889  35.45043   55.5    0.21658  -21.58163  0.95604 
  -17.63383  0.04053  3.43265     14.05619  1.80958  0.87333   7.66897  0.05588     0.02541  7655.17897   5967.13328  0.70209         4504.72486     17.63804  0.00024  57507.16471  2.68087  0.31085   1528512.1767   45.2709    16.636    57550.597      51.218       44.54464   24.04295  35.37637   58.5    0.20851   -21.5553  0.98189 
  -17.18355  0.10861  3.20146     14.16472   1.6571  0.58415   7.05602  0.06467     0.03074  8036.34749   6225.95668  0.62207         4564.93062     18.41097  0.00143  57507.61499  2.71834  0.76636   738637.92101  45.60907   16.6351    57550.585    51.21225       44.53894   24.04295  35.37637   57.5    0.20855  -21.56976  0.95691 
   -18.7593   0.0126  3.00909     14.05147  1.65916  0.80523   3.54182  0.15362     0.07179  7990.41128   5957.03135  0.55506         4665.50932     17.75394  0.00032  57506.03924  1.34894  0.04462  1100620.88117  45.49022  16.64345    57550.597    51.21975       44.54382   24.04295  35.37637   55.0     0.2112  -21.57719   0.9977 
  -17.08912  0.04616  3.82145     14.10751  2.14137  1.17165   5.36416  0.08126     0.03499  7345.72883    6347.3674   0.7747         4594.93262     16.96566    5e-05  57507.70942  1.72663   0.2476  1769877.48467  45.18714  16.65132    57550.585    51.22244       44.54337   23.96889  35.45043   57.0    0.21041  -21.56865  0.98609 
  -15.76884   0.2166  2.90942      13.9879  1.56135  1.56356  12.53721  0.03714     0.01116  6860.87136   6497.73414  0.87721         4723.43526      18.3999   0.0014   57509.0297  3.52036  2.71555  1297565.03103   45.4216  16.64242    57550.585    51.22132       44.54675   26.01141  35.47011   56.0    0.21413  -21.56674  0.87511 
  -18.52669  0.26534  3.37004     13.92654  1.74986  1.26697   3.06293  0.13875     0.05596  7883.92054   6358.48038  0.56901         4893.79731      17.6243  0.00023  57506.27185  1.13566  0.81273  2588253.97338  45.04357  16.63397  57548.81473    51.21294       44.55061   24.04295   35.0739   57.5    0.20539   -21.5739  0.95333 
  -17.96481  0.00622  3.34319     14.08487  1.90352   0.9701   5.27189  0.10324     0.05026  8098.25841   5992.72688   0.5616         4654.91479      18.9672  0.00515  57506.83373  2.06242  0.03277  1336487.12713  45.37412  16.62773    57550.585    51.21447       44.54487   24.04295   35.0739   55.0    0.21758  -21.58833   0.9983 
  -17.58886  0.02965  2.97985     13.81586  1.49819  1.22378   6.20115  0.06755     0.03391  8342.62193   6069.60522   0.5231         4906.48106     17.77532  0.00033  57507.20968  2.57457  0.18386  2884426.30214  45.03597  16.62231    57550.585    51.21687       44.53473   26.40762  35.37637   58.0    0.20548  -21.59601  0.98917 
  -15.03893  0.20864  2.99744     14.06202   1.4943  0.80233  10.00431  0.04348     0.01827  7735.20304   6301.03166  0.74609         4765.25887     16.75671    3e-05  57509.75961  3.57074  2.08734   936931.60619  45.51807  16.63085    57550.597    51.21142        44.5436   24.95096  34.46836   56.5    0.22903  -21.58455  0.88901 
  -15.61943   0.0465  2.68147     13.80142  1.33825  1.27005   9.38521   0.0404     0.02002  7371.56271   6052.76281  0.77142         4685.30695      19.4904  0.01718  57509.17911  3.04222  0.43641  2229714.78132  45.19039  16.64903  57548.81473     51.2101       44.55482   21.60421  32.78329   57.5    0.22417  -21.57926  0.97585 
  -16.23466  0.19943  3.03801     13.94081  1.55098  1.43345  10.60458  0.04561     0.02018  7788.51548   5778.17706  0.71996         4597.03177     16.43885    2e-05  57508.56388  3.83734  2.11489  1745774.18974  45.25228  16.63274  57551.41895     51.2233       44.53581   26.40762  35.37637   58.0    0.21438   -21.5729  0.89056 
  -18.04874  0.05469  3.39642     13.96794  1.84313  1.53201   7.04143  0.07188     0.03776  8552.39308   5874.17797  0.49225         4604.52035     16.19217    1e-05   57506.7498   3.0723  0.38511  2288428.58482  45.11282  16.63049    57550.585    51.21262       44.53612   24.04295  35.37637   56.0    0.21021  -21.58247  0.97875 
  -17.79366  0.06411  3.55619     14.18173  1.91806  0.68425   7.95547  0.05255     0.02432  7640.21733   5776.22159  0.67176         4446.90478     16.90405    4e-05  57507.00487  2.77016  0.51005   975408.42785  45.46055  16.62348    57550.585    51.20877       44.54152   24.95096  34.46836   59.5    0.20221  -21.54527  0.97112 
  -17.15798   0.1804  3.19271     14.09793  1.68249    0.761   4.77872  0.09178     0.04118   7613.4122    6097.1094  0.68207         4778.27407     18.51937  0.00184  57507.64056  1.65233  0.86209  1014435.42787  45.48026  16.63645  57551.41895    51.21275       44.53365   24.95096  34.46836   57.0    0.21496   -21.5773  0.95317 
  -16.21548  0.13636  3.26678     13.98668  1.74033  1.30377   6.22746  0.07085      0.0339  7583.15757   6193.45964  0.73161          4664.9134     18.36947   0.0013  57508.58306  2.13618  0.84917  1833696.57132  45.21791  16.62766    57550.585    51.20832        44.5354   24.04295  35.37637   56.5    0.22067  -21.57601  0.95409 
   -16.3507  0.11914  3.23557     13.93093  1.63564  1.45773  13.73963  0.03278      0.0132  7777.08331   6566.66292  0.70652         4691.46153     16.00481    1e-05  57508.44783  4.95719  1.63687  2185463.48734  45.12309  16.61511    57550.597    51.21867       44.54376   24.04295  35.37637   57.0     0.2158  -21.58054  0.90909 
  -15.10787  0.49637  3.03202     14.34442   1.6993  0.61589   8.40449  0.06219      0.0182  7635.54642   6479.03679  0.74842         4776.48466     18.06015  0.00064  57509.69066  2.92293  4.17176   296969.83574  46.06294  16.63596  57551.41895    51.21496       44.52997   26.40762  37.43857   55.5    0.21662  -21.57829  0.82713 
  -16.53248  0.03111  3.16416     13.99412  1.73764  1.33143  13.49063  0.03582     0.01774  7496.68748   6163.72666  0.76022         4571.34667     18.78442  0.00338  57508.26606  4.52271  0.41968  1659793.99723  45.28823  16.65738    57550.597    51.22257       44.54173   26.40762  35.37637   54.5    0.21961  -21.57017  0.97816 
  -17.29871   0.1981  3.18117     14.02399  1.59794  0.79188    6.5265  0.07023     0.03005  8219.71268   6095.39988  0.60285          4558.4289     18.36215  0.00128  57507.49983  2.63039  1.29289  1344520.68809  45.33867  16.63901  57551.41895    51.21486       44.53573   24.95096  34.46836   57.5    0.21197  -21.57969   0.9265 
  -15.66301  0.38601  3.78484     14.12155  1.98606  1.42578   8.79928  0.05422      0.0196  8100.37986   5965.30148  0.68726         4659.44864     17.02985    6e-05  57509.13553  3.44417  3.39664  1509411.24101  45.23194  16.64542    57550.585    51.21443       44.54022   24.04295  35.37637   57.0    0.22224  -21.59379  0.82553 
  -17.76051  0.01243  3.21823     14.00806  1.79077  1.22418  14.92837   0.0306     0.01385  6790.63126   5781.72203  0.86795         4577.99253     16.46719    2e-05  57507.03803  4.10639  0.18552   1659470.5769  45.28668  16.64272    57550.585    51.21444       44.54126   24.04295  35.37637   57.0    0.21781  -21.55543  0.99032 
  -17.11778  0.16995  3.11823     13.98985  1.68771  1.28633   8.66944  0.05967     0.02623  7892.68934   5796.79951  0.65858         4577.66447     16.66908    3e-05  57507.68076  3.22157  1.47339  1596696.11087  45.30511  16.63236  57551.41895    51.21065       44.52952   24.96004  36.52148   56.0     0.2229  -21.58244  0.92638 
   -17.6936  0.00965  3.17747     14.06289  1.75036  0.88327  12.66715  0.03911     0.01729  7579.72081   6034.49303  0.69314         4449.77853     18.81585  0.00364  57507.10494  4.34123   0.1223  1228369.78009  45.41848  16.63489    57550.585    51.21781       44.54514   23.96889  35.45043   56.0    0.21321  -21.55759  0.99354 
  -16.86356  0.00133  2.60759     13.76182  1.30789  1.34226   6.54952  0.07099     0.03514  7822.40649   6000.12927  0.68871            4612.21     17.88287  0.00042  57507.93498  2.39066  0.00872  2472952.25571  45.15972  16.63627  57548.81473    51.21657       44.55932   21.65032  35.10185   55.5    0.22243   -21.5883  0.99952 
  -13.65218  0.42777  3.28515     14.30246  1.83196  0.92492  11.91172   0.0408     0.01212  7562.45843   6075.44579  0.82125         4688.52127     18.13971  0.00077  57511.14636  4.06376  5.09542   455962.91585  45.83972  16.63213    57550.597    51.21004       44.54088   24.95096  34.46836   58.0     0.2337  -21.55232   0.7891 
  -15.24326  0.08015  3.36381     13.96031  1.70391  1.10514   4.99074  0.08203      0.0524   8691.0213   5876.70948  0.61179         4583.58835     18.36695  0.00129  57509.55528  2.24871  0.40002  2149290.46095  45.11433  16.63866    57550.585    51.22249       44.55082   23.96889  35.14796   57.0    0.23648  -21.59848  0.97566 
  -15.52106  0.33084  2.55323     13.94919  1.30111  1.23087  13.54611  0.03667     0.01017  7421.19366   6183.36343  0.75165          4702.7191     18.70693  0.00283  57509.27748   4.4503  4.48166   995250.99889  45.57105  16.63804    57550.585    51.22187       44.54332   24.04295  35.37637   57.5    0.21043  -21.55183  0.80785 
  -15.45973  0.09909  3.37512     14.01121  1.77333  1.41389  15.83076  0.02688     0.01207  7564.88449   6083.35122  0.75801         4753.68206     19.09238  0.00687  57509.33881  5.40423  1.56871  1781404.89304  45.21029  16.61197    57550.585     51.2159       44.55096   24.04295   35.0739   57.0    0.22494  -21.58486  0.91563 
  -17.48882   0.0485  3.24761     13.99085  1.78492  1.31959   9.02386  0.05125     0.02062  7005.37563   5795.36886  0.82006         4557.82656     18.70195   0.0028  57507.30972  2.64169  0.43766  1823348.85296  45.23647  16.65212    57550.597    51.21847       44.53618   23.96889  37.51263   56.5     0.2065  -21.55512  0.97695 
