 texplosion  fnickel    Pspin  log(Bfield)      Mns  thetaPB   mejecta    kappa  kappagamma      vejecta  temperature    alpha  cutoff_wavelength  log(nhhost)      A_V         MJD0   kenergy  mnickel            TSD   log(L0)  Peak_mag     Peak_MJD  log(E_rad)  log(Peak_lum)  Rise_Time    E_fold  tau_1  delta_m15     r_peak     frac 
   -21.2918  0.22407  2.97549     13.91076  1.63126  1.46355  11.51479  0.06381     0.06353   6064.46879   4565.63131  1.29378         3761.37056     17.44704  0.00016   58932.9082    2.5262  2.58009  2022754.88535  45.22831  19.39425     58993.24    51.27552       44.43922   32.66078  49.38721   75.0     0.1381  -21.51777   0.8821 
   -23.9001  0.00555  2.08834     13.75401  1.28359  1.43494   9.03299  0.17275     0.11637   8203.38166   5163.72382  0.98311          3411.6915     16.40836    1e-05   58930.2999   3.62614  0.05016  1613723.35854  45.52984  19.40674     58993.24    51.22143       44.35318   38.54601    53.549   57.5    0.12908  -21.60369  0.99818 
  -23.31857  0.11088  2.89338     13.80268  1.49769  1.30843   7.73022  0.11082     0.36864   6802.95227   5651.36027  1.64006         3477.43926     18.74982  0.00312  58930.88143    2.1341  0.85716   2888549.9985  45.06077  19.40111     58995.18    51.16431       44.30461   37.11695  52.74513   69.5    0.13561   -21.5531  0.95413 
  -18.08442  0.00728  2.90704     13.94249  1.70507  1.38845  10.08231  0.12849     0.06888   8633.38917   5276.81344  1.93522         3323.84962     19.96178  0.05088  58936.11558   4.48281  0.07338  1743752.86455   45.3322  19.38745     58994.24     51.1999       44.39257   31.46693  48.62753   55.0    0.15533  -21.69517  0.99662 
  -17.51725  0.12213  1.61664     14.08355    1.506  1.13048  20.62063   0.0546     0.05441   7346.11292   6474.85806  0.63374         4374.90672      17.4874  0.00017  58936.68275   6.63811   2.5183   248753.53299  46.63368  19.36019     58996.18    51.21472       44.34511   27.34933   58.6057   53.0    0.15631  -21.57223   0.9594 
   -21.3224  0.08366  2.54002     13.99346  1.65849  1.04381  11.26915  0.10805     0.19747   8088.49784   4919.18714  0.88677         3161.27311     19.63389  0.02391   58932.8776   4.39799   0.9428  1023950.19778  45.66861  19.36404  58992.25905     51.4067       44.61143   31.25638  44.93104   58.0    0.14112   -21.6062  0.96662 
  -22.04159  0.07666  3.34363     13.96016  1.90327  1.25172   8.60209  0.10248     0.15167   7880.56998   4294.27829   1.0325         3529.31414     17.15701    8e-05  58932.15841   3.18674  0.65947  2373687.41151  45.12449   19.3554     58991.16    51.23395       44.39833   34.35956  47.68843   67.0    0.14774  -21.61566   0.9667 
  -20.34259  0.45068  2.68689     13.96547  1.67888  1.53242   7.25704  0.09281     0.10812   6220.39223   3536.62459  0.80348         4346.43175     19.59255  0.02174  58933.85741   1.67503  3.27059  1319471.35402  45.51497  19.38186     58996.18     51.1689       44.31549   29.99643   55.9586   74.0    0.14929  -21.56259  0.88373 
   -18.1054  0.16703   2.6269     14.03591  1.69504  1.41649  10.51869  0.11177     0.29452   6566.62079   5178.51059  1.83703         3633.30512     17.17829    8e-05   58936.0946   2.70566  1.75689   920569.36554  45.69508  19.40645  58992.25905    51.28682       44.46195    35.1069  46.94108   61.0    0.13198  -21.55251  0.93777 
  -15.40661  0.12792   1.5667     14.17179  1.73096  1.32503  18.29595  0.04332     0.08253   5396.93152   6161.76175  1.03277         4297.82874     18.84377  0.00388  58938.79339   3.17889  2.34039    178850.5609  46.86467   19.4054     58992.18    51.23373       44.40355   35.16342  46.88456   55.0    0.16015  -21.48321  0.97132 
  -23.31243  0.00851  3.10115     13.74396  1.51877  1.56698  20.96615  0.02582     0.07923   4439.65913   3343.80311  2.86102         3557.61139     18.09913   0.0007  58930.88757   2.46516  0.17849  4410007.71016  44.82285  19.37339  58994.30361    51.22026       44.37209   36.31308  49.64195   79.5    0.12928  -21.45767  0.98876 
  -17.92066  0.09524  2.72206     14.09337  1.91058  1.56965  10.24737  0.13128      0.1622   7791.42014   6121.61966  1.32418         3661.71048     19.43101  0.01499  58936.27934   3.71085  0.97601    855160.4619  45.74817  19.39078  58994.30361    51.24226       44.42637   37.39635  48.83809   54.5    0.14815   -21.6267    0.968 
  -16.87629  0.06073  2.17426     13.99045   1.6501  1.51721  20.43478  0.03057     0.14487   5229.77977   5689.70293   0.9548         4591.70712     18.97926   0.0053  58937.32371   3.33399  1.24097    756925.3316  45.93268  19.35574     58993.24    51.27749       44.45203   31.95954   46.1814   59.5    0.16069  -21.55143  0.96772 
  -13.96091  0.18977  1.90338     14.04665   1.4993  1.42603  14.98811  0.08632     0.21049   6823.17244   5221.87403  1.60049         3742.20465     18.98953  0.00542  58940.23909   4.16243  2.84436   406863.71726  46.27623   19.3839  58992.25905    51.34352       44.58199   29.74624  42.53413   60.5    0.12885  -21.56077  0.93709 
  -19.73993  0.40229  2.33842     14.05886  1.69081  1.36483   11.8343  0.07468     0.27138   6525.90608   6234.39944  0.72821         4138.66076     18.17054  0.00082  58934.46007   3.00643  4.76087     654682.607  45.94306  19.39896     58992.18    51.32337       44.50275   33.43278  44.98756   75.0    0.13829   -21.5397  0.87522 
  -24.62765  0.00143  3.12276      13.8516  1.80815  1.48878  12.61388  0.05331      0.0753   6440.53242   5213.14636  0.97061         3902.22046     19.50478  0.01776  58929.57235   3.12118  0.01798  3242852.07094  45.02608  19.38461     58995.18    51.36785       44.55907   27.82194  46.41196   76.0    0.13859  -21.55969  0.99911 
  -18.32561  0.12073  2.14055     14.03416  1.67603  1.19796   5.92055  0.14211     0.06501   6632.69979   6538.65202  0.63229          5646.7663     19.35554   0.0126  58935.87439   1.55371  0.71477   609297.86336  46.04725  19.38813     58996.24     51.2356       44.38685   32.22213   53.7329   51.5    0.17292  -21.68958  0.98215 
  -24.44146  0.08814  2.91645     13.98518  1.79044  0.95715  10.91244  0.06362     0.07082   6820.18594   5207.31769  0.57903         3972.21375     19.48283  0.01689  58929.75854    3.0279  0.96182  1513959.08734  45.41198  19.37621     58994.24    51.28096       44.42972    33.2099  50.79161   73.5    0.14786   -21.5364  0.95994 
  -22.59237  0.02057  2.86436     13.91712  1.70644  1.45849   9.64313   0.1264     0.09825    8782.7424     5019.382  0.78813         3493.65584     18.04246  0.00061  58931.60763   4.43716  0.19835  1904267.93569  45.30715  19.38333     58993.24    51.24219       44.38108   37.39635  50.79161   56.0    0.15367  -21.63542  0.99118 
  -19.33745  0.01644  3.01192     13.95216   1.7325  1.13735  10.33718  0.07269     0.18298    6600.2774   5207.25563  1.44319         3602.08502     19.77671  0.03322  58934.86255    2.6863   0.1699  1819067.88849  45.28998  19.37635  58994.30361     51.2895       44.44956   34.97735  49.30357   63.5    0.15396  -21.57831  0.99181 
  -21.69705  0.14058  2.10772      13.9662  1.47858  1.08751  14.73814  0.08324     0.19474    7900.9654   5739.24512  0.53589         4066.03635     18.85006  0.00393  58932.50295    5.4882  2.07195   712667.92015  45.93817  19.40021     58993.24    51.16545       44.35359    33.2099  50.79161   58.5     0.1451  -21.61216  0.94182 
  -18.10097  0.02868  2.94457     14.00267  1.68868  1.28615  17.33542  0.04493     0.12462   5721.87318   5591.08365   1.9123         3809.63897     17.58406  0.00021  58936.09903   3.38562  0.49714  1342985.56484  45.43028  19.35744     58993.24    51.25737       44.40892    37.3275  50.58105   59.0    0.15847  -21.52334  0.97672 
  -24.97072  0.31147  2.81251      13.8889  1.51937  0.89425   8.20743  0.09495     0.10714   7386.03806   5181.04504  0.67093         3478.06338     19.26951  0.01033  58929.22928    2.6709  2.55637  1861549.43245  45.28245  19.40024     58996.18    51.26532       44.41268   37.11695  50.79161   79.5    0.13672  -21.55336  0.88295 
  -14.00882  0.14987  2.33397      14.0436   1.6606    1.123   10.6156  0.11643     0.07664   8924.69922   6297.61467   2.4585         2960.78184     20.55828  0.20091  58940.19118   5.04381  1.59091   687187.40382  45.91584   19.3608     58994.24    51.24599        44.4165    33.2099  48.83809   54.5    0.15998  -21.80376  0.95341 
  -20.10627  0.07459  3.22378     14.05119   1.6431  0.66026   7.57919   0.1414     0.35328  10520.02689   4923.14067  2.06053         2706.35199     18.77172  0.00328  58934.09373   5.00361  0.56536  1252620.40944  45.36996  19.36838  58991.62924    51.29018       44.48333   33.43278  43.03403   59.5    0.16697  -21.70081  0.96679 
  -23.56449   0.0088  2.74538     13.90548  1.72066  1.41426   8.34492  0.15811     0.29352   8940.13983   6725.85737  1.02536          2640.8699     17.10332    7e-05  58930.63551   3.97867  0.07342  1861027.78677  45.35758   19.3848     58992.18    51.27699       44.43762   34.19246  50.08845   56.0    0.14429  -21.63524  0.99702 
   -18.7749  0.01298  3.56695     13.94235  1.78228  0.97766   8.79608  0.09865     0.28643   9081.59364   7484.67919  2.47789         3051.28301      17.5188  0.00018   58935.4251   4.32753  0.11414  2745889.94667  44.97654  19.37052     58993.24    51.31979       44.50479   32.00839  46.41196   61.5    0.16732  -21.64845  0.99249 
  -19.05685   0.4016  2.65124     14.14648  1.77849  1.17126   11.9628  0.07223     0.23622    6621.3655    5835.7757  1.00275         4163.40302     18.82614  0.00372  58935.14315   3.12864  4.80424   591302.34782  45.90019  19.35884     58993.24     51.2894        44.5097   27.34933  42.97752   71.5    0.14405  -21.56794   0.8536 
  -17.74428  0.13013   2.7565     14.02307  1.66293  1.30196  12.31867  0.07766     0.11932   6389.81913   5159.63956  1.74255         3708.99863     17.08484    7e-05  58936.45572   3.00032  1.60308  1055042.51057  45.58573  19.39639     58992.18     51.2931       44.45543   34.19246  52.04197   61.0     0.1468  -21.54527  0.93569 
  -27.62317  0.00991  2.77072     13.80879  1.68449  1.47049   6.53328  0.16298     0.42229    9456.7165   5661.30036  0.02509         2083.98644     18.98497  0.00537  58926.57683   3.48529  0.06476  2896618.27483  45.14824   19.3661     58993.24    51.26242       44.43825   32.65347  47.44099   65.5    0.15288  -21.67173  0.99722 
  -23.10583  0.04364  2.57698     13.96208   1.6039  0.97004  10.27306  0.12224     0.17194   9012.25983   5533.81691  0.49185         3181.56678     17.61374  0.00023  58931.09417   4.97731  0.44829  1177727.91142  45.58076  19.38843     58994.24    51.22603       44.38286   36.31308  49.64195   56.5    0.14908  -21.63382  0.98249 
  -21.90825  0.00354  2.55667     13.55509  1.14187  1.49047   5.46318  0.20648     0.21575   8960.38519   5335.28548  4.44687         3029.85873      17.4538  0.00016  58932.29175   2.61653  0.01936  5377694.10015  44.78052  19.37803     58995.18    51.34941       44.52349   26.92269  49.26472   63.5    0.14698  -21.67502  0.99871 
  -20.24144  0.03341  2.63545      13.7031  1.26885  1.51228   7.42504  0.13888     0.09426   7080.48556   5108.29757  2.69892         3370.73831     17.01874    6e-05  58933.95856   2.22051  0.24807  3211739.75657  45.02381  19.37486     58993.24    51.28957        44.4805   34.19246   46.1814   62.0    0.13585  -21.57828  0.98543 
  -24.18849  0.18404  3.26951     14.33372  1.75155  0.25387    6.2672  0.09324     0.47483   8898.81261   3743.42711  0.35182         3687.95921     17.09611    7e-05  58930.01151    2.9605  1.15341   373900.94182  45.91054  19.40511  58994.30361    51.24665       44.38406   37.39635  50.79161   85.5    0.13212  -21.62674   0.9373 
  -22.34808  0.00838  2.56115     13.93425  1.76404  1.23227   8.02393  0.15228     0.21211   9017.16299   4640.46231  0.79512         2827.62875     20.32579  0.11763  58931.85192   3.89183  0.06723  1454407.46661   45.5358  19.41085     58993.24    51.30363       44.47962   33.68251  48.36548   57.0    0.15563  -21.73901  0.99772 
   -24.3438  0.00733  3.16507     13.73713  1.62047  1.55471    5.6164  0.13231     0.14431   7250.50357   5345.79078   1.4996         3605.85834     17.65043  0.00025   58929.8562   1.76125  0.04118   5057764.6836  44.77376  19.39585     58993.24    51.34855       44.52265   32.00839  46.41196   75.5    0.14106  -21.59806  0.99751 
  -23.54199   0.0032   2.5529     14.01712  1.72768  1.01636  11.61933  0.11416     0.05384   7968.02695   6113.67537  0.82453         3685.01397     19.49357  0.01731  58930.65801   4.40058  0.03723   966308.99135  45.70713  19.38212     58991.16    51.28533       44.33663   37.11936  64.46386   55.5    0.14307  -21.62682  0.99871 
  -16.68733  0.09959   2.2176     14.11794  1.80005  1.25632   14.0436  0.05547     0.05911   5342.89112   6037.02812  1.20424         4113.98175     19.27896  0.01056  58937.51267   2.39143  1.39865   477503.28244  46.15339  19.37374     58993.24    51.18181       44.33783   24.93033  55.16414   57.0    0.14846  -21.50356  0.96692 
  -20.77543  0.24579  3.24718      14.0759  1.97656  1.44399  13.57937  0.04984     0.18386   6483.89287   5205.69094  0.79243         4262.03621     18.07245  0.00066  58933.42457   3.40548  3.33763  1364354.70049  45.40682   19.3664     58991.22    51.25674       44.44724   33.42046  46.67401   74.0    0.15186  -21.53674  0.86674 
  -16.15549  0.29234  2.23749     13.99439  1.46577   1.4515  11.73436  0.12342     0.17675   7735.02122   5381.97074   1.7808         3478.07953     17.61026  0.00023  58938.04451   4.18803  3.43043   699227.58567  45.89077   19.3847     58994.24    51.28218       44.46977   31.69977   48.3947   62.5    0.12965  -21.59121  0.89566 
  -21.05231  0.29578  2.67188     13.92557  1.61301  1.44443  10.97282  0.06962     0.09959   6508.10167   4507.35429  0.77138         4071.43905     17.45551  0.00016  58933.14769   2.77239   3.2455  1506444.78264  45.44489  19.39803     58993.24    51.23973       44.36251   40.22013    53.549   74.0    0.14557  -21.54723  0.87928 
  -15.39281  0.01924   2.2128     13.97928   1.6517  1.25161  12.14216  0.09811     0.06791   6789.92269   5705.02261  2.31757         3357.07088     20.52391  0.18563  58938.80719   3.33928  0.23359   826173.31942  45.87982  19.37787  58992.25905    51.22303       44.39982   35.16342  46.88456   56.5    0.13866  -21.74797  0.99354 
  -19.54464  0.05156  2.67265     13.92971  1.42958  0.93035  10.47507   0.0893     0.14354   7330.84868   4776.78358  1.46606         3629.26101      17.6193  0.00023  58934.65536   3.35809  0.54009  1310637.11711  45.45269  19.38319     58993.24     51.1997       44.36828   36.31308  47.68843   59.5    0.15742  -21.57763  0.97325 
  -20.39456  0.36737  2.33384     13.89275  1.39927  1.45604  11.56137  0.06269     0.02866   5400.65579   5466.82024   1.2383          3903.4164     18.57646   0.0021  58933.80544   2.01154  4.24733  1159732.78008  45.61425   19.3822     58993.24    51.28678       44.46691   35.86658  48.13493   79.0    0.13292  -21.48761  0.85541 
  -21.33219  0.04837  3.05094     13.93154  1.67268  1.25817  16.45286  0.06509     0.14636   6631.03304   5369.39075  2.19953         3528.60083     17.80162  0.00035  58932.86781    4.3155  0.79576  1981607.24099  45.22637  19.37923     58995.22     51.2736       44.47122   34.19246  48.13493   64.0    0.12892  -21.57732  0.95988 
  -24.14231  0.01626  2.76717      13.8609  1.45536  0.71257   7.70399     0.09     0.09293    6899.2286   5562.00088  1.14143         3586.86529     19.33021  0.01188  58930.05769   2.18748  0.12526  1963613.13929  45.25469  19.40644     58994.24    51.37384       44.53322    33.2099  48.83809   79.0    0.13338  -21.57295  0.99327 
  -12.45637  0.29297  0.88464     14.02301   1.1225  1.16827  13.65468  0.17042     0.42258   12447.6105   6413.88307  0.54491         3463.90943     18.31742  0.00115  58941.74363  12.62062  4.00039    73370.61675  47.55998  19.38838     58995.18    51.33653       44.51663   33.43278  44.98756   48.0    0.17565  -21.73561  0.97381 
   -22.0922  0.18384  3.36886     13.96577  1.86069  1.45254   16.4951  0.04666     0.07477   6633.59969   5723.27746  1.24411         3824.08804     19.65437  0.02507   58932.1078   4.32993  3.03245  2295752.86338  45.12263  19.35654     58993.24    51.19725       44.35689   29.30285  48.83809   77.0    0.13452  -21.60264  0.85772 
  -21.92454  0.03581  2.89819     14.00622  1.81594  1.25127  15.48576  0.05896     0.10221   5884.33786    5398.8521  1.46558         3740.25245     18.90533  0.00447  58932.27546   3.19856  0.55458   1376359.8452  45.46496   19.3681     58993.24    51.25773       44.41002   34.17565  49.82586   62.5    0.13686  -21.51957   0.9774 
  -16.29184  0.41178  2.44927     14.09851  1.67333  1.31947   9.80627  0.08248     0.25409   5498.75579   4836.56821   1.5027         3855.42066     16.17987    1e-05  58937.90816   1.76872    4.038   592173.95743   45.9419  19.32917     58991.22    51.27291       44.49795   27.79401  42.50491   71.5    0.13278   -21.4817  0.88134 
  -16.33267  0.12242  2.14458     14.08843  1.67409  1.20324  19.52474  0.04129     0.07375   5848.67499   5980.52531  1.03527         4049.11651     19.10131  0.00702  58937.86733   3.98407  2.39019   475782.87113  46.15253  19.38072     58993.24    51.25409       44.42403   28.81382  48.83809   62.0    0.14641  -21.50237  0.94254 
   -19.2601  0.00349  3.33217     14.15891  2.01844  0.92296  12.60974  0.10353     0.05753   7339.28191   7062.62746  2.28121         3344.87407     17.56107   0.0002   58934.9399   4.05173  0.04406  1001063.63837  45.52794  19.36152     58991.16    51.20732       44.35606   35.16342  48.83809   58.0    0.13443  -21.56984  0.99793 
  -10.88348  0.33383  0.82963     14.23288  1.61273  1.03483  14.40809  0.04974     0.07059   4706.83299   6950.32285   1.2818         4164.08963     20.32694  0.11794  58943.31652   1.90411  4.80982    35269.18152  48.09124  19.37424     58995.18     51.2376       44.41919   34.35956  49.64195   63.5    0.15764  -21.60273  0.98588 
  -16.60051  0.37814  1.78109     14.20524  1.55863  1.11529  22.25723  0.03718     0.08708   6451.05557   5672.51976   0.8714         4694.68611     17.38939  0.00014  58937.59949   5.52535   8.4164   178424.63568  46.70876  19.42448     58994.24    51.22583       44.39135    30.7909  51.25709   87.5    0.13801  -21.59267  0.86106 
  -23.45679  0.10762  2.75053     13.84785  1.52434  1.17219   8.74995  0.13102     0.24683   9218.97976   6148.48103   1.0191         2735.89244     18.76081   0.0032  58930.74321   4.43607  0.94168  2157846.65453  45.23908  19.35731     58992.18    51.29744       44.46745   31.19986  46.94108   62.0    0.14815  -21.63588  0.95575 
  -19.84143  0.01022   2.8881     13.92007  1.57862  1.08754   9.99368  0.12028     0.20459   7877.53741    5461.9429  1.95844         3371.21208     18.86418  0.00406  58934.35857   3.69942  0.10218   1766730.1879  45.29873   19.3916     58993.24    51.29762       44.45003   33.15338  48.89461   59.0    0.14811  -21.61493  0.99478 
   -20.3408  0.00181  3.63222     13.92779  1.72525  0.91065   7.67991  0.07953     0.04862   5840.26756   3966.89768  3.31177         3547.28129     18.46936  0.00164   58933.8592    1.5626  0.01389  2947394.70067  44.91591  19.36509  58992.25905    51.29439       44.50144   29.00848  43.27189   71.5    0.15322  -21.56041  0.99899 
  -12.05268  0.44883  2.01801     14.08316  1.40715  1.38343  12.34677  0.10107     0.30025   8071.71682   5118.52289  1.62921         3593.81497     17.92797  0.00047  58942.14732   4.79857  5.54156   362817.77341  46.24765  19.41186  58992.25905    51.35461       44.51716   34.17565  45.91881   66.5    0.13884   -21.5864   0.8611 
