 log(Bfield)      Mns    Pspin  cutoff_power  cutoff_wavelength  fnickel    kappa  kappagamma   mejecta  log(nhhost)  temperature  texplosion  thetaPB      vejecta      A_V        MJD_0   log(KE)      M_Ni  Peak_mag     Peak_MJD 
    13.90304  1.72771  3.19522       2.23188         2648.56836  0.08518  0.09368      0.2969   9.69469     16.32117   3313.85636   -23.06445  0.97499   6993.85802    1e-05  58931.13555  52.28626    5.6434  19.39714     58994.24 
    13.78171  1.62709  2.75893       0.16494         2334.46988  0.15405  0.08454     0.17521   9.70877     20.05349   4769.09928   -22.48732  1.41755   7997.08702  0.06284  58931.71268  52.40282   10.2092  19.39695     58993.24 
    13.81555  1.77518  3.46891       3.34077         2426.36945  0.08252  0.02675     0.06527  30.60375     20.21222   4870.18777   -19.36954   1.5679   9329.69799  0.09056  58934.83046  52.63379   6.83921  19.39491     58993.24 
    13.71474  1.50468  2.82934       0.51934         3612.43402  0.00986  0.08838     0.09559   7.38666     17.98075   6132.92809   -21.83422  1.48117   6844.71448  0.00053  58932.36578  52.24096   0.61457  19.38148     58995.22 
    13.95018  1.99283  3.61928        0.3849         2964.44437  0.03621  0.02334      0.4048  32.21026     17.66679   9568.00055   -21.32071  1.03243   8538.35283  0.00026  58932.87929  52.56067   3.02765   19.3941     58993.24 
    13.80698  1.65603  3.23155       2.06756         2863.31841  0.05123  0.04566       0.091  18.50595     17.75481   5367.79269   -21.72958  1.52525    7244.4374  0.00032  58932.47042  52.37417   3.87326  19.38881     58996.24 
    14.07015  1.86213  3.18063       0.54361         3843.55225  0.42821   0.0836     0.08357  10.81859     19.51325   6839.53918   -18.13503  1.42284   7216.27519  0.01811  58936.06497  52.32373  29.04896  19.38151     58994.24 
    14.07313  1.60822  2.04685       0.34604          3857.2884  0.36912  0.09653     0.16176   11.6836     18.91029   5562.66486   -15.93216  1.43122   7175.01307  0.00452  58938.26784  52.32581  25.45099  19.38324     58995.18 
    12.55341   1.3865   3.4026       2.50757         3161.54334  0.30882  0.01415     0.24335  59.97565     18.68478   5510.10479   -24.70449  0.94975   8288.00388  0.00269  58929.49551  52.57917  28.59839  19.37916  58991.73932 
    14.12997  1.91122  3.01222       0.68883         4385.70005  0.46684  0.05116     0.03138  12.62268     19.04858   5166.25135   -16.64763  1.49181      5401.59  0.00621  58937.55237  52.08619  32.71039  19.37262     58994.24 
    13.64941  1.38968  2.87221       2.98806         3120.52048  0.01361  0.09656     0.46333   7.98941     17.61269    7968.2134   -23.92399  1.46139   5917.32875  0.00023  58930.27601  52.12234   0.86333  19.37919     58991.22 
    14.30907  1.94495  3.53422       4.34711         2466.82413  0.18875  0.03259     0.16838   37.7054      19.1803   5071.91482   -13.11357  1.00094   9333.17743  0.00841  58941.08643  52.64965  16.21279  19.37674  58991.73932 
    13.93428  1.73175  3.04551       0.46065          4809.3806  0.25766  0.05132     0.10003  11.18491     18.20552   7462.51835   -19.15853  1.53493   5987.94154  0.00089  58935.04147  52.16473  17.60349  19.37032     58993.24 
    13.89708  1.64842  2.88193       1.02789         3400.38274  0.00338  0.05459     0.16329  13.94027     19.90587   5648.12117   -22.32583  0.90526    6199.3267  0.04473  58931.87417  52.21465   0.24139  19.34361  58991.73932 
    12.28372   1.4787  2.24051       2.96473         3142.49595  0.30341  0.01338     0.10349  62.35494     19.62675    5237.0134   -24.34607  0.87869   7971.50745  0.02352  58929.85393  52.54798  28.26833  19.40476     58994.24 
    13.93584  1.46697  2.64703       0.60024         3596.74993  0.00388  0.05208     0.07491  14.27698     17.07521   3150.23838   -21.79344  0.70904   6329.20174    7e-05  58932.40656  52.23475   0.27883  19.39584     58996.18 
    14.46683  2.08993   1.3704       1.09953         2777.33622  0.23789  0.04896     0.09539  35.53813     18.06963   5646.96894    -9.96743  1.48283   9574.70629  0.00065  58944.23257  52.66749  20.22984  19.38756     58993.24 
     13.9439  1.97331  3.32496       0.76276         3500.13074  0.00933  0.05948     0.05117  10.99012     19.86813   4884.06421   -22.34548  1.04368   6295.11591  0.04101  58931.85452  52.20656   0.63538  19.39076     58993.24 
     14.1421  1.82075  3.04906       1.07142         2418.22882  0.41056  0.11692     0.15452   9.76593     17.54767   5133.48787   -18.89342  0.95441   8163.27401   0.0002  58935.30658  52.42125  27.24351  19.36555     58994.24 
    13.91351  1.64136  3.09953       1.14195         3295.70905  0.02502  0.06929     0.17752  10.14613     18.94644   5739.89293    -19.2393  0.97423   6718.48828  0.00491   58934.9607  52.25566   1.67386  19.41017     58994.24 
    13.94401  1.67009  2.77159       0.01394         4049.23366  0.21605   0.0669     0.21695  16.49517     16.99439   6964.95198   -21.93882  1.42207   8034.01463    5e-05  58932.26118  52.45436  15.97442  19.38715     58995.22 
    14.18157  1.83827  2.48481       0.49762         3861.51542   0.1364  0.02962     0.21588  35.80237     16.28384   3459.82608    -14.6259  1.39706    7335.6743    1e-05   58939.5741  52.43667  11.61373   19.3715     58994.24 
    13.76772  1.64748  2.86167       0.28681         2495.53148  0.00245  0.14546     0.21008   5.73157     18.28023   6461.19464   -26.38627  1.38491   7332.12028  0.00106  58927.81373  52.27436   0.14343  19.41031     58996.24 
    14.25783  1.95282  3.25328       3.45501         2984.37867  0.49493  0.12328     0.13852  11.49529     20.13425   6838.39706   -11.75033  1.07559   9343.01493  0.07568  58942.44967  52.55365  34.00959  19.37811     58993.24 
    14.08537  1.74394  3.69247       1.73689         3030.61797  0.49824  0.16696     0.49439    4.5176     16.50466   3496.03264   -19.05798  0.61431   8625.81847    2e-05  58935.14202  52.38923  27.50702  19.34644  58992.25905 
    14.04322  1.90721  3.53624       4.14198         2481.31812  0.01598   0.1087     0.28047   7.82732     19.04622    5477.6984   -19.26452  0.67401   8352.51776  0.00618  58934.93548  52.41969   1.00934  19.35858     58993.24 
    14.09013   2.0493  3.71886       0.80146         2228.16354  0.12318  0.02946     0.07615   33.8549     16.26555   4969.86134   -17.23335  1.52565   9366.46361    1e-05  58936.96665  52.64479  10.38898  19.40576     58994.24 
    13.92997  1.50813  3.20053       1.22898         2765.86652  0.46812  0.08627     0.29941  10.43642      19.3586   5907.69961   -16.90853  1.25329    8935.7207  0.01269  58937.29147  52.50602  31.51296  19.40115     58994.24 
    13.85535  1.81339  3.69001       2.92296         2471.14094  0.15287  0.03876     0.18804  20.28236     17.58577   5928.57485   -20.39991  1.45025   8066.48034  0.00021  58933.80009  52.47507   11.7596  19.41379  58991.73932 
    13.94146  1.83557   3.1735       0.82205          3108.5431  0.00193  0.19094     0.39869   3.84215     19.96996   9813.35762   -24.06127  0.77629    7146.3545  0.05184  58930.13873  52.20698   0.10225  19.41422  58992.25905 
    13.95532  1.51753  2.93554       0.76852         2952.52165  0.02472  0.04617     0.10918  16.92401     17.98963    4386.3773   -21.95426  0.60901   7924.98755  0.00054  58932.24574  52.44467   1.83718  19.37216  58991.73932 
    13.84069   1.7173  3.39854       2.89654         2809.32911  0.04186  0.04907     0.10385  17.38303     16.87814   3802.36878   -22.03158  0.99251   7904.71995    4e-05  58932.16842   52.4447   3.12655  19.38672     58993.24 
    13.79169    1.566  3.04365       2.18455         3134.57592  0.01925  0.14152     0.14485   6.67455     16.45851   5066.06513   -21.72822  1.50349   6829.24025    2e-05  58932.47178  52.22866   1.17113  19.42869  58991.73932 
    14.20903  1.82161  3.31622       0.10991         3702.51405  0.11192  0.06586     0.46226  10.91952     17.47801   4445.77113   -24.01528  0.40689   8313.94983  0.00017  58930.18472  52.44757   7.60731  19.37503     58993.24 
    12.55881  1.36647  2.50502       3.54513         3033.18467  0.34344  0.01543     0.15938  47.65312      19.1463   3964.34037   -19.98394  1.53814   8699.95762  0.00778  58934.21606  52.60542  30.66256  19.39067  58992.25905 
    12.58241  1.29494  2.12922       3.20722         2994.78638  0.37916   0.0168     0.17907  42.10528     19.30234   4054.97732   -21.54227  1.47444   8458.55732  0.01114  58932.65773  52.57218  33.17305  19.37907  58991.73932 
     13.8143  1.62271  2.79563       1.64715         2468.52907  0.00748  0.15654     0.30715   7.04049      18.5245    4374.5026   -24.26522  1.22354   7142.86853  0.00186  58929.93478  52.27313   0.46098  19.37067  58991.73932 
    14.17128  2.00683  3.47403       0.05873         4029.16407  0.23133  0.08856     0.09598  10.19451     17.53306   6541.53754   -24.93825  0.59836   7884.37652  0.00019  58929.26175   52.3951  15.49401  19.39047  58990.25071 
    14.05162  1.76965  2.70845       0.34497         3850.59493  0.25058  0.06771      0.2888  14.43051     17.27274   4032.50224   -19.41887  1.36453   6999.76571   0.0001  58934.78113  52.32315  18.04256   19.4027     58993.24 
    13.71978  1.41293   2.7921       1.14678          2948.6421  0.12332  0.06511     0.24818  11.46181     17.85803   3115.73239   -20.43316  1.40393   6907.73416   0.0004  58933.76684  52.29109   8.46855   19.3921     58994.24 
     12.4032  1.33633  3.01933       3.33724         2922.77211  0.37395  0.01713     0.16117  52.49867     19.71869   3660.77825   -23.29707  1.17041   9083.80943  0.02907  58930.90293  52.64968  33.91043  19.41903     58994.24 
     12.3506  1.30322  3.45691       3.34855         3001.88691  0.37782  0.01645      0.1246  47.91296     19.77391   3902.04344   -21.97698  1.45842   8699.71051  0.03301  58932.22302  52.60578  33.76193  19.38873     58994.24 
    13.82375  1.70441   3.2901       3.17795         3014.61776  0.00211  0.07424     0.05503  11.40379     17.66516   4411.50506   -22.94668  1.36546   6157.09159  0.00026  58931.25332   52.1907   0.14481  19.41328  58991.73932 
    13.85178  1.66253  2.93721       1.26124         3540.64473  0.03814  0.11654     0.08347   6.51119     18.21448    6155.8246   -22.40758  1.55635   5269.49097  0.00091  58931.79242  52.00088   2.30752   19.3459     58993.24 
    13.97759  1.88057  4.04126        3.6884         2926.30429  0.16334  0.03936     0.18168  20.52677     16.66619   6355.97742   -22.87402   0.8816   7121.40743    3e-05  58931.32598  52.36781   12.5936  19.39942     58993.24 
     14.0924  1.70032  3.26839        1.8018         2323.12191  0.47507  0.09352     0.26373  12.54427     18.97769   5016.70865   -17.93826  0.95437   9167.97769  0.00528  58936.26174  52.54514  33.24465  19.41246     58993.24 
    14.14495  1.75077  3.24384       1.93858         3156.55242  0.48361  0.09683     0.22572  14.34716      17.1603   5207.11659   -15.75045  1.25322   8865.61699    8e-05  58938.44955   52.5279  34.78143  19.39841     58994.24 
    13.88804  1.88632  3.41557       0.49245         3303.55357  0.04809  0.07051     0.06602  11.93251     17.98305   9277.34996   -22.17827  1.29282   8135.08044  0.00053  58932.02173   52.4368   3.33054  19.37838     58993.24 
    14.36724  1.96026  3.73699        3.9269         2719.33232  0.16712  0.02456     0.31898  46.34476     19.46154   5782.58525   -11.71991  0.95441   8965.21478  0.01608  58942.48009  52.62954  14.85356  19.38935     58994.24 
    14.17559  1.89516  3.49365       2.97219           2897.061  0.23784  0.05831     0.17347  18.76372     19.41012   6696.30492   -14.53652  1.11227   7871.49745  0.01428  58939.66348  52.44742  18.02847  19.38296     58994.24 
    12.96972  1.50155  3.87217       2.65877         3060.47144   0.2778   0.0138     0.38739  65.35444     17.80356   4882.70029   -25.79016  0.81189   8563.79654  0.00035  58928.40984  52.61339  26.07162  19.34734  58991.73932 
    12.59644  1.25256  3.07531       3.33287          2974.7362   0.4313  0.02177     0.24716  41.62187     18.52727   3756.07613   -21.72822  1.52813   9401.34921  0.00187  58932.47178  52.66314  37.66245  19.40544     58994.24 
    14.15432   1.5381  2.00689       1.68453         3511.19667  0.48455  0.13962       0.365   8.27617     19.31125   3755.52406   -13.32618  0.89845    5565.0619  0.01138  58940.87382   52.0725  30.99351  19.42553  58990.25071 
    14.10472  1.72853  3.21883       0.24403         4565.92045  0.41914   0.0536     0.48443   14.7554     19.03293   3737.16356   -20.52575  0.89892   7322.77573  0.00599  58933.67425  52.36427   30.3146  19.38213  58995.00235 
    14.08108  1.72597  1.74894       0.04843         2694.98916  0.27582  0.04533     0.27593  30.82537      20.6086   4694.82866    -16.0299  1.54759   9708.16175  0.22559   58938.1701  52.66888  22.88756   19.3657     58993.24 
    13.92411   1.8021  3.61089       4.55099         2860.77451  0.04103  0.02299     0.17366   44.9995     19.46548   3478.42289   -20.10535  1.50631   7855.97614  0.01623  58934.09465  52.51273   3.62937  19.37588     58993.24 
    13.77189  1.57253  3.24777       2.63232         3231.80806  0.00136  0.10552     0.08094   6.10883     19.03563   4675.66699   -21.42035  1.07527   6505.86453  0.00603  58932.77965  52.17728   0.08097  19.39778  58991.73932 
    14.18357  1.51249  1.39837        0.2926         3976.02493  0.49782  0.11749       0.388  11.11293     18.63278   6446.46215   -12.10238  1.17749   8052.72276  0.00239  58942.09762  52.42146  33.96447  19.37767     58992.18 
    14.23747  1.86394  3.48151       1.80807         2979.48465  0.26933  0.04228     0.05575  28.27249     16.82189   3713.54628   -15.54244  1.12389   8352.35829    4e-05  58938.65756  52.53163  22.01227  19.37987     58993.24 
    14.07232  1.36652  1.96971        3.7813         2444.73896  0.14564  0.04134     0.05507  36.50117     18.88454   4325.50458   -11.32062  1.18477   8936.73422  0.00426  58942.87938  52.60957  12.44149  19.38854     58994.24 
    14.16574  1.94121  4.48964        1.6393         3142.71718  0.48619  0.05727     0.09816  13.37612     17.83347   4487.70392   -18.27818  0.83581   7804.22813  0.00038  58935.92182  52.41097  34.47438   19.3731  58992.25905 
    13.84237  1.80311  3.35923        1.3035         2740.93475  0.07205   0.0772     0.16334  11.82255     17.06736   4637.42653   -22.00331    1.262   8417.97277    6e-05  58932.19669  52.46565   4.97995  19.36621     58993.24 
    14.00835  1.60345  2.63175       0.25522         2298.06174  0.46615   0.1015     0.29411  10.27787      18.4046   4216.07361   -17.98123  1.25706   8192.13805  0.00141  58936.21877  52.42912  31.27706  19.40984     58996.24 
    13.97214  1.90994  3.60641       3.57553         2806.02897  0.00194  0.13834     0.11668   5.81283     18.16783   3989.48106   -21.49885  0.89103   6671.67298  0.00082  58932.70115  52.19387   0.11438  19.36512  58990.25071 
    13.83659  1.84087  3.10699       0.04201         3878.29103  0.02601  0.08182     0.37089   8.76435     17.31287    7121.7766   -22.94275  1.52961   7369.37875  0.00011  58931.25725  52.32201   1.68525  19.38846  58992.25905 
     13.6506   1.3937  2.90285       2.10289         3175.12902  0.04123  0.05993     0.45336  12.35863     18.87694   3159.60192   -22.60308  1.34264   6577.26255  0.00418  58931.59692  52.25534   2.87639  19.41183  58995.00235 
    14.17228  1.55973  2.16319       0.13786         3944.69936  0.29689  0.03111     0.11811  32.58499     20.02009   5154.73876   -16.99837  1.00689   8143.14974  0.05819  58937.20163  52.52037  24.87441   19.3987     58992.18 
    13.84814  1.46103  2.90001       0.14555         2894.61992   0.4797  0.17168     0.14789   2.39511     18.34305   3481.71046   -19.07473  0.49663  10189.78374  0.00122  58935.12527  52.45501  22.08141  19.39311     58991.22 
    14.29804  1.96551   2.0698       1.19422         3378.61037  0.23792  0.05349     0.11176  25.32461     18.98254   5198.32757   -12.28904  1.52215   7032.39458  0.00534  58941.91096  52.37367  19.06651   19.3599  58992.25905 
    14.20163  1.77721   3.2339       2.80059         2996.32403   0.2295  0.04844     0.17136  24.55496     17.85712   4563.62206   -12.09567  1.12225   7955.34915   0.0004  58942.10433  52.47836  18.28937  19.39755     58994.24 
    13.90792  1.64549   3.2027       2.04656         2702.91664  0.21482  0.08011     0.34691   13.4818     16.73464   3866.01769   -19.75363  1.34689    7883.9904    3e-05  58934.44637   52.4205  15.25645  19.40402     58995.18 
    14.19172  1.47649  1.43463       2.39744         2474.27414   0.1247  0.02929     0.08564  53.20674     19.66433    5899.2854    -8.92791  1.38466    9408.9069  0.02565  58945.27209  52.68115  11.33178  19.38891     58995.22 
    14.08552  2.03513  3.46919       0.48692         3627.70929  0.41623  0.08424     0.05975  11.08283     18.55994   5780.09114   -20.44558  1.45833   7004.64211  0.00202  58933.75442   52.3001  28.38139  19.41647     58997.17 
    14.16228  2.07244  4.22275       3.73828         2813.63987   0.2354  0.04563      0.1764  22.12381     19.94751     7162.962   -14.62096  1.23168   8756.23467  0.04923  58939.57904  52.55338  18.40484  19.39281     58994.24 
    13.81703  1.44859  2.08128       0.43977         4136.98472  0.01241   0.0529       0.022  13.17339     19.32116   4932.53521   -21.61414  1.26144   4853.37615  0.01164  58932.58586  51.99705    0.8775   19.4164     58996.24 
    13.63094  1.36095  2.44725       0.30023         4069.14322   0.0175  0.03772     0.03517  15.43006     17.81118   4703.12358   -23.08338  1.54003    6228.6673  0.00036  58931.11662  52.22758   1.27716  19.36256     58992.18 
    14.16773   1.6872  3.02114       2.21202         2862.84988  0.30227  0.04857     0.14683  25.30088     19.66009   6196.53164   -13.19021  1.30532   8892.31496   0.0254  58941.00979  52.57742  24.21914  19.39277     58995.18 
    13.79305  1.60367  2.93732       1.40311          3256.8395   0.0042  0.08667     0.15134   9.20322     19.11113   5619.14907   -23.13757  1.38365   5944.48896  0.00718  58931.06243  52.14009   0.27516  19.38199     58994.24 
    13.73359  1.47348  2.62721       0.17054         2814.75928  0.00974  0.10441      0.3673    9.3818      16.9141   3834.68151   -22.47085  1.53972   8111.18384    5e-05  58931.72915  52.41187   0.64076  19.41881     58994.24 
    14.25263   1.6955  2.29003       3.42516         2592.54969  0.20502   0.0482     0.09386  32.76387     19.58348   5914.47979     -9.2454   1.1504   9627.14068  0.02129   58944.9546  52.66619  17.19368  19.34185  58992.25905 
    14.02773  2.05674  3.23092       0.21151         2869.10106  0.00747  0.08986      0.4523   9.71259      19.1689   6397.91382   -24.79607  0.90208   6958.62886   0.0082  58929.40393  52.28205   0.49477  19.35945  58990.25071 
    14.12171     2.05  4.03088       1.70279         3229.89624  0.39514  0.07067     0.07131  13.95261     18.16828   3931.01685   -18.87606   1.4289   7246.18789  0.00082  58935.32394  52.35026  28.25954  19.33377     58993.24 
    14.16401  1.82544  1.97308       1.73382          3100.6205   0.1799  0.03844     0.19812  42.85799     20.71928   5594.35871   -11.63604  1.47934   10010.4731  0.29108  58942.56396  52.71977   15.7852  19.36044     58993.24 
    14.25042  1.52999  2.32928       3.59538         2874.46598  0.18397  0.03967     0.18839  38.05395     17.64764   6342.05408    -8.04087  1.02723    9664.8732  0.00025  58946.15913  52.68066  15.82674  19.37409     58991.22 
     13.9865  1.58402   2.6434       0.01128         3993.43315  0.38273  0.07438     0.18296   13.9207     17.11175   5472.05985   -20.16162  1.33458   8076.84073    7e-05  58934.03838  52.44432  27.35918  19.37649     58993.24 
