 texplosion  fnickel    Pspin  log(Bfield)      Mns  thetaPB   mejecta    kappa  kappagamma     vejecta  temperature    alpha  cutoff_wavelength  log(nhhost)      A_V         MJD0  kenergy  mnickel             TSD   log(L0)  Peak_mag     Peak_MJD  log(E_rad)  log(Peak_lum)  Rise_Time     E_fold  tau_1  delta_m15     r_peak     frac 
  -35.95168  0.01311  2.48944     13.72664  1.81356  1.08157  19.04571  0.08687     0.21672  3581.98018   3600.22834  3.13616         3021.20696      16.7604    3e-05  55705.64832  1.45771  0.24967   3675087.88964   45.1699  21.57896  55841.18431    51.45177       44.34478   68.97023   93.39719  119.5    0.04317   -21.5026  0.99216 
   -30.7147  0.00922   1.6174     13.65988  1.51438  1.05862  23.22637  0.10285     0.01373  4078.00909   7873.97369   2.4945         3004.75922     20.44611  0.15518   55710.8853  2.30412  0.21417   1761671.63272  45.78552  21.60344      55836.5    51.41278       44.35109   64.65959   86.21279   98.5    0.04147   -21.7289  0.99634 
  -35.76871  0.06407  1.82748     13.61354  1.47317  1.24038  11.49637  0.29524     0.01535  5163.38172   7753.27677  2.18828         2921.46623     16.42087    1e-05  55705.83129  1.82834  0.73663   2708328.53119  45.48069  21.63104  55844.05376     51.4596       44.42197   74.97181    81.6481   78.0    0.04731  -21.66458   0.9834 
  -32.10429  0.00543  2.01498      13.8034  1.82815  1.10689   22.8815  0.10583     0.01528  3561.69466   6955.03734  2.90375         3100.25062     19.79271  0.03447  55709.49571  1.73151  0.12435   1704409.98528  45.69074  21.58928  55841.18431    51.47101       44.35206   73.28087   96.27095  109.0    0.03651  -21.54927  0.99751 
  -32.10339  0.00416  2.06969     13.83016  2.05053   1.2269  13.58365  0.29499     0.01026  4769.62278   7100.34744  2.90537         2879.96793     18.53997  0.00193  55709.49661  1.84337  0.05654    1783113.1647  45.69772  21.60511  55841.18431    51.43881       44.35719   71.84399   93.39719   84.0    0.03983  -21.67067  0.99899 
  -40.39116  0.00216  2.31397     13.60205  1.70704  1.54953  11.31459  0.20095     0.06625  4774.86935   5572.92825  2.12182         2971.88506     16.34228    1e-05  55701.20884  1.53882  0.02444   5304881.29206   45.0477  21.63611  55844.05376    51.40396       44.35115   74.10105   85.39261  111.5    0.04521  -21.62936  0.99927 
  -37.92652  0.00146  2.23314     13.65335  1.74882  1.39071  32.69826  0.07093     0.04197  4195.08003   3659.93152  2.62559         2953.70587     19.04247  0.00613  55703.67348  3.43267   0.0477   3996631.82236  45.21207  21.60488  55838.31486    51.43549       44.36997    62.1637   84.39805  112.5    0.04013  -21.59242  0.99872 
  -35.65569  0.01193  1.84318     13.56611  1.48669  1.31238   11.1333  0.28472     0.02626  4726.72811    5973.2123  4.53463         2711.65707     19.71671  0.02894  55705.94431  1.48379  0.13287    3459028.5845  45.37098  21.64615  55841.18431    51.42302       44.33164   77.96101   94.46457   99.0    0.03893  -21.69587  0.99694 
  -31.90971  0.00182   2.0005     13.71996  1.77128  1.27081  14.67429  0.21141     0.01526  4501.94765   6589.92873  2.41395         3055.39301     19.21198  0.00905  55709.69029  1.77413  0.02667   2390364.17003  45.53639  21.58545  55838.31486    51.46601        44.4162    63.7661   85.66941   94.5    0.03881  -21.66515  0.99944 
  -43.66269  0.00469  2.00753      13.7714  1.65331  0.70961   12.3853  0.27246     0.02064  4916.65672   6941.73035  2.36225         2915.63434     17.16961    8e-05  55697.93731  1.78597  0.05806   1772959.26074  45.63318  21.64858      55839.4     51.4436       44.36439   64.65959   89.08655   93.5    0.03843  -21.69153  0.99864 
  -47.44854  0.41167  2.22802      13.6634  1.54251  0.66862   9.18202  0.26203     0.01984  5275.25591   6974.43003  2.16613         2838.10987     19.19238  0.00865  55694.15146  1.52424  3.77993   3350213.29831  45.23616  21.54957  55841.18431    51.44272       44.36216   71.84399   91.96031   89.0    0.05065  -21.73207  0.88862 
   -30.3368  0.00189  1.21137     14.03055   1.5287  0.30437  43.80879  0.04072     0.08472  3933.79593   6284.11522  1.61812          3192.9407     20.93734  0.48091   55711.2632  4.04401  0.08289    180961.98421  47.02903   21.6012  55838.31486    51.51317        44.4155   67.53335   89.08655  113.0     0.0453  -22.09236  0.99922 
    -40.419  0.41567   2.3545     13.84559  2.02471  0.89035  12.14772  0.33474     0.01134  5268.99157   6994.65796  3.52513         2710.96657     19.35229   0.0125    55701.181  2.01176  5.04947   2122279.25351  45.50461  21.64666  55841.18431    51.50249       44.42685    63.7508   88.55846   85.0    0.04675  -21.74337  0.89272 
  -39.48537  0.00235   2.2655     13.55473  1.68341   1.3686  12.57424  0.18785     0.01019  4762.26307   7575.38815  3.21305         2837.95247     18.94781  0.00493  55702.11463  1.70112  0.02958   6235377.37238  44.98985  21.59266      55839.4    51.41723       44.35212   64.65959   87.64967   82.5    0.05333   -21.6767  0.99912 
  -27.90805  0.06533   2.1783     13.89819  2.10343  1.22719  40.71681  0.05757     0.43328  3739.00273   6539.06923    2.253         3298.89284     20.02465   0.0588  55713.69195  3.39557  2.66014   1481130.62325  45.74495   21.6058  55844.05376    51.40455       44.36591   74.53643   82.08348  108.5    0.03889  -21.63013  0.95204 
  -32.36513  0.02313  1.96913     13.65167  1.50799   1.2643  39.88679   0.0442     0.24338  3401.75252   3021.17547  2.38692          3251.2761      18.9466  0.00491  55709.23487  2.75335  0.92239   2700329.94005  45.42728    21.656      55834.3    51.42643        44.3586   63.22271   84.77591  110.5    0.04415  -21.49325  0.97685 
  -36.34105  0.00322  1.89628     13.58536  1.54233   1.2644    32.879  0.04573     0.02175  3376.36314   4449.55551  2.30717          3150.7396     20.43647  0.15177  55705.25895  2.23586  0.10592   3476022.38997  45.36014  21.61602      55839.4    51.41709       44.35393   62.32922   88.54317  119.0    0.04571  -21.61376  0.99755 
   -40.2789  0.01148  2.33608      13.5382  1.60174  1.23236  15.09607  0.12131     0.03028  4283.43739   3965.40318  4.59047         2705.40176     18.08936  0.00068   55701.3211  1.65225  0.17334   6807547.84345  44.90347  21.59964      55839.4    51.43623       44.35094   66.09647   89.08655  124.5    0.04335  -21.57731   0.9941 
  -24.98446  0.01032  1.91495     13.79801  1.76028   1.3853  29.48654  0.07742     0.15497  3340.74072   5769.35102  3.20606         3100.18235     17.59208  0.00022  55716.61554  1.96307  0.30435   1519471.22277  45.76842  21.62892  55841.18431    51.43917       44.34625   67.53335   93.39719  107.0    0.03947  -21.45971  0.99423 
  -31.97716  0.08053   2.3067     13.77195  1.82976  1.30316  15.30053  0.16512     0.05206  4412.26481   6181.96342  3.87498         2786.93397     18.97328  0.00522  55709.62284  1.77687  1.23208   2584037.63691  45.39296  21.58657  55838.31486    51.38984       44.34706   58.91207   84.77591  104.5    0.04212  -21.56866  0.96851 
   -44.9613  0.11231  2.73316      13.7611  2.15833  1.35491  12.28516  0.20994     0.01079  4585.32104   8047.51765  2.78845         2831.78448     17.57225  0.00021   55696.6387   1.5408  1.37976   4498536.91546  45.07656  21.62234  55844.05376    51.40956        44.3684   75.97331   82.08348   83.0    0.04843  -21.59567  0.96092 
  -31.63111  0.14685  2.11045     13.70116  1.60096   1.3105  19.79874  0.11316     0.25801  4056.39129   5020.60317  2.70741         3026.41973     17.06232    6e-05  55709.96889  1.94332   2.9074   2621981.29211  45.40584  21.62425  55841.18431    51.39537       44.36664   74.97181   78.77434  110.0    0.04272  -21.54604  0.92731 
  -42.26652  0.20541  2.26068     13.57574  1.52811  1.46369  17.73454  0.10344      0.0965  3790.69493   6624.49352  2.78231         2984.78485     18.03217   0.0006  55699.33348  1.52014  3.64284   5116454.01127  45.03555  21.61138  55844.05376    51.45786       44.36501   70.40711   96.27095  124.5    0.04091   -21.5127  0.89054 
  -48.86273  0.01273  2.33205     13.44095   1.6394  1.29736  13.90381  0.11278     0.01045  4164.50998    4554.7085  2.73747         2883.05441     18.06202  0.00064  55692.73727  1.43843  0.17696  10866304.80524  44.71197  21.58884  55841.18431    51.43275       44.35241   64.65959   93.39719  108.5    0.04418  -21.58258  0.99403 
  -32.92251   0.0135  2.13644     13.93638  1.72877  0.64706  13.04597  0.22461     0.17619  5231.78581    7407.3506  2.77247         2857.20714     17.91495  0.00046  55708.67749  2.13012  0.17607    982134.79745  45.85503  21.60433      55839.4    51.40654        44.3522   63.22271   90.52343   92.5    0.04783  -21.65843  0.99568 
  -35.86548  0.00769  2.46948     13.71833  1.85939  1.42034  39.89307  0.04624     0.09363  3664.11668   4251.72245  3.11668         3025.89929     18.68401  0.00268  55705.73452  3.19494   0.3069   3852379.13227  45.16727  21.59971      55839.4    51.38785       44.35574   67.78741   83.08498  115.0    0.04462  -21.50816  0.99094 
  -34.66603   0.0372  2.43399     13.75142  1.80314   1.1129  21.40539  0.08233     0.16441  3649.54549   3991.49354  2.84504          3099.4638     17.38962  0.00014  55706.93397   1.7007  0.79623   3116275.17553   45.2586  21.63337      55839.4    51.42511       44.35151   70.40711   91.96031  115.0    0.04542    -21.511  0.97644 
  -33.52599  0.00918   2.1353     13.73143  1.72435  1.05057  46.01294   0.0291     0.03667  3012.96413   4146.32494  2.33356         3281.78931     20.36221  0.12792  55708.07401   2.4917   0.4224   2514738.20426  45.44606  21.60359  55841.18431    51.44087       44.34492   66.09647   96.27095  118.5    0.04542  -21.52882  0.98963 
  -39.56574  0.00823   2.3273     13.95354  1.91762  0.61137  17.49678  0.15955     0.06337  4078.60378   5717.17149  4.95042         2720.60092     17.07622    7e-05  55702.03426  1.73623  0.14403   1194546.12329   45.7407  21.63793      55836.5    51.46739       44.34977   69.51362   94.29068  116.0    0.03551  -21.57184  0.99638 
  -40.86214  0.02823  2.20231     13.70354  1.46795  0.60141   17.3901  0.09722     0.07668  4259.91432     4178.111   3.0995         2872.08136     16.21552    1e-05  55700.73786  1.88248  0.49088   2589435.03218  45.33659  21.62164  55841.18431    51.40744       44.35932   67.53335   87.64967  130.0    0.04527  -21.57659  0.98325 
   -37.9081  0.06586  2.17365     13.58028  1.62134  1.31975  10.23893  0.26771     0.01247  4816.74897   7409.01374   4.3477         2710.24496     16.67633    3e-05   55703.6919  1.41706  0.67437   4914902.44663  45.11283   21.6331  55841.18431    51.45366       44.35724   67.53335   90.52343   83.5    0.04928  -21.65863  0.98109 
  -37.71102  0.01562  2.27499     13.69475  1.73675  1.08757  16.28065  0.13627     0.08786   3926.4904    4154.0148  3.18672           2926.181      17.7818  0.00034  55703.88898   1.4973  0.25435    3404127.7889  45.26262   21.5837  55841.18431    51.42477       44.35324   73.28087   90.52343  118.5    0.03866  -21.55224  0.99291 
  -29.14735  0.03309  2.14889     14.18546  1.98532  0.49104  33.14157  0.06509     0.01025   3365.3105   4152.20372   2.2906         3330.34969      16.5781    2e-05  55712.45265  2.23898  1.09677    362368.79997   46.3431  21.59993  55841.18431    51.45519       44.34669   71.66267   96.45227  107.0    0.03997  -21.48023  0.97845 
  -29.56607  0.00278  1.75132     13.68534  1.62826  1.52654  22.66792  0.14747     0.27657   4196.5357   7248.82216  3.06379          2984.1384     17.06442    6e-05  55712.03393  2.38134  0.06306   1975132.64208  45.69824  21.59689  55849.79265    51.42184       44.37607   78.97782   81.95273  104.0    0.03119  -21.60614  0.99887 
  -35.17103   0.0044  2.36612     13.67602  1.78466   1.4049  34.35998  0.05295     0.01543  3860.82937   4443.94112  2.71435         3041.42245     19.54253  0.01938  55706.42897  3.05521  0.15114   4124819.14022  45.15692  21.65023      55839.4    51.42689       44.34218   63.22271   94.83407  114.5    0.04392  -21.55467  0.99561 
  -36.41996  0.35044  2.19296     13.62185  1.62403  1.32734  10.07829  0.28689      0.0774  5117.65078   5075.99578  3.97727         2710.85124     19.57194  0.02073  55705.18004  1.57455  3.53179   4137747.80762  45.18061   21.6253  55846.92321    51.45351       44.35235   81.90215   96.27095  109.5    0.04005  -21.72816  0.90755 
  -47.61968  0.01031  2.03094     13.63613  1.65335  0.88698  11.24772  0.29064     0.01126  4858.26495   6919.43349  2.22667         2853.58369     16.56319    2e-05  55693.98032  1.58363  0.11601   3383156.70619  45.34249  21.57817  55838.31486    51.48991       44.42502   61.78583   86.21279   85.0     0.0497  -21.67188  0.99719 
  -30.95069  0.01244  1.85745     13.78063  1.60323  0.88012  24.12911  0.10637     0.05516  3904.03697   5022.42938  2.74913         3007.63896     19.65612  0.02517  55710.64931   2.1938  0.30009   1410533.83801  45.78662  21.64826      55839.4    51.44185       44.34919   66.09647   94.83407  109.0    0.03993  -21.56254   0.9938 
  -39.35862  0.02367  2.40168     13.65948  1.78932  1.10055  11.16572  0.20918     0.01103  4733.25656   7675.79801  3.04259         2814.72678     19.06445  0.00644  55702.24138  1.49222  0.26433   4598155.13791  45.09792  21.59294  55844.05376     51.4388       44.37003   68.97023   90.52343   81.5    0.05266  -21.63528  0.99206 
  -31.50423  0.00224  1.91525      13.9065  1.72129  0.75221  33.02076  0.07523     0.03245  3710.13471   5636.34191  2.44823         3205.12195     16.54385    2e-05  55710.09577   2.7114  0.07403     901830.7823  45.98512  21.58311  55838.31486     51.4825       44.35702   71.84399   96.27095  106.0    0.03907   -21.5307  0.99854 
  -21.59872  0.03274  1.72242     13.93775  1.90916  1.37585  66.39634  0.03317     0.02542  3049.68984    3102.3599  2.71318         3231.44083     16.72367    3e-05  55720.00128  3.68369  2.17367      700552.657  46.23197  21.59469      55839.4    51.41887       44.33424   66.09647   91.96031  108.0    0.03524  -21.38479  0.97137 
  -30.10327  0.00114  2.32586     13.76324  1.82684  1.40749  44.12549  0.03011     0.12395  2722.71837   4524.72317  2.71063         3299.56304     18.83074  0.00376  55711.49673  1.95129   0.0504   2730275.81489  45.36117  21.62674  55841.18431    51.44248       44.35229   64.65959   93.39719  113.0    0.04409  -21.39722  0.99865 
  -28.79249  0.12179  2.11615      13.9066  1.88481  0.80989  11.70882  0.27092     0.17685  4721.45353   6464.67811  3.92058          2746.5402     19.86623  0.04083  55712.80751  1.55701  1.42607   1204964.74577  45.81205   21.5824      55839.4    51.42934       44.34037   66.09647   91.96031  106.0    0.03996  -21.67408   0.9707 
  -46.53743  0.31046  2.20662     13.52043  1.57267  0.92298   8.81472  0.27994     0.01099   4940.6074   7297.08745  4.45655         2701.68765     18.86111  0.00403  55695.06257   1.2835  2.73665   6472289.33025  44.96697  21.60136      55839.4    51.52132       44.44074    63.7661   88.54317   84.0    0.05749  -21.68692  0.91961 
   -42.8675   0.2088   2.4431     13.66679  1.76301  1.19884  18.38537  0.13088      0.0165  4385.47073   5284.99359  3.14809         2826.48952     18.01849  0.00058   55698.7325  2.10927  3.83893   4532828.13834  45.08285  21.62087  55841.18431    51.44242       44.35012   70.40711   94.83407  111.0    0.03781  -21.61286   0.8909 
  -32.50748  0.32867  2.47573     13.82561  1.67558    0.908  18.69516   0.0979     0.13223  3861.21671   4201.15302  2.82697         3091.45402      17.0256    6e-05  55709.09252  1.66266  6.14447   2128984.70939  45.37743  21.63118  55844.05376    51.47424       44.41245   68.97023   90.52343  119.5    0.04359  -21.54037   0.8237 
  -39.02676  0.04997  2.14326     13.36378   1.4463  1.41942  14.86052  0.08931     0.01306  4281.74326   6839.86794  3.02851         2931.72711      19.9067  0.04482  55702.57324  1.62518  0.74265  11552262.12871  44.70429  21.60458  55841.18431     51.4439       44.36249   64.65959   89.08655  116.5    0.04557  -21.66348  0.97505 
  -42.04521  0.01868  2.53681     13.78886  1.88442  0.67778  10.41924   0.2317     0.01956   5559.9836   7704.56634  2.94036         2757.06461      18.2333  0.00095  55699.55479  1.92137  0.19463   2977484.35634   45.2616  21.61668  55841.18431    51.44023       44.35706   68.97023   94.83407   83.5    0.05118  -21.74405  0.99386 
  -36.91971  0.00274  2.42072     13.95149  1.85961  0.61566  32.50198  0.06357     0.01828  4021.86638   5946.90759  2.83696         2990.22322     18.29227  0.00109  55704.68029  3.13612  0.08908   1265150.66091  45.66824  21.59959      55839.4    51.46244        44.3749   66.09647   91.96031  110.5    0.04439  -21.54249  0.99746 
  -26.05844    0.008  1.74804     14.10106  1.70224   0.4144  14.53603  0.28658     0.01013   4875.0729   7077.53474  3.65205         2809.60134     18.84361  0.00388  55715.54156   2.0608  0.11625      303267.873  46.53293  21.57801      55836.5    51.41425       44.33079   64.65959   90.52343   84.0    0.04192  -21.67826  0.99806 
  -38.64556  0.03335  2.42743      13.5608  1.63131  1.33877   14.6939  0.09912     0.01372  4114.70499   7388.36493  2.55995          3019.1984     16.01976    1e-05  55702.95444  1.48403  0.49002   6746106.93853  44.88203  21.59129      55839.4     51.4346       44.32867   73.28087   97.70783  105.0    0.04814  -21.54796  0.98274 
  -21.84328  0.00159  1.63982     14.10316  1.83755   0.5834   15.7801  0.18106     0.01549  4059.14914   8051.51838  2.46637         3118.55267     20.11572  0.07252  55719.75672  1.55098  0.02512    285314.99031  46.64817  21.61557  55841.18431     51.4384       44.35702   64.65959   89.08655   91.0    0.04151  -21.59035  0.99967 
  -39.67887  0.19539  2.99918      13.7087  1.88502  1.28689  28.61931  0.04946     0.01781  4173.67411   3897.15605  2.43834         3053.59235     17.86875  0.00041  55701.92113  2.97388  5.59199    6021973.0182  44.81042  21.64469  55844.05376    51.44737       44.39748   74.10105   85.39261  128.5    0.04782  -21.54956  0.80253 
  -43.25216  0.01432  2.42313     13.76724  1.78025  0.73246   17.4332  0.12296     0.01567  4273.34552   5451.29606  3.28978         2832.93694      18.4835  0.00169  55698.34784  1.89907  0.24962   2835098.25965    45.298  21.59325  55841.18431    51.46167       44.33547   73.09955   97.88915  112.0    0.04008  -21.58859  0.99227 
  -36.79361  0.00504  2.59379     13.83255  2.03796  1.06422  21.42366  0.10436     0.15686  4274.89651   6921.60179  2.65591         2991.78842     16.71343    3e-05  55704.80639  2.33546    0.108   2752851.76317  45.31039  21.58695  55838.31486    51.50623       44.44272    62.1637   82.96117  107.5    0.04412  -21.56145  0.99692 
  -34.00315  0.33825  2.52593     13.68255   1.6553     1.14  17.27177  0.09918      0.1107  4264.19625   3357.70792  2.38623         3074.77468     18.03261   0.0006  55707.59685  1.87343  5.84213   4230869.46754  45.05645  21.60301  55838.31486    51.45968       44.35877   68.97023   91.96031  122.0    0.04369  -21.61479  0.82066 
  -33.83461   0.0366  2.08853     13.99428  1.96559   0.6627  20.63241  0.13491     0.23428  4109.63351   3559.04175  2.02266         3231.07041     19.51432  0.01816  55707.76539  2.07866  0.75522    817377.05641  46.01023  21.62641  55841.18431    51.43015       44.35931   73.28087   90.52343  108.5    0.03814  -21.64852   0.9856 
  -40.10265  0.01887  2.70324     13.84936  1.93488  0.71894  23.39109  0.07061     0.02868  4022.30494   3056.92233  2.67415         3039.26987     17.59171  0.00022  55701.49735   2.2575  0.44144   2627408.22428   45.2722  21.63073      55839.4    51.39446       44.37638   74.71775   76.15463  125.0    0.04513  -21.54667   0.9851 
