# Wavelength Flux
# STATUS = PUBLIC
# OBJECT = 2019neq
# TELESCOPE = 
# INSTRUMENT = LRS2
# DATE-OBS = 
# MJD =
# EXPTIME =
# SLIT =
# DISPERSER =
# SOURCE = 2020ApJ...900...73K
# FILTER =
# FLUX_STANDARD =
# EXTINCTION_CORRECTED = 
# PHOTOMETRY_CALIBRATED =
# FLUX_UNITS = 1E-15 erg/s/cm^2^/A
# QUALITY =
# MIN_WAVE =
# MAX_WAVE =
# COMMENT =
3640.     0.744
3640.901  0.725
3641.803  0.742
3642.704  0.727
3643.606  0.719
3644.507  0.713
3645.409  0.747
3646.310  0.744
3647.212  0.720
3648.113  0.738
3649.015  0.729
3649.916  0.740
3650.818  0.705
3651.719  0.689
3652.621  0.682
3653.522  0.659
3654.424  0.683
3655.325  0.668
3656.227  0.664
3657.128  0.682
3658.030  0.687
3658.931  0.681
3659.833  0.688
3660.734  0.688
3661.636  0.671
3662.537  0.676
3663.439  0.666
3664.340  0.643
3665.242  0.645
3666.143  0.636
3667.045  0.624
3667.946  0.638
3668.848  0.655
3669.749  0.649
3670.651  0.630
3671.552  0.658
3672.454  0.665
3673.355  0.629
3674.257  0.638
3675.158  0.655
3676.060  0.651
3676.961  0.661
3677.863  0.662
3678.764  0.661
3679.665  0.653
3680.567  0.677
3681.468  0.665
3682.370  0.666
3683.271  0.665
3684.173  0.653
3685.074  0.662
3685.976  0.669
3686.877  0.675
3687.779  0.673
3688.680  0.658
3689.582  0.670
3690.483  0.674
3691.385  0.651
3692.286  0.649
3693.188  0.657
3694.089  0.660
3694.991  0.661
3695.892  0.678
3696.794  0.681
3697.695  0.673
3698.597  0.668
3699.498  0.656
3700.400  0.657
3701.301  0.674
3702.203  0.669
3703.104  0.688
3704.006  0.690
3704.907  0.686
3705.809  0.702
3706.710  0.684
3707.612  0.698
3708.513  0.713
3709.415  0.698
3710.316  0.666
3711.218  0.675
3712.119  0.687
3713.021  0.684
3713.922  0.685
3714.824  0.682
3715.725  0.654
3716.627  0.662
3717.528  0.677
3718.429  0.675
3719.331  0.690
3720.232  0.700
3721.134  0.696
3722.035  0.676
3722.937  0.677
3723.838  0.680
3724.740  0.670
3725.641  0.673
3726.543  0.684
3727.444  0.701
3728.346  0.673
3729.247  0.667
3730.149  0.656
3731.050  0.676
3731.952  0.666
3732.853  0.656
3733.755  0.682
3734.656  0.702
3735.558  0.703
3736.459  0.703
3737.361  0.700
3738.262  0.680
3739.164  0.677
3740.065  0.666
3740.967  0.657
3741.868  0.617
3742.770  0.619
3743.671  0.651
3744.573  0.657
3745.474  0.675
3746.376  0.667
3747.277  0.660
3748.179  0.666
3749.080  0.667
3749.982  0.675
3750.883  0.680
3751.785  0.677
3752.686  0.683
3753.588  0.676
3754.489  0.668
3755.391  0.656
3756.292  0.655
3757.193  0.675
3758.095  0.677
3758.996  0.657
3759.898  0.653
3760.799  0.660
3761.701  0.669
3762.602  0.652
3763.504  0.674
3764.405  0.660
3765.307  0.645
3766.208  0.652
3767.110  0.667
3768.011  0.655
3768.913  0.654
3769.814  0.656
3770.716  0.668
3771.617  0.667
3772.519  0.672
3773.420  0.668
3774.322  0.664
3775.223  0.668
3776.125  0.660
3777.026  0.655
3777.928  0.646
3778.829  0.648
3779.731  0.650
3780.632  0.678
3781.534  0.673
3782.435  0.660
3783.337  0.645
3784.238  0.634
3785.140  0.633
3786.041  0.640
3786.943  0.646
3787.844  0.634
3788.746  0.642
3789.647  0.659
3790.549  0.660
3791.450  0.650
3792.352  0.658
3793.253  0.669
3794.155  0.666
3795.056  0.652
3795.957  0.655
3796.859  0.666
3797.760  0.670
3798.662  0.664
3799.563  0.667
3800.465  0.655
3801.366  0.640
3802.268  0.654
3803.169  0.649
3804.071  0.653
3804.972  0.656
3805.874  0.649
3806.775  0.667
3807.677  0.682
3808.578  0.663
3809.480  0.657
3810.381  0.652
3811.283  0.651
3812.184  0.649
3813.086  0.661
3813.987  0.665
3814.889  0.657
3815.790  0.667
3816.692  0.655
3817.593  0.640
3818.495  0.640
3819.396  0.657
3820.298  0.686
3821.199  0.675
3822.101  0.646
3823.002  0.627
3823.904  0.650
3824.805  0.661
3825.707  0.656
3826.608  0.635
3827.510  0.628
3828.411  0.629
3829.313  0.624
3830.214  0.635
3831.116  0.628
3832.017  0.638
3832.918  0.636
3833.820  0.627
3834.721  0.620
3835.623  0.623
3836.524  0.630
3837.426  0.626
3838.327  0.617
3839.229  0.615
3840.130  0.606
3841.032  0.617
3841.933  0.615
3842.835  0.604
3843.736  0.608
3844.638  0.607
3845.539  0.597
3846.441  0.598
3847.342  0.603
3848.244  0.577
3849.145  0.580
3850.047  0.569
3850.948  0.571
3851.850  0.580
3852.751  0.590
3853.653  0.575
3854.554  0.569
3855.456  0.571
3856.357  0.578
3857.259  0.569
3858.160  0.565
3859.062  0.566
3859.963  0.572
3860.865  0.574
3861.766  0.563
3862.668  0.565
3863.569  0.581
3864.471  0.573
3865.372  0.575
3866.274  0.572
3867.175  0.554
3868.077  0.564
3868.978  0.560
3869.880  0.568
3870.781  0.584
3871.682  0.585
3872.584  0.582
3873.485  0.581
3874.387  0.576
3875.288  0.573
3876.190  0.574
3877.091  0.583
3877.993  0.575
3878.894  0.583
3879.796  0.578
3880.697  0.578
3881.599  0.565
3882.500  0.578
3883.402  0.577
3884.303  0.582
3885.205  0.581
3886.106  0.569
3887.008  0.553
3887.909  0.559
3888.811  0.573
3889.712  0.591
3890.614  0.573
3891.515  0.577
3892.417  0.571
3893.318  0.568
3894.220  0.563
3895.121  0.564
3896.023  0.575
3896.924  0.581
3897.826  0.579
3898.727  0.578
3899.629  0.563
3900.530  0.573
3901.432  0.578
3902.333  0.571
3903.235  0.580
3904.136  0.579
3905.038  0.572
3905.939  0.557
3906.841  0.571
3907.742  0.571
3908.644  0.565
3909.545  0.568
3910.446  0.562
3911.348  0.571
3912.249  0.564
3913.151  0.556
3914.052  0.557
3914.954  0.565
3915.855  0.571
3916.757  0.560
3917.658  0.544
3918.560  0.554
3919.461  0.568
3920.363  0.556
3921.264  0.565
3922.166  0.564
3923.067  0.559
3923.969  0.554
3924.870  0.552
3925.772  0.549
3926.673  0.557
3927.575  0.550
3928.476  0.559
3929.378  0.560
3930.279  0.548
3931.181  0.550
3932.082  0.518
3932.984  0.477
3933.885  0.480
3934.787  0.540
3935.688  0.558
3936.590  0.549
3937.491  0.540
3938.393  0.541
3939.294  0.546
3940.196  0.558
3941.097  0.545
3941.999  0.538
3942.900  0.547
3943.802  0.553
3944.703  0.561
3945.605  0.562
3946.506  0.557
3947.408  0.552
3948.309  0.558
3949.210  0.551
3950.112  0.558
3951.013  0.568
3951.915  0.560
3952.816  0.565
3953.718  0.561
3954.619  0.556
3955.521  0.576
3956.422  0.563
3957.324  0.563
3958.225  0.559
3959.127  0.549
3960.028  0.559
3960.930  0.583
3961.831  0.582
3962.733  0.566
3963.634  0.571
3964.536  0.573
3965.437  0.571
3966.339  0.565
3967.240  0.554
3968.142  0.533
3969.043  0.562
3969.945  0.573
3970.846  0.588
3971.748  0.578
3972.649  0.572
3973.551  0.574
3974.452  0.584
3975.354  0.575
3976.255  0.565
3977.157  0.565
3978.058  0.579
3978.960  0.572
3979.861  0.565
3980.763  0.565
3981.664  0.565
3982.566  0.574
3983.467  0.567
3984.369  0.558
3985.270  0.570
3986.172  0.572
3987.073  0.572
3987.974  0.567
3988.876  0.556
3989.777  0.572
3990.679  0.566
3991.580  0.576
3992.482  0.581
3993.383  0.568
3994.285  0.568
3995.186  0.562
3996.088  0.565
3996.989  0.570
3997.891  0.572
3998.792  0.565
3999.694  0.561
4000.595  0.568
4001.497  0.576
4002.398  0.584
4003.300  0.568
4004.201  0.573
4005.103  0.593
4006.004  0.581
4006.906  0.576
4007.807  0.579
4008.709  0.571
4009.610  0.563
4010.512  0.577
4011.413  0.576
4012.315  0.570
4013.216  0.563
4014.118  0.574
4015.019  0.566
4015.921  0.558
4016.822  0.558
4017.724  0.553
4018.625  0.552
4019.527  0.557
4020.428  0.565
4021.330  0.564
4022.231  0.560
4023.133  0.568
4024.034  0.562
4024.936  0.571
4025.837  0.554
4026.738  0.553
4027.640  0.559
4028.541  0.546
4029.443  0.560
4030.344  0.562
4031.246  0.555
4032.147  0.560
4033.049  0.561
4033.950  0.555
4034.852  0.552
4035.753  0.555
4036.655  0.547
4037.556  0.539
4038.458  0.544
4039.359  0.558
4040.261  0.555
4041.162  0.559
4042.064  0.561
4042.965  0.554
4043.867  0.554
4044.768  0.558
4045.670  0.555
4046.571  0.557
4047.473  0.543
4048.374  0.542
4049.276  0.548
4050.177  0.555
4051.079  0.545
4051.980  0.552
4052.882  0.550
4053.783  0.553
4054.685  0.548
4055.586  0.548
4056.488  0.554
4057.389  0.544
4058.291  0.551
4059.192  0.561
4060.094  0.552
4060.995  0.551
4061.897  0.543
4062.798  0.540
4063.700  0.541
4064.601  0.545
4065.502  0.544
4066.404  0.547
4067.305  0.541
4068.207  0.540
4069.108  0.554
4070.010  0.553
4070.911  0.564
4071.813  0.559
4072.714  0.551
4073.616  0.554
4074.517  0.563
4075.419  0.547
4076.320  0.554
4077.222  0.567
4078.123  0.563
4079.025  0.550
4079.926  0.559
4080.828  0.551
4081.729  0.565
4082.631  0.578
4083.532  0.567
4084.434  0.560
4085.335  0.551
4086.237  0.561
4087.138  0.551
4088.040  0.544
4088.941  0.549
4089.843  0.556
4090.744  0.564
4091.646  0.548
4092.547  0.577
4093.449  0.582
4094.350  0.569
4095.252  0.579
4096.153  0.586
4097.055  0.573
4097.956  0.573
4098.858  0.566
4099.759  0.568
4100.661  0.577
4101.562  0.595
4102.464  0.590
4103.365  0.572
4104.266  0.567
4105.168  0.577
4106.069  0.570
4106.971  0.566
4107.872  0.564
4108.774  0.575
4109.675  0.587
4110.577  0.575
4111.478  0.574
4112.380  0.588
4113.281  0.583
4114.183  0.575
4115.084  0.566
4115.986  0.564
4116.887  0.573
4117.789  0.578
4118.690  0.586
4119.592  0.615
4120.493  0.672
4121.395  0.665
4122.296  0.644
4123.198  0.699
4124.099  0.730
4125.001  0.647
4125.902  0.583
4126.804  0.574
4127.705  0.575
4128.607  0.573
4129.508  0.572
4130.410  0.566
4131.311  0.576
4132.213  0.572
4133.114  0.566
4134.016  0.560
4134.917  0.547
4135.819  0.547
4136.720  0.552
4137.622  0.545
4138.523  0.553
4139.425  0.559
4140.326  0.545
4141.227  0.540
4142.129  0.532
4143.030  0.531
4143.932  0.523
4144.833  0.512
4145.735  0.504
4146.636  0.510
4147.538  0.513
4148.439  0.506
4149.341  0.512
4150.242  0.513
4151.144  0.517
4152.045  0.524
4152.947  0.531
4153.848  0.550
4154.750  0.537
4155.651  0.540
4156.553  0.552
4157.454  0.546
4158.356  0.553
4159.257  0.541
4160.159  0.540
4161.060  0.555
4161.962  0.559
4162.863  0.551
4163.765  0.560
4164.666  0.566
4165.568  0.563
4166.469  0.550
4167.371  0.554
4168.272  0.569
4169.174  0.563
4170.075  0.566
4170.977  0.577
4171.878  0.573
4172.780  0.575
4173.681  0.568
4174.583  0.566
4175.484  0.567
4176.386  0.577
4177.287  0.576
4178.189  0.578
4179.090  0.577
4179.991  0.559
4180.893  0.561
4181.794  0.580
4182.696  0.582
4183.597  0.586
4184.499  0.574
4185.400  0.569
4186.302  0.579
4187.203  0.584
4188.105  0.589
4189.006  0.596
4189.908  0.583
4190.809  0.582
4191.711  0.579
4192.612  0.567
4193.514  0.573
4194.415  0.580
4195.317  0.581
4196.218  0.581
4197.120  0.574
4198.021  0.578
4198.923  0.576
4199.824  0.571
4200.726  0.583
4201.627  0.587
4202.529  0.576
4203.430  0.585
4204.332  0.579
4205.233  0.575
4206.135  0.575
4207.036  0.571
4207.938  0.567
4208.839  0.563
4209.741  0.570
4210.642  0.563
4211.544  0.569
4212.445  0.567
4213.347  0.565
4214.248  0.562
4215.150  0.577
4216.051  0.586
4216.953  0.569
4217.854  0.569
4218.755  0.570
4219.657  0.577
4220.558  0.573
4221.460  0.561
4222.361  0.552
4223.263  0.546
4224.164  0.560
4225.066  0.552
4225.967  0.561
4226.869  0.570
4227.770  0.580
4228.672  0.574
4229.573  0.567
4230.475  0.562
4231.376  0.562
4232.278  0.565
4233.179  0.561
4234.081  0.548
4234.982  0.560
4235.884  0.569
4236.785  0.568
4237.687  0.558
4238.588  0.564
4239.490  0.561
4240.391  0.555
4241.293  0.561
4242.194  0.560
4243.096  0.563
4243.997  0.553
4244.899  0.552
4245.800  0.551
4246.702  0.537
4247.603  0.549
4248.505  0.544
4249.406  0.541
4250.308  0.545
4251.209  0.535
4252.111  0.538
4253.012  0.536
4253.914  0.538
4254.815  0.532
4255.717  0.536
4256.618  0.521
4257.519  0.521
4258.421  0.531
4259.322  0.534
4260.224  0.531
4261.125  0.530
4262.027  0.519
4262.928  0.515
4263.830  0.516
4264.731  0.511
4265.633  0.516
4266.534  0.500
4267.436  0.494
4268.337  0.488
4269.239  0.497
4270.140  0.501
4271.042  0.498
4271.943  0.497
4272.845  0.487
4273.746  0.478
4274.648  0.492
4275.549  0.493
4276.451  0.485
4277.352  0.501
4278.254  0.516
4279.155  0.506
4280.057  0.493
4280.958  0.494
4281.860  0.499
4282.761  0.495
4283.663  0.487
4284.564  0.476
4285.466  0.467
4286.367  0.493
4287.269  0.491
4288.170  0.486
4289.072  0.496
4289.973  0.491
4290.875  0.480
4291.776  0.490
4292.678  0.501
4293.579  0.503
4294.481  0.498
4295.382  0.489
4296.283  0.487
4297.185  0.491
4298.086  0.492
4298.988  0.504
4299.889  0.504
4300.791  0.505
4301.692  0.503
4302.594  0.499
4303.495  0.491
4304.397  0.482
4305.298  0.482
4306.200  0.493
4307.101  0.486
4308.003  0.503
4308.904  0.490
4309.806  0.483
4310.707  0.496
4311.609  0.498
4312.510  0.489
4313.412  0.487
4314.313  0.490
4315.215  0.479
4316.116  0.483
4317.018  0.491
4317.919  0.488
4318.821  0.503
4319.722  0.510
4320.624  0.499
4321.525  0.497
4322.427  0.494
4323.328  0.493
4324.230  0.497
4325.131  0.509
4326.033  0.502
4326.934  0.496
4327.836  0.496
4328.737  0.493
4329.639  0.491
4330.540  0.492
4331.442  0.494
4332.343  0.495
4333.245  0.505
4334.146  0.507
4335.047  0.506
4335.949  0.519
4336.850  0.523
4337.752  0.517
4338.653  0.509
4339.555  0.517
4340.456  0.531
4341.358  0.532
4342.259  0.518
4343.161  0.527
4344.062  0.528
4344.964  0.523
4345.865  0.528
4346.767  0.519
4347.668  0.512
4348.570  0.501
4349.471  0.445
4350.373  0.434
4351.274  0.482
4352.176  0.525
4353.077  0.540
4353.979  0.530
4354.880  0.533
4355.782  0.528
4356.683  0.526
4357.585  0.524
4358.486  0.521
4359.388  0.525
4360.289  0.539
4361.191  0.535
4362.092  0.539
4362.994  0.534
4363.895  0.528
4364.797  0.526
4365.698  0.530
4366.600  0.531
4367.501  0.536
4368.403  0.525
4369.304  0.524
4370.206  0.520
4371.107  0.538
4372.009  0.527
4372.910  0.533
4373.811  0.531
4374.713  0.524
4375.614  0.528
4376.516  0.536
4377.417  0.536
4378.319  0.539
4379.220  0.540
4380.122  0.536
4381.023  0.519
4381.925  0.530
4382.826  0.545
4383.728  0.542
4384.629  0.531
4385.531  0.522
4386.432  0.522
4387.334  0.519
4388.235  0.491
4389.137  0.500
4390.038  0.534
4390.940  0.543
4391.841  0.528
4392.743  0.535
4393.644  0.524
4394.546  0.527
4395.447  0.524
4396.349  0.521
4397.250  0.527
4398.152  0.532
4399.053  0.533
4399.955  0.542
4400.856  0.537
4401.758  0.530
4402.659  0.520
4403.561  0.531
4404.462  0.526
4405.364  0.516
4406.265  0.519
4407.167  0.525
4408.068  0.525
4408.970  0.540
4409.871  0.526
4410.773  0.529
4411.674  0.542
4412.575  0.531
4413.477  0.532
4414.378  0.533
4415.280  0.540
4416.181  0.528
4417.083  0.524
4417.984  0.532
4418.886  0.529
4419.787  0.515
4420.689  0.512
4421.590  0.509
4422.492  0.517
4423.393  0.528
4424.295  0.552
4425.196  0.513
4426.098  0.513
4426.999  0.515
4427.901  0.511
4428.802  0.509
4429.704  0.507
4430.605  0.521
4431.507  0.520
4432.408  0.508
4433.310  0.517
4434.211  0.513
4435.113  0.514
4436.014  0.523
4436.916  0.530
4437.817  0.516
4438.719  0.512
4439.620  0.509
4440.522  0.506
4441.423  0.509
4442.325  0.513
4443.226  0.512
4444.128  0.506
4445.029  0.497
4445.931  0.505
4446.832  0.504
4447.734  0.502
4448.635  0.501
4449.536  0.499
4450.438  0.495
4451.339  0.494
4452.241  0.497
4453.142  0.511
4454.044  0.498
4454.945  0.485
4455.847  0.492
4456.748  0.495
4457.650  0.474
4458.551  0.414
4459.453  0.458
4460.354  0.495
4461.256  0.490
4462.157  0.480
4463.059  0.476
4463.960  0.480
4464.862  0.475
4465.763  0.477
4466.665  0.481
4467.566  0.480
4468.468  0.474
4469.369  0.473
4470.271  0.478
4471.172  0.465
4472.074  0.470
4472.975  0.462
4473.877  0.464
4474.778  0.459
4475.680  0.463
4476.581  0.463
4477.483  0.464
4478.384  0.468
4479.286  0.453
4480.187  0.464
4481.089  0.454
4481.990  0.459
4482.892  0.460
4483.793  0.451
4484.695  0.454
4485.596  0.456
4486.498  0.458
4487.399  0.453
4488.300  0.458
4489.202  0.466
4490.103  0.456
4491.005  0.448
4491.906  0.445
4492.808  0.454
4493.709  0.465
4494.611  0.454
4495.512  0.446
4496.414  0.445
4497.315  0.451
4498.217  0.448
4499.118  0.445
4500.020  0.441
4500.921  0.447
4501.823  0.460
4502.724  0.459
4503.626  0.442
4504.527  0.440
4505.429  0.444
4506.330  0.440
4507.232  0.445
4508.133  0.443
4509.035  0.438
4509.936  0.435
4510.838  0.433
4511.739  0.445
4512.641  0.449
4513.542  0.443
4514.444  0.437
4515.345  0.432
4516.247  0.434
4517.148  0.434
4518.050  0.440
4518.951  0.435
4519.853  0.439
4520.754  0.441
4521.656  0.430
4522.557  0.435
4523.459  0.429
4524.360  0.433
4525.262  0.437
4526.163  0.427
4527.064  0.431
4527.966  0.427
4528.867  0.415
4529.769  0.412
4530.670  0.421
4531.572  0.415
4532.473  0.426
4533.375  0.437
4534.276  0.436
4535.178  0.447
4536.079  0.454
4536.981  0.447
4537.882  0.433
4538.784  0.423
4539.685  0.425
4540.587  0.432
4541.488  0.420
4542.390  0.429
4543.291  0.432
4544.193  0.440
4545.094  0.433
4545.996  0.426
4546.897  0.438
4547.799  0.446
4548.700  0.446
4549.602  0.449
4550.503  0.440
4551.405  0.432
4552.306  0.435
4553.208  0.440
4554.109  0.443
4555.011  0.439
4555.912  0.437
4556.814  0.440
4557.715  0.434
4558.617  0.425
4559.518  0.421
4560.420  0.434
4561.321  0.424
4562.223  0.422
4563.124  0.432
4564.026  0.438
4564.927  0.437
4565.828  0.442
4566.730  0.433
4567.631  0.432
4568.533  0.441
4569.434  0.440
4570.336  0.438
4571.237  0.441
4572.139  0.437
4573.040  0.429
4573.942  0.436
4574.843  0.444
4575.745  0.436
4576.646  0.432
4577.548  0.449
4578.449  0.448
4579.351  0.436
4580.252  0.442
4581.154  0.446
4582.055  0.441
4582.957  0.450
4583.858  0.453
4584.760  0.451
4585.661  0.453
4586.563  0.448
4587.464  0.446
4588.366  0.439
4589.267  0.434
4590.169  0.449
4591.070  0.440
4591.972  0.439
4592.873  0.447
4593.775  0.437
4594.676  0.424
4595.578  0.419
4596.479  0.438
4597.381  0.444
4598.282  0.447
4599.184  0.449
4600.085  0.446
4600.987  0.438
4601.888  0.434
4602.790  0.434
4603.691  0.434
4604.592  0.433
4605.494  0.435
4606.395  0.440
4607.297  0.449
4608.198  0.448
4609.100  0.447
4610.001  0.447
4610.903  0.447
4611.804  0.447
4612.706  0.446
4613.607  0.446
4614.509  0.446
4615.410  0.445
4616.312  0.445
4617.213  0.445
4618.115  0.444
4619.016  0.444
4619.918  0.444
4620.819  0.444
4621.721  0.443
4622.622  0.443
4623.524  0.443
4624.425  0.442
4625.327  0.442
4626.228  0.442
4627.130  0.442
4628.031  0.441
4628.933  0.441
4629.834  0.441
4630.736  0.440
4631.637  0.440
4632.539  0.440
4633.440  0.439
4634.342  0.439
4635.243  0.439
4636.145  0.439
4637.046  0.438
4637.948  0.438
4638.849  0.438
4639.751  0.437
4640.652  0.437
4641.554  0.437
4642.455  0.437
4643.356  0.436
4644.258  0.436
4645.159  0.436
4646.061  0.435
4646.962  0.435
4647.864  0.435
4648.765  0.434
4649.667  0.434
4650.568  0.434
4651.470  0.434
4652.371  0.433
4653.273  0.433
4654.174  0.433
4655.076  0.432
4655.977  0.432
4656.879  0.432
4657.780  0.432
4658.682  0.431
4659.583  0.431
4660.485  0.431
4661.386  0.430
4662.288  0.430
4663.189  0.430
4664.091  0.429
4664.992  0.429
4665.894  0.429
4666.795  0.429
4667.697  0.428
4668.598  0.428
4669.500  0.427
4670.401  0.421
4671.303  0.416
4672.204  0.410
4673.106  0.412
4674.007  0.419
4674.909  0.415
4675.810  0.408
4676.712  0.408
4677.613  0.410
4678.515  0.407
4679.416  0.408
4680.318  0.416
4681.219  0.421
4682.120  0.417
4683.022  0.412
4683.923  0.409
4684.825  0.406
4685.726  0.402
4686.628  0.398
4687.529  0.395
4688.431  0.398
4689.332  0.395
4690.234  0.391
4691.135  0.399
4692.037  0.398
4692.938  0.396
4693.840  0.395
4694.741  0.397
4695.643  0.401
4696.544  0.404
4697.446  0.405
4698.347  0.406
4699.249  0.407
4700.150  0.407
4701.052  0.408
4701.953  0.412
4702.855  0.409
4703.756  0.409
4704.658  0.416
4705.559  0.415
4706.461  0.416
4707.362  0.409
4708.264  0.402
4709.165  0.404
4710.067  0.400
4710.968  0.397
4711.870  0.396
4712.771  0.395
4713.673  0.398
4714.574  0.404
4715.476  0.403
4716.377  0.401
4717.279  0.404
4718.180  0.406
4719.082  0.401
4719.983  0.396
4720.884  0.398
4721.786  0.397
4722.687  0.391
4723.589  0.395
4724.490  0.399
4725.392  0.394
4726.293  0.390
4727.195  0.391
4728.096  0.391
4728.998  0.388
4729.899  0.390
4730.801  0.394
4731.702  0.393
4732.604  0.390
4733.505  0.391
4734.407  0.389
4735.308  0.384
4736.210  0.385
4737.111  0.394
4738.013  0.396
4738.914  0.396
4739.816  0.395
4740.717  0.391
4741.619  0.391
4742.520  0.394
4743.422  0.394
4744.323  0.393
4745.225  0.391
4746.126  0.387
