 log(Bfield)      Mns    Pspin  cutoff_power  cutoff_wavelength  fnickel    kappa  kappagamma  mejecta  log(nhhost)  temperature  texplosion  thetaPB      vejecta      A_V        MJD_0   log(KE)     M_Ni  Peak_mag     Peak_MJD 
    14.27593  1.74309  3.07806       0.99301         3091.67442  0.01714  0.24003     0.01888  1.01714     16.68936   7587.67111    -2.70648  0.14178  10487.13378    3e-05  58701.57352  52.34387  0.57662  17.15982     58731.87 
      14.336  1.86319  3.17054       0.73705          3145.5798  0.00498  0.29724      0.0224  0.90853     16.41273   8533.45343    -2.86496  0.13248  10999.93143    1e-05  58701.41504  52.36373  0.15948   17.1727     58731.87 
    13.81626    1.656    3.057       1.20245         2836.01144  0.06442  0.20419     0.01461  1.23519      19.3269   8538.55826     -2.8093  0.43055  10087.75156  0.01179   58701.4707  52.34497  2.34859  17.15165     58732.14 
    14.25741  1.98941  3.51628       0.97879         3165.24008  0.00195  0.19681     0.01628  1.18884     17.79195   3606.84729    -2.72585  0.19494  10328.12321  0.00034  58701.55415  52.35878  0.06995  17.15633     58731.87 
    13.59009  1.52258  2.80741       0.88743         3100.88331  0.00502  0.16475     0.01267  1.54797     18.00878   7280.79769    -2.70618  0.61851  10635.13578  0.00057  58701.57382  52.42811  0.19952  17.15398     58732.14 
    13.70247  1.76107  3.10146       0.76847         2933.82818  0.00258  0.12591     0.01076  2.07384     18.48964   4987.68877    -2.71551  0.57665  11340.94918  0.00172  58701.56449  52.52787  0.11352  17.15101     58731.88 
      13.703  1.97133  3.28903       0.94531         3078.28909  0.01211  0.19729      0.0153  1.27969     16.56412   7597.18481    -2.66789  0.65219  10869.68451    2e-05  58701.61211  52.41587  0.44752  17.15909     58731.88 
    13.59927  1.69062  2.92564        0.9601         3050.45473  0.00104  0.20275     0.01439  1.15426     16.03661   7054.32699    -2.58257  0.68265  10320.70308    1e-05  58701.69743  52.35297  0.03681  17.15495     58731.87 
    13.95194  2.02596   3.5685       0.84066         3077.65522  0.03487  0.16085     0.01268  1.59948     16.72287   8464.72736    -2.77053  0.41932  10614.95148    3e-05  58701.50947  52.43161  1.40145  17.14807     58731.88 
    14.32221  1.89547  3.21739       0.99781         2917.14964  0.05171  0.25565      0.0201    0.983     16.54305    4898.0986    -2.69942   0.1401  10869.14131    2e-05  58701.58058  52.36853  1.71445  17.14704     58731.87 
    14.05736  1.72886  3.22089       1.57036         2582.35929  0.00284  0.15026     0.01151  1.69713      17.5859   4669.88994    -2.71785  0.26881  10399.25715  0.00021  58701.56215  52.42294  0.11673  17.15871     58732.14 
    14.12338  1.65394  3.01917       1.40552         2792.25668  0.02291  0.21929     0.01566   1.2096     18.40624   5360.63434    -2.84694  0.19771  10341.31964  0.00142  58701.43306  52.36291  0.82809  17.14766     58731.88 
    13.60054  1.78517  3.03088       1.02334         2854.58397  0.03594  0.19831     0.01447  1.34751      17.0861   9452.38683    -2.66866  0.72601  10899.08723    7e-05  58701.61134   52.4269  1.35527  17.14809     58732.15 
    13.77131  1.59923  2.90333       0.81197         3126.62698  0.00738  0.19488      0.0154  1.29161     16.71581   4326.53683    -2.71522  0.41921  10799.03872    3e-05  58701.56478  52.41178  0.27394  17.17023     58731.87 
    14.03922  1.38532  2.65913       0.87362         3012.93137  0.04637  0.20777     0.01843  1.14522     17.05186   8617.23732    -2.63122  0.18336  10853.41398    6e-05  58701.64878  52.39528  1.63978  17.16451      58732.2 
    14.18725  1.65795  3.06156       0.88012         3247.64553  0.00123  0.23261     0.01767  1.02618     17.82112   6475.74041     -2.7324  0.17519  10169.30147  0.00037   58701.5476  52.31879  0.04148  17.15769     58732.14 
    14.00952   1.7045  2.92907       1.10838         3099.79057  0.00177  0.25446     0.01819  0.98143     18.53979   8977.92308    -2.65167  0.24007  10374.81362  0.00193  58701.62833   52.3278  0.05871  17.16917     58731.88 
    13.92368  1.92622  3.46361       1.08526         2757.25692  0.00104  0.25604     0.02394  0.96175     18.70975   3682.95453    -2.70852  0.41653  11093.25758  0.00285  58701.57148   52.3821   0.0343  17.16212     58731.87 
    13.60781   1.5606  2.75445       0.86964         2972.39736  0.00148   0.2632     0.02011  1.03226     18.92941   8139.79541    -2.83569  0.56394  11096.20758  0.00472  58701.44431  52.39565  0.05015  17.18201     58731.88 
    13.58277  1.65354  2.83633       0.74042           2894.618  0.01294  0.16635     0.01238  1.61287     17.45604   6885.23358    -2.62542  0.65833  11140.19073  0.00016  58701.65458  52.47486  0.52163  17.16419     58731.87 
     14.1638  1.70736  3.20321       0.54993         3185.18141  0.04983   0.1371     0.01454  1.80373     16.30659   8959.41474     -2.5081  0.19697   11880.8947    1e-05   58701.7719  52.54786  2.08956  17.15004  58732.05612 
    14.09235  2.14988  3.60894       0.67044         3027.91062  0.00109  0.11918     0.01072  2.22239     16.29115    5513.1835    -2.81728  0.30079   11553.9135    1e-05  58701.46272  52.55381  0.04901  17.14818  58732.33579 
    14.16852  1.79532  3.32607       0.95089          2948.6467  0.04737  0.29898      0.0251  0.87118     16.89339   9870.75971    -2.73002  0.21685  10846.15072    4e-05  58701.54998  52.34319  1.48782  17.13495  58732.05612 
    14.01159  1.75209  3.01961       0.60575         3063.80294  0.01405  0.25123     0.02197  1.01539     17.13358   6099.47449    -2.72876  0.25524  11577.19535    8e-05  58701.55124  52.42944  0.47246  17.16091  58732.05612 
    13.80897  1.80471  2.96818       1.23632         2836.41493  0.00153  0.19979     0.01247  1.34627      17.2258   4072.65261    -2.87269  0.40758  10403.28898    9e-05  58701.40731  52.38631   0.0575  17.15624     58731.88 
    14.09277  1.55848  2.73202       0.96488         3009.02378  0.01815  0.19764     0.01249  1.40143     16.74331   7280.61703    -2.72619  0.17622  10441.24774    3e-05  58701.55381  52.39611  0.69482   17.1535     58731.87 
    13.65094  1.84903  3.13538       0.71632         3238.11834  0.00503  0.13828     0.01063  1.97582     17.28254   7471.05357    -2.86815  0.66792  11054.84484  0.00011  58701.41185   52.4987  0.21755  17.15124  58732.05612 
    13.86173  1.79491  3.17011       0.89429          2938.9403  0.00222  0.19428     0.01686  1.25168     17.89165   9817.72595    -2.69751  0.40025  10950.36098  0.00043  58701.58249  52.41852  0.08135  17.15789     58732.18 
    13.27989  1.29095  2.38989       0.52016         3430.36599  0.05044   0.1721     0.01392    1.463     16.19623   9430.79802    -2.71254  1.03877  11156.84043    1e-05  58701.56746  52.46069  1.96216  17.15738     58731.87 
    13.81825  1.49139  3.00081        1.3135          2793.8817  0.23438  0.23398     0.02132  1.03642     17.84244   3364.64996    -2.73578  0.38679  10489.87532  0.00039  58701.54422  52.34759  7.94972  17.14535     58731.87 
    13.44279  1.74677  3.05591       0.90841         3113.03725  0.00563  0.27548     0.02114  0.92053     16.15084   8481.42186    -2.77131   1.3019  10726.39466    1e-05  58701.50869  52.34442  0.18138  17.15321     58731.87 
    13.41464  1.69972  2.95066       1.11752         2694.83078  0.00271  0.32704     0.02269  0.85724     16.50148   9324.87167    -2.83785  1.36871  10837.51459    2e-05  58701.44215  52.33926  0.08444   17.1557     58731.18 
    13.97536  1.80179  3.11215       0.85409         2892.62867  0.00227  0.16398     0.01344  1.57469     16.95279   7866.36292    -2.85142  0.29439  11045.82749    5e-05  58701.42858  52.46372  0.09088  17.14817     58732.25 
    13.90834   1.7308  3.07643       0.98769         2948.79552  0.00132  0.23482     0.01792  1.18777     18.81538    3962.9301    -2.81354  0.34135  10957.93303  0.00363  58701.46646  52.41004   0.0474  17.17003     58731.88 
    14.00865  1.77749  3.33141       1.14606         2991.33424  0.00312  0.19518      0.0168  1.21187     17.24314   4133.03308    -2.78102  0.30897  10323.65247   0.0001  58701.49898  52.36175    0.113  17.16282     58731.87 
    13.93429  2.00705  3.18002       0.87368         3129.81252  0.01071  0.28579     0.01754  0.95416      16.7141    8034.5565    -2.83792  0.35295   10443.5729    3e-05  58701.44208  52.32816  0.35034   17.1622  58732.05612 
    13.60002  1.78558  3.07903       0.89089         2909.95551  0.00419  0.18396     0.01554  1.41388     17.64184    4423.7559    -2.67217  0.73271  11300.03562  0.00024  58701.60783  52.46622  0.16107  17.16908      58732.2 
    13.53874  1.58289  3.00516       1.04124         2828.17207   0.0394  0.24194     0.02142  1.02461     17.23235   7666.76834    -2.72258  0.83373  10870.19886    9e-05  58701.55742   52.3764  1.32995  17.15895  58732.33579 
    13.98277  1.99597  3.41467       0.86925         3009.13959  0.01535  0.19989     0.01607  1.22302       17.934   6419.49687    -2.55664  0.35389   10724.0849  0.00048  58701.72336  52.39639  0.55737  17.16674     58731.87 
    13.74604  1.66979  2.99184       1.01759         3034.51986  0.00106  0.20281     0.01493  1.27397     18.91557   4197.59938    -2.80026   0.4755   10441.4663  0.00457  58701.47974   52.3802  0.03906  17.15024     58731.87 
    14.25294  1.89022  3.33542       0.97877          3078.6149  0.08113  0.20222     0.01627  1.24378     17.48934    8662.9457    -2.58687   0.1749  10776.36824  0.00017  58701.69313  52.40352  2.96584  17.16444     58731.88 
    14.00994  1.71346  2.95369       1.60339         2879.12947  0.00423  0.18359     0.01209  1.43474     16.38364   5462.66696    -2.64174  0.24358  10259.58182    1e-05  58701.63826   52.3847  0.16325  17.16291     58731.87 
    13.75629   1.7006  3.19157       0.84231          2916.7958  0.04367  0.15948      0.0139  1.63422      17.8558   6139.21769    -2.87722  0.52929  10979.28076   0.0004  58701.40278  52.46426  1.76871  17.15968  58732.33579 
    13.67606  1.80002  3.04396       1.04008         2811.47534  0.12082  0.30432     0.02398   0.8631     17.17135    4067.2704    -2.63562   0.5747   11175.7574    8e-05  58701.64438  52.36732   3.7781  17.14917     58731.88 
    13.92054  1.76446  3.31238       0.80523         3102.72128  0.00301  0.25772     0.02262  0.94301     16.00723   5717.87288     -2.7587  0.38684  10676.72753    1e-05   58701.5213  52.34507  0.09787  17.15042     58732.18 
    14.15551  2.14541  3.64562       1.11364         3011.88409  0.00298  0.25029      0.0185  1.02307     16.04044    4519.4658    -2.62035   0.2676  10386.75445    1e-05  58701.65965   52.3366  0.10038  17.16697     58731.88 
    14.04172  1.56534  2.93445       0.68306          3041.7456   0.0482  0.14456     0.01236    1.718     17.36123   5304.56734    -2.73762  0.22725  10887.79465  0.00013  58701.54238  52.46468  1.98715  17.16375     58731.88 
    13.79311  1.62662  2.86118       0.94272         3006.73663   0.0074  0.15782     0.01211  1.57086     16.79038   6169.69374    -2.67099  0.38194  10707.96083    3e-05  58701.60901  52.43635  0.29533  17.13275     58732.32 
    13.67409  1.66853  3.04389       0.53534         3229.61277  0.00875   0.2511     0.02048  1.04943     18.68994   4428.47362    -2.63743  0.61531  11115.11408  0.00272  58701.64257  52.40018  0.29848   17.1452  58732.05612 
    13.38111  1.48122  2.70705       1.23243         2739.92313  0.04419  0.23687     0.01751  1.11559     16.14013   9583.55022    -2.77589  1.05815  10667.71838    1e-05  58701.50411  52.37561  1.54599  17.16077     58731.88 
    13.77147  1.76948  3.15555       1.08362          2904.7781  0.00825  0.23414     0.01677  1.12615      16.3427   6548.27588    -2.89719  0.51446  10409.57006    1e-05  58701.38281  52.35602  0.28983  17.17401     58731.87 
    13.72269  1.60298  2.88496       0.96752         2946.12798  0.00525  0.25359     0.01989  0.96965      18.2616   5476.12719    -2.66729  0.46684  10669.47017  0.00101  58701.61271  52.34982  0.17292  17.16954     58732.14 
    13.97709  1.95291   3.6501       1.07335          3031.2355  0.00508  0.18826     0.01678   1.3307     17.55255   6974.87013    -2.82107  0.40339  10587.04629   0.0002  58701.45893  52.39958  0.19084  17.14353     58732.14 
    13.96421  1.72844  2.91307       0.91102         3178.56781  0.00664  0.18706     0.01115  1.38779     17.49229   9478.69063    -2.75737  0.27408   10061.5146  0.00017  58701.52263  52.36233  0.25333  17.16809     58731.88 
    13.36627  1.39277  2.71761       0.78333         3005.36206  0.00163  0.29222     0.02774  0.87814     16.05277   6155.42052    -2.90428  1.07465  11350.15789    1e-05  58701.37572  52.38423  0.05153  17.14174  58732.05612 
    13.70297  1.68829  3.18656       0.44688         3313.77363  0.17031  0.20971     0.02072  1.18561     16.84044   5893.30767    -2.61446  0.60642   11481.0291    4e-05  58701.66554  52.45023  6.10753  17.16173     58731.88 
    14.12272  1.62402  2.97147       1.12556         3075.55402   0.0046  0.20867     0.01668  1.17967     17.69157   5983.04085    -2.70899  0.18511   10518.7629  0.00027  58701.57101  52.37331  0.16463  17.14205  58732.05612 
    13.80487  1.45488  2.79658       0.67151         3256.80977  0.00654  0.15768     0.01502  1.54503     17.64183   8062.77723    -2.61718   0.3467  11119.69663  0.00024  58701.66282  52.46651  0.25964  17.16797     58731.88 
    13.75634  1.44843  2.56809       0.74704         2877.37644  0.03884  0.19523     0.01561  1.30063     18.17414   3597.88242    -2.69777  0.33314   11154.5851  0.00083  58701.58223  52.44109  1.44491  17.15242     58732.15 
    14.11787  1.57168  2.86547       0.91352         2879.33029  0.00268  0.13235     0.01081  1.78202     16.74734   9495.58727    -2.75618  0.18149  10680.85323    3e-05  58701.52382  52.45355   0.1117    17.165  58732.05612 
     14.0175  1.86836  3.16859       0.75138          3061.2503  0.02008  0.13739     0.01166  1.83265     16.20024     6877.802    -2.52137  0.27672   11383.2407    1e-05  58701.75863  52.51307  0.84646  17.16884  58732.23828 
    14.22133  1.80349  3.02134       1.10819          2939.7141  0.00156  0.20985     0.01325  1.27238     16.88239   8439.10676    -2.93239  0.16054  10219.24906    4e-05  58701.34761   52.3613  0.05757  17.16049     58732.18 
    13.74565  1.75099  3.42852       1.07635         2958.28355  0.05272   0.1593     0.01491  1.57884     17.97479   3243.15461    -2.72657  0.63596  10735.01694  0.00052  58701.55343  52.43934  2.10899    17.172     58731.87 
    14.14254  2.00325  3.49338       0.95585         3031.69014  0.00284  0.23944     0.01858  1.05846     18.36113   6588.67111    -2.81722  0.25357   10515.0179  0.00128  58701.46278  52.35355  0.09724  17.15753  58732.05612 
    13.63654  1.67178  2.99583       0.96016         2876.04707  0.00988  0.28945     0.02284  0.92642     16.83443   7600.87362    -2.66641  0.63542  11158.73097    4e-05  58701.61359  52.37999  0.31907  17.14318     58731.88 
    13.86532  1.60225  2.97469       1.11093         2910.58839  0.00639  0.16866      0.0122  1.53008     17.93731   3159.12745    -2.80845  0.36078  10276.73176  0.00048  58701.47155  52.39649  0.25275  17.16363  58732.05612 
    14.12277   1.5651  2.72888       0.96308         3082.85012  0.22984  0.28079     0.01761  0.99302     18.36093   6491.62813    -2.80214  0.16216  10418.63209  0.00128  58701.47786  52.33368  7.65327  17.15183     58731.88 
    14.02303  1.81329  3.25664       0.65533         2929.45052  0.01488  0.21157     0.01864  1.22366     18.52255   5589.67153     -2.5962    0.298  11493.06946  0.00185   58701.6838  52.45663  0.54058  17.15341     58732.23 
    13.77669  1.78808  3.08299       0.72583         3268.20229  0.03669   0.2013     0.01444  1.29861      16.7565   4136.26348    -2.86682  0.47541  10585.24557    3e-05  58701.41318  52.39532  1.36422  17.15922     58731.87 
    13.58344  1.62318  2.99311       1.02377         3087.20827  0.03303   0.2205     0.01576  1.16003     17.50033   9918.94528    -2.87494  0.73236  10135.62475  0.00018  58701.40506  52.33813  1.17419   17.1519     58731.87 
    13.73654  1.96765  3.37606       1.23787         3000.98565  0.00419  0.15269     0.01003  1.66025     19.47658   6723.89205     -2.7187  0.66145   9943.69391  0.01665   58701.5613  52.38066  0.17085  17.15179      58732.2 
    13.47274  1.60096  2.83093       0.82241         3174.21769  0.08815  0.14537     0.01115  1.87555     16.98601   6211.63795    -2.82043  0.86361   11070.8258    5e-05  58701.45957  52.49233  3.74612  17.14822     58732.14 
    13.86892  1.83474  3.14592       0.70626         3186.93774  0.21117  0.29405     0.02268  0.91185     19.25205   8787.61803    -2.68512  0.39295  11174.57798  0.00993  58701.59488  52.37813  6.77134  17.16118  58732.05612 
    13.99163  1.58987  2.99381       1.14334         3101.36873  0.00215  0.17384     0.01255  1.41479     17.79542    7487.7557    -2.76204  0.26517   9968.35962  0.00035  58701.51796  52.35741  0.08247  17.14817     58732.25 
     13.7885  1.86284  3.07057       1.00075         2977.05741  0.00924  0.19367     0.01339  1.34998     18.02808   3540.49921    -2.65525   0.4613  10765.49648  0.00059  58701.62475   52.4165  0.34888  17.14724     58731.87 
    13.79892  1.87156  3.36568       0.68427         2892.39005  0.00386  0.11221     0.01067  2.37004     18.42671   5895.24465    -2.71586  0.53226  11709.70361  0.00148  58701.56414  52.57434  0.17724  17.16369     58731.87 
    14.02179   1.8211  3.36605       1.21664         2882.42897  0.00223  0.25118     0.02082  1.05502      16.8804   3557.68292    -2.77994  0.31079  10775.75879    4e-05  58701.50006  52.37423  0.07622  17.14299     58731.88 
    14.22332  1.89281  3.26568       1.43645         2578.37765  0.01322  0.20108     0.01602  1.27382      16.9615   7924.24223    -2.66221  0.18217  10867.23396    5e-05  58701.61779  52.41489  0.48799  17.14392     58732.14 
    13.91085  2.19857  3.58928       0.50011         3372.11153  0.02101  0.20137     0.01902  1.24437     16.69803   3972.45015    -2.65456  0.45265  11660.78347    3e-05  58701.62544  52.47211  0.76816  17.14859     58732.14 
    14.34661  1.80007  3.33692       0.71045         3058.65901  0.00617  0.25973     0.02563  0.99029     18.33312   8679.04821     -2.7101  0.14038  11400.57053   0.0012   58701.5699  52.41139  0.20508  17.14774     58731.87 
    13.94762  1.76923  3.18104       0.87414         2991.73287  0.00329  0.24509      0.0205  1.07183      16.9085   9868.09759    -2.64044  0.33432  11106.84409    5e-05  58701.63956  52.40341  0.11302  17.16731     58731.87 
    14.04268  1.85598  3.44718       0.90422          3010.9249  0.07385  0.15428     0.01272  1.65225     17.09343   7387.76131    -2.78945  0.31354   10634.1474    7e-05  58701.49055  52.43822  3.00274  17.16657      58732.2 
    13.83183  1.68481  3.17478       0.98518         3050.15515  0.01538  0.26072      0.0219  0.94731     19.08338   7842.07452    -2.65868  0.43888  10543.90243  0.00673  58701.62132  52.33508  0.50165   17.1478     58732.23 
    13.35956   1.5973  2.73733       0.91897         2990.16861  0.00127  0.30864     0.02216   0.8531     16.50351   8253.35636    -2.70174  1.21908  10873.46606    2e-05  58701.57826  52.34115  0.03946  17.16295     58731.87 
     13.8174  1.76081  2.98736       1.59199         2690.84139  0.02872  0.19623      0.0124  1.46047     17.49294   9041.24185    -2.79841  0.40351  10454.27279  0.00017  58701.48159  52.40391  1.11654  17.14706     58731.88 
     13.7613  1.60906  2.87956       0.50516         3256.82586  0.00164  0.22213     0.01781  1.16191     18.93043   4601.47509    -2.72909  0.43404  11141.12415  0.00473  58701.55091  52.42057  0.05842   17.1727     58731.88 
