 texplosion  fnickel    Pspin  log(Bfield)      Mns  thetaPB   mejecta    kappa  kappagamma      vejecta  temperature    alpha  cutoff_wavelength  log(nhhost)      A_V         MJD0   kenergy  mnickel           TSD   log(L0)  Peak_mag     Peak_MJD  log(E_rad)  log(Peak_lum)  Rise_Time    E_fold  tau_1  delta_m15     r_peak     frac 
   -5.05917  0.39207  0.97097     14.52706  2.17968  1.27489  22.81969  0.04914     0.01314  13730.16006   9981.79724  0.93329         2285.90365     16.32353    1e-05  57323.97083  25.66186  8.94686   16846.35928  48.40632  22.50178  57374.96783    51.36671       44.73988   15.23358    34.476   33.0    0.23887  -21.77664  0.98586 
   -4.28324  0.22808  0.75339     14.55255  2.13988  1.23938  26.26503  0.04478     0.03591  14171.35748   3600.42958  1.16473         2138.12159      16.6024    2e-05  57324.74676  31.46501  5.99047    8853.84547  48.89807  22.47098  57370.38012    51.30885       44.70403   15.23358  32.87246   46.5    0.27882  -21.74513  0.99651 
   -2.91137  0.08013  0.77482     14.40969   1.9621   1.5091  12.07706  0.13207     0.07063   16638.0136   9279.70938  1.13068         2317.21655     17.68951  0.00027  57326.11863  19.94304  0.96772   16578.61249  48.56362  22.50321  57370.38012    51.31355       44.71615   12.82828  29.66539   25.0    0.34222  -22.05897  0.99897 
   -2.72246  0.02166  0.89802     14.55502  1.90277  0.68948  15.61407  0.09144     0.18392  13589.96269   5939.10987  2.19892         2034.71182     18.11567  0.00073  57326.30754  17.20204  0.33816   11059.55862  48.59792  22.47355  57370.38012    51.27274       44.73196   15.23358  30.46716   32.5    0.27814  -21.78515  0.99929 
   -2.12985  0.07529  0.84213     14.41798  1.79892  1.24925   8.56929  0.11196      0.2501  13860.68485   3140.22987  1.66014         2085.63349      19.5827  0.02125  57326.90015   9.82067   0.6452   17283.27899  48.43547  22.56876  57372.67397    51.29423       44.68964   15.23358    34.476   28.5     0.3752   -21.7052  0.99901 
   -5.18613  0.00128  0.83133     14.72069  2.13178  0.46781   6.88062  0.30341     0.01121  15756.64738   7853.07322  0.85577         2334.05145     16.92505    5e-05  57323.84387  10.19019   0.0088    4951.39021  49.06331  22.56976  57370.38012    51.29376       44.70751   14.43181  33.67423   24.5    0.44243  -21.70781  0.99999 
   -2.80356  0.00406  1.04796     14.32867  1.92458  1.50759  18.54721  0.07628     0.06222  14371.72415   6402.86531  1.60338         2060.91066      18.8208  0.00368  57326.22644  22.85196  0.07529    43201.3289    47.877  22.49382  57372.67397    51.23724       44.69941   14.43181  29.66539   31.5    0.29639  -21.94767  0.99973 
   -3.52117  0.00937  1.31491     14.34486  1.75126   1.0934   5.20142  0.19816     0.19184  13395.74482   8690.30165  2.31112         2024.22304     17.33491  0.00012  57325.50883   5.56779  0.04876   57442.46454  47.51517  22.50292  57374.96783    51.25861       44.69913   16.03535  32.07069   27.5    0.30508  -21.74661  0.99962 
   -5.18744  0.00164  0.85734     14.18369   1.4376  1.02673  12.24257   0.0994     0.11995  15244.09218   9613.00238  1.23786         2216.31403     20.26239  0.10165  57323.84256  16.97082  0.02008   42109.13584   47.9358  22.55342  57370.38012    51.28003       44.69515   14.43181  33.67423   24.5    0.34196  -21.89411  0.99992 
   -5.21024  0.00586  0.82091     14.21868  1.50975  1.25568   3.92238  0.31329     0.04018  12964.40542   5412.99537  1.12938         2356.97217     17.96052  0.00051  57323.81976   3.93262  0.02299   34509.48495  48.08122  22.49052     57373.04    51.29309       44.68091   15.38273  35.14983   28.0    0.35069  -21.60868  0.99993 
   -2.23037  0.05837  0.71311     14.33872  1.59438  0.87228  22.25629  0.07588     0.08188  13659.40396   8507.68302  1.88387         2103.27904     18.15284  0.00079  57326.79963  24.77099  1.29904   15822.83005  48.56584  22.54914  57370.38012    51.30102       44.72613   12.82828  32.07069   31.5    0.25275  -21.85258  0.99789 
     -5.145  0.01362   1.1853     14.37735  1.95978  1.40869   8.92294  0.12781     0.06323  14187.46161   9459.26453  1.35009         2144.97779     19.27486  0.01046    57323.885  10.71383  0.12157   44975.06745  47.76042  22.56583     57373.04     51.2806       44.72862   13.63005  31.26893   24.5     0.3513  -21.67626  0.99943 
   -4.23905  0.04638  0.96925     14.34703   1.7352  1.08793   6.68516  0.16138     0.03333  12628.16422    3001.2006  1.49941         2180.61607     16.01235    1e-05  57324.79095   6.35944  0.31009   30617.96982  48.04935  22.43539  57370.38012    51.26536       44.76583   12.02651  26.45832   30.0    0.29609  -21.70775  0.99896 
   -3.07377  0.00342  0.79932     14.41689  1.82173  1.10876  18.17258  0.06187     0.02111  12772.56281   3772.34295   1.7216         2108.76003     18.66238  0.00255  57325.95623  17.68479  0.06208   15847.78594  48.52392  22.53499  57370.38012    51.25083       44.68472   15.23358  32.07069   31.0    0.26206   -21.7079  0.99991 
  -12.23458   0.2217  2.09214     14.14786   1.7276  1.44182    2.2393  0.26317     0.01553   9277.54205   4153.25719  1.50726         2277.75637     17.66397  0.00026  57316.79542   1.14975  0.49644  355395.92709  46.31439  22.56523  57370.38012    51.26911        44.6893   16.03535  33.67423   29.0    0.43192  -21.25595   0.9887 
   -3.76201  0.03956  0.98686     14.60402  1.82645  0.64624  18.61322  0.05168     0.14906  13156.92274   7169.26512   1.2169         2143.30402     18.69909  0.00278  57325.26799  19.22018  0.73635   10230.54174  48.53204  22.50622     57373.04    51.30799       44.69931   15.23358  35.27776   29.5    0.33715    -21.641  0.99799 
    -3.6146  0.03335  0.92329     14.38628  1.96074  1.34152  13.52358  0.10819     0.23283  15199.54775   9468.73829  1.04956         2290.41088     17.34393  0.00012   57325.4154  18.63718  0.45103   26203.79885  48.21222  22.53843  57372.67397    51.26956       44.68206   14.43181  33.67423   25.0    0.33379   -21.9185  0.99902 
   -5.10552  0.14729  1.20016     14.36261  1.89561  1.39476  15.32304  0.07401     0.08878  13434.48439   9122.11669  1.52571         2076.85004     17.69054  0.00027  57323.92448  16.49735  2.25695   47734.21632  47.70929  22.43244  57368.08626    51.30155       44.82538   12.82828  24.05302   29.5    0.29547  -21.66638  0.98858 
   -4.36672  0.00746   1.1252     14.54748  2.02727   0.8504  19.55434  0.04453     0.05957  12428.53194   6120.55463  1.31849         2333.98686     19.00602  0.00563  57324.66328  18.01814  0.14591   19152.39416  48.19107  22.50414  57372.67397     51.2768       44.71975   14.52185  30.37712   29.5    0.36929  -21.63203  0.99949 
   -5.34528  0.05577  1.15169     14.21209   1.5866  1.38954   3.53959   0.3312      0.0878   14784.2122   4986.36295  1.20614         2212.17999     16.74969    3e-05  57323.68472   4.61505  0.19739   73583.32899  47.47986  22.51211  57368.08626     51.2627       44.68495   15.23358  33.67423   28.5    0.35531  -21.75799  0.99865 
   -3.62589  0.16086  0.79846      14.4818   1.9492  1.11182  26.48575  0.04503     0.02496  13944.36313   5052.90292  1.40609         2128.36535     17.27043   0.0001  57325.40411   30.7211  4.26056   12547.79657  48.65563  22.54781  57368.08626      51.251       44.71868   12.02651  30.46716   39.0    0.26607  -21.81546  0.99543 
   -4.69204  0.07925  0.72222     14.45571  1.72929  0.69821   9.34142  0.19373     0.20903  13725.67825   4702.54787  1.83749         2083.66648     17.91566  0.00046  57324.33796  10.49802  0.74034   10270.78128  48.77777  22.51519  57372.67397    51.24328       44.69309   14.43181  30.46716   35.5      0.234  -21.75811  0.99894 
   -2.70785  0.43517  0.86143     14.33004  1.78856   1.4002    6.2885  0.25338     0.31845  16463.06903   3143.79012  1.65997         2005.63492     16.17842    1e-05  57326.32215  10.16707  2.73655   26957.51173  48.22023  22.46001  57368.08626    51.24447       44.71169   13.63005  29.66539   33.5    0.30477  -21.98439  0.99425 
   -4.15855  0.48602  0.84846     14.42385  1.55877  1.35872  22.78468  0.03362     0.02874  14012.81377   8429.92596  1.37735         2288.31199     18.55825  0.00201  57324.87145   26.6883  11.0739   14796.32647  48.43422  22.55439  57372.67397    51.31612       44.69972   15.23358  36.07953   61.5    0.25989  -21.76766  0.98326 
   -3.01344  0.00121  1.16206     14.33138  1.60117  1.02466  15.83364  0.05152     0.05004  12085.99839   9561.28271  1.64123         2156.48572     18.09919   0.0007  57326.01656  13.79663   0.0191    43647.2316  47.70287  22.53054  57374.96783    51.34403       44.71377   16.03535  37.68307   25.5    0.34812   -21.6322  0.99988 
   -3.63225  0.09145  1.20438     14.29349  1.70487  1.36246   7.78948  0.12971     0.07427  13498.51809   4859.19376  1.70939         2104.93328     17.55232   0.0002  57325.39775   8.46657  0.71233   59434.89762  47.56497  22.50847  57370.38012    51.20984       44.69616   14.43181  28.06186   31.0    0.32511  -21.76143  0.99544 
   -3.73771  0.00951  0.85458     14.45771  2.06378  1.13245  26.20299  0.05156     0.02536   13674.6588   6097.90304  1.08742         2237.47907     17.39393  0.00014  57325.29229   29.2288  0.24907   17004.90972  48.48943  22.50647  57370.38012    51.26468       44.73955   12.82828  29.66539   31.0    0.31444  -21.79624  0.99964 
   -5.14599  0.00109  0.84837     14.35537  1.93358  1.01528   7.51625  0.23634     0.34309  11632.75262   6061.16966  1.88602         2050.05001     17.81003  0.00036  57323.88401   6.06727   0.0082   25153.62023  48.29743  22.49566  57372.67397    51.29744       44.72665   13.63005  31.26893   38.0    0.21553   -21.6645  0.99998 
   -8.85855  0.00392  1.01354     14.33736  1.84144  1.02911  13.96489  0.10861     0.14118  15180.43952   9570.59816  0.21939          2190.9472     18.16171  0.00081  57320.17145  19.19701  0.05473    37147.4546   47.9524  22.46264  57370.38012    51.27281       44.71506   13.71659  31.98415   25.0    0.35067  -21.61916  0.99979 
   -3.18031  0.01427  0.87927     14.40534  1.71962  1.06282  10.90009  0.08217     0.03423   11492.6071   6938.69179  1.77424         2126.29899     16.56735    2e-05  57325.84969   8.58804  0.15552    19090.3626  48.33522  22.46469  57370.38012    51.22856       44.69678   12.93953  29.57536   30.0    0.33086  -21.54612  0.99967 
   -2.46414  0.03926  0.83026     14.48361  1.70086  0.77149  16.53211  0.05708     0.17715  11237.97369   6676.53513  1.73712         2171.82533     18.20304  0.00089  57326.56586  12.45465  0.64905   11740.58085   48.5914  22.50641  57370.38012    51.32393       44.71387   16.03535  32.87246   33.5    0.30608  -21.63726  0.99877 
   -5.72697  0.00644  1.41407     14.16107   1.4663  1.46778  10.55054  0.07348     0.03621   11533.7297   5309.48458  2.18832         2167.69384     17.91563  0.00046  57323.30303   8.37224  0.06791  129668.49667  47.02129  22.46293  57368.08626     51.2359       44.71012   13.71659  29.57885   33.0    0.34229  -21.50968  0.99914 
   -8.60185  0.02528  0.97997     14.48685  1.80731  0.62065  11.72185  0.12341     0.06636   13211.9048   4886.05963  0.84655         2139.46652     19.13937  0.00766  57320.42815  12.20546  0.29638   17122.89213  48.30987  22.50679  57368.08626    51.25277        44.6801   16.03535  31.26893   35.0    0.27267  -21.54898  0.99891 
    -4.5862  0.00313  1.24458     14.31548  1.74049  1.13052   6.39612  0.14992     0.01731  12361.70484   8163.16938  1.60356         2008.29294     18.23314  0.00095   57324.4438   5.83043  0.02001   58557.10615  47.55189  22.50041  57370.38012    51.25802       44.69898   14.43181  32.07069   25.0    0.37913  -21.62959  0.99986 
   -5.54646  0.05816  0.86712     14.32437  1.75747  1.48686    8.4334  0.15506      0.0971   15211.6939   4786.81255  0.68785          2353.0235     16.57229    2e-05  57323.48354  11.64086  0.49044   27550.19444  48.19745  22.53312  57370.38012    51.27131       44.68825   13.72008  31.98066   30.0    0.34768  -21.64954  0.99893 
   -3.06577  0.19827  0.75642     14.37309  1.68666  1.49864   32.9086  0.03085     0.29291  13283.86179   8808.07358  1.58606         2134.09479      18.2978   0.0011  57325.96423  34.64059  6.52484   16076.04724  48.53217  22.49992  57368.08626     51.2807       44.69289   14.43181  29.66539   38.0    0.28122  -21.78724  0.99246 
   -9.14391  0.47622  1.18838     14.21533  1.66252  1.55601   6.49496  0.19338     0.01416  13705.22166   9585.14784  1.08931         2266.84877     18.67987  0.00266  57319.88609    7.2774  3.09303   80878.87373  47.43187   22.5323  57372.67397    51.23393        44.7193   12.82828  29.66539   23.0    0.42523  -21.55194  0.97898 
   -5.23245  0.00154  0.81461     14.53939  1.45326  0.50339   7.33231    0.139     0.05931  14768.14515   8862.09095  0.63507         2193.69153     19.26745  0.01028  57323.79755   9.53938  0.01128    7469.14486  48.73602  22.59462  57374.96783    51.36051       44.70324   18.44065   39.2866   23.0    0.43601  -21.58475  0.99997 
   -5.55859  0.19043  1.13653     14.42209  1.78352  0.99379   4.81828  0.17392     0.02538  14046.72957   9273.42117  0.79935         2337.77125     18.75626  0.00317  57323.47141   5.67113  0.91756   30625.31565  47.92288  22.51105  57372.67397    51.27022       44.71199   13.72008  31.98066   21.0    0.48428  -21.57933  0.99569 
   -2.59688  0.02823  0.75305      14.2823  1.58154  1.37344   7.05364  0.18987     0.07917  16050.75941   4944.33122   1.0766         2061.17893      17.2519   0.0001  57326.43312  10.84006   0.1991   22696.28675  48.35832  22.45613  57370.38012    51.26908       44.70796   15.23358  32.07069   28.5    0.34774  -21.88189  0.99967 
   -1.79561  0.18153   0.7186     14.77473  1.84809  0.41942  11.55932  0.09394     0.26485  10627.90648   8583.67196  2.19749         2104.21432     17.78117  0.00034  57327.23439   7.78852   2.0984    2500.61219  49.42455  22.55053  57368.08626    51.22376       44.68689   14.52185  30.37712   33.5    0.25077   -21.8502  0.99812 
   -3.57283  0.02204  0.74999     14.39984  1.97027  1.14214  14.51972  0.11271     0.20432  13649.80313   3034.70898  1.58078         2059.15141     17.57521  0.00021  57325.45717  16.13757  0.32005   16321.71821  48.60049  22.54032     57373.04    51.32269       44.68277   16.16328   38.3569   34.5    0.22022  -21.89024  0.99964 
   -5.12004  0.04626  1.01247     14.10283  1.28842  1.36176   8.79001   0.1029     0.05813  13094.76847   7307.78662  1.10533         2241.14256     16.63246    2e-05  57323.90996   8.99109  0.40664   76378.36387  47.48517  22.44057     57373.04    51.30154        44.7358   15.23358  31.26893   29.5    0.36312  -21.62646  0.99711 
   -3.03634  0.00298  0.72459     14.59079  2.07483  0.84846  12.33282  0.10023     0.02896  13940.44199   8214.49873  1.17171          2310.3841     16.97962    5e-05  57325.99366  14.29693  0.03676    6658.88763  49.04224  22.48944  57370.38012    51.26501       44.71633   13.63005  32.07069   26.5    0.34883  -21.80699  0.99998 
   -4.90768    0.004  0.95873     14.55643  2.05549  0.74492  13.12908  0.11628     0.46776  14050.06409   7553.33955  1.51764           2021.949     18.40218   0.0014  57324.12232  15.46031  0.05254   13528.92162  48.48711  22.55266  57374.96783    51.28507       44.74568   13.63005  30.46716   30.5    0.29368  -21.70768  0.99988 
   -5.89401  0.00531   1.4864     14.33019   1.8751  1.17959  16.39532   0.0363     0.35255   8307.64517   4210.04619  1.97165         2238.88929     19.38474  0.01347  57323.13599   6.74999  0.08699   84086.26514  47.27287  22.48828  57370.38012    51.20275       44.71427   13.71659  26.37178   38.0    0.27186   -21.3098  0.99917 
   -3.11489  0.03362  0.81718     14.30837  1.78824  1.40337   7.18867  0.20651     0.21271  14195.38191   3871.36429  1.47497         2061.30972     17.65898  0.00025  57325.91511   8.64111  0.24169    26800.5917  48.26849  22.51821  57370.38012    51.25514       44.70363   13.63005  28.06186   31.5    0.29931  -21.87948  0.99954 
   -4.20411  0.03609  1.41518      14.4139  1.91589  1.12948   5.55291  0.18971     0.20519  17059.09894   9643.14132  1.39018         2108.14851     16.00681    1e-05  57324.82589   9.63962   0.2004   52967.65935  47.52558  22.55105     57373.04    51.30442       44.68934   16.16328  35.95159   21.5     0.4376  -21.89833  0.99847 
   -4.68453  0.03975  0.74852     14.15529  1.67126  1.37819  16.44883  0.15336     0.46808  14726.52765    8744.4459  1.78243         2055.11828     19.36245   0.0128  57324.34547  21.27957  0.65378   42528.56586   48.1148  22.53963  57372.67397    51.25748       44.71081   12.82828  32.07069   34.0    0.19281  -22.01474  0.99854 
   -2.43162  0.00707  0.70791     14.32386  1.71114  1.50499  10.32954  0.13227     0.06596  14932.58479   3237.79624  1.41146         2103.91076     16.50911    2e-05  57326.59838  13.73972  0.07301   17919.79525  48.54884  22.58838  57374.96783    51.30855        44.7091   14.51835  34.38945   28.5    0.34644  -21.91798  0.99992 
   -5.43831  0.02671  0.93577     14.25533  1.61277  1.37841  16.12742  0.08265     0.04865  15187.75655   3539.91723  1.35602         2120.65085       18.048  0.00062  57323.59169  22.19112  0.43073   40463.20138  47.92702  22.53307  57372.67397    51.27268       44.69773   17.63888  32.07069   30.5      0.328  -21.70181  0.99846 
   -3.18274  0.24886  0.98521     14.33487  1.69702  1.39331   16.0886  0.05869     0.01296  12195.46651   3177.86768   1.8448         2051.57053     17.02996    6e-05  57325.84726  14.27388  4.00385   32720.17541  47.99666   22.4961  57368.08626    51.21554       44.72082   12.82828  28.06186   36.0    0.28253  -21.68205  0.98691 
  -13.94356  0.04403  1.03418     14.39701  1.92947   0.7172  12.19662  0.19761     0.02096  14665.16339   6731.81714  0.30112         2245.51481     16.82828    4e-05  57315.08644  15.64734  0.53705   30791.40524  48.03666   22.4966  57370.38012    51.21802       44.74534   12.02651  26.45832   32.5    0.28146  -21.55744  0.99777 
   -5.27221  0.12605  0.81668     14.40388  1.54045  0.67612  14.17699  0.10632     0.09598  15228.78088   4523.75832  0.94932         2188.78387     19.34836  0.01239  57323.75779  19.61289  1.78707   14852.88845  48.46058  22.55271  57372.67397    51.25742       44.68687   16.03535  31.26893   34.0    0.28088  -21.79029  0.99514 
   -2.62527  0.36978  0.85633     14.37789  1.53304  1.12645  15.39235  0.05359     0.39348  13387.69561   6389.57982  1.76504         2162.54424     18.12405  0.00074  57326.40473  16.45674   5.6918   18317.40464  48.32625  22.50095  57370.38012    51.25961       44.69955   14.43181  31.26893   48.0    0.31482  -21.71421   0.9879 
   -7.01797  0.00355  1.09671       14.286  1.49136   0.8962    8.8127  0.09735     0.06058  11769.71073   7715.82776  1.17841         2288.05897     16.51893    2e-05  57322.01203   7.28229  0.03129   44625.40004  47.71266  22.42671  57370.38012    51.25288       44.78295   16.03535  21.64772   30.0    0.33156  -21.43057  0.99979 
   -5.77436  0.04679  1.37882       14.247  1.68683  1.50868   7.05618   0.1541     0.03085  14271.72374   6541.45389  1.55159         2035.78468     18.41215  0.00144  57323.25564   8.57334  0.33019   95478.85764    47.237  22.53181  57372.67397    51.28298       44.70506   16.03535  32.87246   27.5    0.35731  -21.67178  0.99689 
   -2.95895  0.29863  0.78568     14.54032  2.08485   1.3101  22.16372  0.03876     0.08959  11164.47046   4845.42025  1.43894         2458.80888     17.19026    9e-05  57326.07105  16.47958  6.61864    9925.37822  48.80068  22.50943  57372.67397    51.28873       44.70218   15.23358    34.476   56.0    0.25038  -21.72196  0.99541 
