 log(Bfield)      Mns    Pspin  cutoff_power  cutoff_wavelength  fnickel    kappa  kappagamma   mejecta  log(nhhost)  temperature  texplosion  thetaPB      vejecta      A_V        MJD_0   log(KE)      M_Ni  Peak_mag     Peak_MJD 
     14.6723  2.15407  0.70851        0.0834          2633.5023  0.49376  0.05644     0.03014   16.7172       18.573   9553.04117    -3.87579  0.98135  14377.48857  0.00208  57325.15421    52.961  36.60281  22.60739  57370.07767 
    14.59471  1.93397  0.84478       0.28695         2429.24162  0.02082  0.05109     0.13023   18.6248     16.39478   3206.09403    -3.51467   0.7611  12568.75702    1e-05  57325.51533  52.85327   1.57569  22.51211  57370.07767 
    14.21245  1.62817  1.64031       0.79359         2262.88709  0.12628  0.14332     0.34231    4.7078     17.12209    7432.9689     -6.2159  1.52334  11437.58609    7e-05   57322.8141  52.63897   7.04719  22.63342  57372.76945 
    14.74401  1.85104  1.14691       2.16713          2010.1932  0.06908  0.12969     0.34621    7.9725      20.3063   6128.63305    -3.50738  0.32425  11367.70462  0.11247  57325.52262  52.68922   4.38141  22.49585  57372.76945 
    14.26024  1.79354  1.64009        0.3837         2455.92287  0.15813  0.14059      0.0367   5.11857     17.14332   5417.03006    -7.27034  1.45418   11006.2394    8e-05  57321.75966  52.61489   9.01551  22.55253  57367.38589 
    14.57943  1.71372  0.86666       0.19664         2755.77622  0.02344  0.31285     0.04539   2.87441     16.93372    4688.0792     -4.1184  0.58008  11965.12472    5e-05   57324.9116  52.61872   1.14099  22.60133  57372.76945 
    14.56145  2.05828  1.34417       0.70564         2490.52655  0.00583   0.1572      0.1784   3.87394     16.89534   8971.23934    -3.15744  0.83694  10116.10931    4e-05  57325.87256  52.50981   0.30864  22.44691     57373.04 
     14.2577  1.55869  0.93529       1.44972          2100.4752  0.00789  0.20182     0.03954   3.55443     20.21804   5154.85338    -3.28566  1.00327   9110.06682  0.09178  57325.74434   52.4085   0.40824   22.5665  57370.07767 
    14.23126  1.60218  1.23461       0.44728         2122.61563  0.00277  0.05118     0.36855   14.7088     16.91004   3510.79304    -4.40642  1.38146  11737.92048    5e-05  57324.62358  52.77383   0.20032  22.58093  57367.38589 
    14.32651  1.81177  0.71071        0.3202         2855.34968  0.05479  0.22235     0.02322   5.05202     16.90029   3530.08033    -3.36148  1.48346  10901.04505    4e-05  57325.66852  52.60511   3.11356  22.51379  57372.76945 
    14.36759  1.57969  0.92931       0.88718         2164.15161  0.01715  0.19079     0.04908   6.14185     16.86384   8197.63289    -2.66891  0.80103  13499.36194    4e-05  57326.36109  52.81187   1.02297  22.55458  57372.76945 
     14.3479  1.80932  1.36029       0.42739         2318.09321  0.14573  0.06363     0.02488  13.71611     19.73514    7097.7464    -4.19943  1.14868      14152.9  0.03019  57324.83057  52.93022  10.38634  22.69044  57375.46123 
    14.35516  1.52079  1.68636       0.91773         2216.76845  0.01433  0.14299     0.17012   4.51516     17.11861   5023.06474    -6.55009  0.67289  10963.86791    7e-05  57322.47991   52.5975   0.79077  22.60631  57370.07767 
     14.3809  2.00371  1.22905       1.53223         2011.78989  0.20421  0.10003     0.01668  10.81665     17.50697   3821.16626    -2.75145  1.45559  12255.91308  0.00018  57326.27855  52.78377  13.85239  22.53972  57372.76945 
    14.15457  1.73519  2.75292       1.20335         2006.56979  0.40842  0.14685     0.36381   3.34982     18.32921   5226.56354   -16.51238  0.92988   9417.81491  0.00119  57312.51762   52.4301   20.7816  22.57575  57370.07767 
     14.5365  1.99927  0.76508        1.0076         2106.16267  0.23674  0.10979     0.14945  14.55645     16.41273    6388.7556    -3.54089  0.68445  11014.38666    1e-05  57325.48911  52.71766  17.07593  22.56549  57372.76945 
    14.30228  1.85025  1.34669       0.90586         2071.47147  0.02749  0.18091     0.25807   5.77179      18.1191   5537.16424    -4.37174   1.2894  12572.89142  0.00073  57324.65826  52.74352   1.61482  22.57274  57370.07767 
    14.31896  1.71254  0.79788       1.17576         2045.90043  0.34931  0.07296     0.21169  16.43807     16.94562   5998.29371    -3.43671  1.44794  11653.69906    5e-05  57325.59329  52.77713  25.80972  22.47858  57370.07767 
    14.44277   1.8485   1.4503       0.74829         2454.96401  0.00678  0.14124     0.02698   5.28662     18.38241   3359.16636     -6.1749  0.73679   9829.93321  0.00134   57322.8551  52.52026   0.38949  22.53759     57373.04 
    14.27439  1.76594  1.76854       1.77718         2103.24006  0.37031  0.12031     0.04043   4.79138     16.21582   8512.25337     -6.8215  1.53828   9399.73285    1e-05   57322.2085  52.47051  20.75942  22.52802  57372.76945 
    14.30942  1.81552  1.02496       0.51147         2687.46815  0.21225  0.19832     0.04794   4.57479     17.89886   3550.38907    -6.05858  1.37758   9890.04562  0.00044  57322.97142  52.50946  11.75671  22.48995  57370.07767 
    14.41858  1.74082  1.38112       0.30487         2092.07122  0.21428  0.07785     0.13002  11.29317     17.40259   5481.48873    -6.47956  0.73439  11908.94446  0.00014  57322.55044   52.7628  14.66936   22.4794  57367.38589 
    14.41952  1.53167   1.1757       1.57087         2014.34104  0.38432  0.15315     0.49326   5.27064     16.53517   4272.46103    -4.41225  0.64946   9961.79154    2e-05  57324.61775   52.5315  22.07456  22.59059  57370.07767 
    14.24954  1.74326  1.43817       0.59359         2067.17623  0.25643  0.10769     0.01651   9.15156     19.13234   7407.89813    -6.65824  1.37851  13122.36018  0.00753  57322.37176  52.82735  16.77505  22.64525  57375.46123 
    14.63451  1.79036  1.21479       2.05255         2022.56012  0.36666  0.15531     0.10527   5.27725     19.38034   6960.76599    -3.21924   0.5256  10580.51725  0.01334  57325.81076  52.58398  21.06711  22.59067     57373.04 
    14.28067  1.66716  2.15915       0.12998         2883.32031  0.03075  0.17228     0.13768   3.52363     17.41297   6981.12978    -7.27048  0.82501  14592.75336  0.00014  57321.75952  52.81668   1.58729  22.59888  57370.07767 
    14.38132  2.03783  1.41219       0.60234          2206.4146  0.00271   0.1352      0.0387   6.43558     18.44478   3158.01688    -4.87012  1.42414  11128.37186  0.00155  57324.15988  52.64899   0.16333  22.49989  57370.07767 
    14.31342  1.88461  1.14284       1.51481         2073.33922  0.00971  0.16883     0.27217   5.36165     20.13807   4069.48557    -4.91926  1.43661  10693.95454  0.07635  57324.11074  52.59497   0.56016  22.53853  57370.07767 
    14.33611  1.88884  1.07444        0.2064         2197.02763    0.034   0.2502     0.24895   5.68424     16.54877   7581.99294    -7.00399  0.97003  11902.52195    2e-05  57322.02601  52.69429   1.99026  22.53553  57367.38589 
    14.20977  1.42296  0.73903       1.07793          2447.6754  0.00643  0.19411     0.10861   2.73211     20.11952   6426.61069    -2.36573  1.31188   7882.11633  0.07316  57326.66427  52.24957   0.30814  22.49897  57370.07767 
    14.34316  1.68669  1.24581       1.73299         2012.30397  0.01056  0.07654     0.17392  11.89727     19.85987   3221.43034    -3.71137   0.8471  11240.09128  0.04023  57325.31863  52.71735   0.73078  22.52211  57370.07767 
    14.34206  1.63099  1.24558       0.76314         2522.09022  0.00773  0.20288     0.29709   3.28556     17.29567   7539.39892    -4.80202  0.89933   9320.83202  0.00011  57324.22798  52.41871   0.39112   22.5442  57375.46123 
    14.30699  1.91238  1.24187       0.38676         2298.63868  0.00276  0.15805     0.01985   5.68741     18.17118   8269.90535    -8.30268  1.37539  10111.53573  0.00082  57320.72732   52.5527   0.16169  22.50039  57370.07767 
     14.2914  1.64874  1.20789       0.88391           2308.923  0.03633  0.20583     0.01649   3.15831     18.38374   9374.76401    -5.37295   1.5481  10285.26363  0.00134  57323.65705   52.4993   1.81789  22.52975  57364.69411 
    14.30574  1.63615  0.86474       0.37281         2050.48726  0.15762  0.14573     0.30212   8.22055     18.30168   8991.67491    -3.31219  1.27387  15294.76071  0.00111  57325.71781  52.94998  10.06671  22.52429  57367.38589 
    14.27255  1.47018  1.00101       1.93386         2030.73883  0.26654  0.02337     0.49362  38.77195     18.11097   7225.38654    -4.14004  1.25279  11352.78544  0.00072  57324.88996  52.82183  23.00136  22.57962  57367.38589 
    14.39458  1.81348  1.72068       0.40936         3106.61522  0.10816  0.27514     0.02165   2.70436     18.22121   9773.86232   -15.36564  0.61475   7893.65188  0.00092  57313.66436   52.2495    5.1687  22.57331  57370.07767 
    14.41495  1.90334  0.88928       0.81768           2268.629  0.01717  0.12703     0.05962   5.75178     19.75931   7218.97684     -2.8935  1.51715  10989.61262  0.03192   57326.1365  52.62624   1.00804  22.54187  57370.07767 
    14.31796  1.84425  1.56952       1.25656         2014.09222  0.02229  0.18321     0.05057   4.38931     18.67933   7736.25336    -7.82033  1.10343   9998.29498  0.00265  57321.20967  52.51419   1.22152  22.48648  57370.07767 
    14.33016  1.71814  0.90562       1.03097         2187.11601  0.01528   0.2091      0.3431   6.01008      16.1963   5854.00675    -2.91034  1.04687  12236.00835    1e-05  57326.11966  52.72423    0.9068  22.56123  57370.07767 
    14.69156  2.06112  0.89346       2.29325         2025.62561  0.14921  0.11073     0.31769  10.36874     19.20302   7575.17342     -3.2033  0.48672   8390.80234  0.00887   57325.8267  52.45076  10.03069  22.55411  57375.46123 
    14.45972  2.05811  0.99163       0.97358         2260.67111  0.00976  0.11387      0.1122   7.80867     18.27883   8519.52533    -3.90338  1.13268   9577.99007  0.00106  57325.12662  52.53836   0.61615  22.50989  57370.07767 
     14.1815  1.60677  1.68542       1.02809         2147.22152  0.18088  0.15182     0.39932   3.87344     17.11297   4572.69511    -5.90112  1.25943   9435.51652    7e-05  57323.12888   52.4493   9.58371  22.61093  57370.07767 
    14.49268  1.89592  0.84502       0.52557         2515.88975  0.00175  0.10158     0.15505  12.27728     16.01111    8678.4653    -4.15195  0.79737  11936.37374    1e-05  57324.87805   52.7724   0.12174  22.51857  57370.07767 
    14.32874  1.81354  1.45856       1.63952         2068.25048  0.02709   0.1368      0.3115   5.19573     17.41015   6725.46227    -4.63367  1.11589   9489.30116  0.00014  57324.39633  52.48773   1.55058  22.56847  57375.46123 
     14.2023  1.53934  0.77122       0.57536         2464.22048  0.00702  0.03169     0.09169  36.81173     19.57936   3993.98274    -4.23067  1.20848  10750.70436  0.02109  57324.79933  52.77071   0.60073  22.48718  57367.38589 
    14.47696  1.97404  0.90825        0.8883         2261.07173  0.02786  0.15941     0.18103   6.82425     17.32245   3665.39777    -2.43042  0.94467  11529.22418  0.00012  57326.59958  52.68579   1.70437  22.53303  57370.07767 
    14.45419  2.08101  1.75174       0.96618            2301.29   0.0095   0.2137     0.02917   2.68812     19.34716   9061.28817    -5.40737  0.98878   8753.52078  0.01236  57323.62263  52.33852   0.45313  22.55902  57370.07767 
    14.40249  1.95485  0.79334       1.70975          2000.2284  0.30009   0.1955     0.08925   6.25838     17.02512   6240.55174    -1.74946  1.50844  10966.33766    6e-05  57327.28054  52.63334  17.98233  22.55973  57370.07767 
    14.75146    2.135  0.80287       0.52308         2010.25798  0.05764  0.07193     0.05586  11.18371     18.11412   5242.81283    -2.11989  0.69241  13104.30139  0.00072  57326.91011  52.84499   3.93803  22.62829  57370.07767 
    14.23837   1.6422  1.27058       0.16638         2409.77124   0.0412  0.05538     0.08438  15.95261     19.52193   8867.41191    -3.44855  1.53187  13953.49839  0.01848  57325.58145  52.93101   3.02647  22.59442     57373.04 
    14.19194  1.67368  1.94161       1.97081         2011.57883  0.40775  0.06151      0.0469  11.14015     17.28292   4770.20304    -7.33549  1.50288  10619.12515  0.00011  57321.69451  52.66198  27.83368  22.55456  57370.07767 
    14.35671   1.5011  1.21086       0.08957         2333.75498  0.01634  0.24618     0.04579   3.03797     18.83467   7742.24621    -5.73819  0.76329  12384.20002   0.0038  57323.29181  52.65571   0.80831  22.48724  57370.07767 
    14.45588  1.99873   1.6316       0.48382         2357.18643  0.00122  0.17145     0.13432   4.27392     17.58077   3061.01317    -4.96847  0.92767  11980.39302  0.00021  57324.06153  52.66822    0.0662   22.5575  57370.07767 
    14.47407  2.00867  1.68605       1.15809         2040.01536     0.04  0.06259     0.26057   10.9569     17.65845   4158.90992    -2.62086  1.08951   13424.8838  0.00025  57326.40914   52.8641   2.72099  22.51532  57370.07767 
    14.43879  1.63981   0.9012       1.06225         2599.34936  0.00166  0.09799     0.22907   7.24811     18.82796   8361.84167    -2.72501  0.76844   8687.58249  0.00374  57326.30499  52.44614    0.1027  22.51475  57372.76945 
     14.3438  1.91168  1.51382       0.79594         2227.66248  0.48185  0.15809     0.04672   6.40738     18.68829   7217.72432    -6.25602  1.32523  12651.12384  0.00271  57322.77398  52.75993  29.03743  22.61197  57375.46123 
    14.29291  1.67667  0.87233       0.88782         2057.66391   0.0012  0.13202      0.4224   7.35117     19.45165   3324.78287    -3.36396  1.23414  10558.38109  0.01572  57325.66604  52.61696   0.07485  22.59851  57370.07767 
    14.40114  1.78469  1.04023       0.15165         2464.85326  0.28101   0.1429     0.02015   8.95637     18.88291   4452.56635    -3.18158   0.9188  14837.77324  0.00424  57325.84842  52.93199  18.29565  22.56988  57367.38589 
    14.36851  1.64293  0.76232        0.6659         2455.47596  0.00278  0.16146     0.07942   4.35992     17.61764   7425.93739    -2.67855  1.11939  10019.15446  0.00023  57326.35145  52.51523   0.15197  22.52616  57367.38589 
    14.22316  1.44524  1.50833       0.29503         2175.13929  0.20502  0.13944     0.27753   6.82322     16.66996   6189.73955    -10.4111  0.67883  10987.48465    3e-05   57318.6189  52.64398  12.54171  22.53259  57370.07767 
    14.45619  1.72994  1.03947       2.05192         2043.53208  0.15058  0.02169     0.25445  37.70595      17.7968   6992.59776    -2.53426  0.92281  11177.71441  0.00035  57326.49574   52.8063  12.93356  22.55436  57375.46123 
    14.47354  2.09549  1.86875       1.16221         2155.03834  0.00307  0.06443     0.29832     9.515     17.99264   7969.88536    -5.07208  0.97292   9866.74104  0.00055  57323.95792  52.58339   0.20229  22.61356  57370.07767 
    14.57241  1.83199  2.21474       0.91544         2067.16036  0.02171  0.15086     0.31459    4.0735     16.12394   8580.29607    -6.62987  0.43978  11157.03376    1e-05  57322.40013   52.6008   1.16583  22.57982  57370.07767 
     14.4009  2.07871  1.71716       0.21289          2194.5826  0.02088  0.17493     0.28657   5.92986     18.20268   6580.56507     -4.9282  1.06033  14951.45907  0.00089   57324.1018  52.89689   1.23518  22.51258  57370.07767 
    14.39089  2.00856  1.33523       0.56647         2646.60259  0.00405  0.10336     0.17906   7.29509      19.1403   5743.09024    -3.33362  1.47202   11278.7796  0.00767  57325.69638  52.67352   0.25155  22.51958  57367.38589 
    14.33456  1.81402  1.30409       1.17922          2349.7103  0.10306  0.16698     0.11857   4.81367     19.95859   4580.71598    -5.50084   1.0805   9753.59732   0.0505  57323.52916  52.50312   5.78425  22.46167  57372.76945 
    14.46679  1.82741  0.95895       0.54074         2379.77958  0.03378  0.13955     0.01403   7.68699      17.4511   5928.52655    -4.41356  0.78165  11478.94914  0.00016  57324.61644  52.69405   2.12462   22.5791  57370.07767 
    14.12738  1.47721  1.90094       0.68833         2228.11907  0.30255  0.16972     0.21129   3.32503     16.00853   7093.74485    -8.91868  1.09158  11310.59196    1e-05  57320.11132  52.58825  15.36201  22.44798  57367.38589 
    14.55965  2.03225  1.07772       0.06935         2406.45378  0.19812  0.09975     0.32152  12.23584      18.0376   5523.37231      -3.563  0.75193  14246.64631  0.00061    57325.467  52.92578  13.79244  22.53242  57372.76945 
    14.65972  1.90059  1.72277       0.20919         3331.86376  0.00819   0.1961      0.1116   3.09647     18.86142   5581.26492    -7.11025  0.39814   9917.73992  0.00404  57321.91975  52.46521   0.40722  22.56562  57370.07767 
    14.35888  1.74041  0.95248       0.22893         2059.23478  0.01023  0.11782     0.04386   9.70219     16.14548   8195.19642    -2.84693  1.09406  14820.86488    1e-05  57326.18307  52.93864   0.67771  22.54346  57370.07767 
     14.2981   1.8571  1.86065       1.38238         2183.14194    0.233  0.21879     0.01595   2.61763     16.29375   8553.06196    -6.69361  1.26561   9411.42434    1e-05  57322.33639  52.39795  11.02493  22.54411     57373.04 
    14.44565  1.70566  0.75733       1.47696         2176.63421  0.06745  0.15711     0.07321   7.12128     19.29139   5598.78212    -2.38118  0.76675   10137.3345  0.01087  57326.64882  52.57839   4.16799  22.57893  57372.76945 
    14.42289  2.15351   2.0502       0.89645         2124.16096  0.09502  0.20939     0.42629   2.16472     16.33683    5615.8567    -5.46844  1.45879    8885.3855    1e-05  57323.56156  52.32201   4.23486  22.55756  57370.07767 
    14.36832  1.88768  0.89136       1.32107         2047.55724  0.10601  0.18298     0.20891   7.00913     16.41063   3536.76361    -2.55849  1.15403  11170.72313    1e-05  57326.47151  52.66109   6.52584  22.57925  57370.07767 
    14.34299  1.90876  1.38671        1.4285         2041.92516  0.00411  0.13214       0.146    7.5254     18.21352    4729.0354    -4.39116  1.17259  11723.22241  0.00091  57324.63884  52.71022   0.25746  22.61927     57373.04 
    14.39612  1.92852  1.40805       1.30095         2009.47346   0.0031  0.14223     0.05155   6.20738     16.13229   5174.12668    -4.25535  0.98806  10689.60062    1e-05  57324.77465  52.61028   0.18562  22.54551     57373.04 
    14.36715   2.0505  2.10506       0.66873          2079.9611  0.00923  0.10578     0.33179    5.7479     17.68806   9004.15404    -5.35706  1.24094  11986.40646  0.00027  57323.67294  52.70158   0.54156  22.54897  57372.76945 
    14.03147  1.07572  1.31281        1.5864         2150.54098  0.00273  0.14658     0.22271   3.69198     19.27719   5973.38203    -4.45691  0.98892  10668.44489  0.01052  57324.57309  52.55025   0.14266  22.55021  57370.07767 
    14.41735  1.70974  0.83881       0.63184         2108.71486  0.00148  0.09651     0.02268  12.60558     19.97722   8680.60296    -2.89146  0.76879  13398.62281  0.05272  57326.13854  52.87515   0.10359  22.53609  57370.07767 
    14.34959  1.82956  1.04869       0.03808         3066.61788  0.18754  0.20963     0.18212   5.17465     18.94035   3929.84843    -7.91652  0.98404  10734.31018  0.00484  57321.11348  52.59436  10.72236  22.48524  57370.07767 
    14.22132  1.54307  0.83423       1.46833         2063.56694  0.02611   0.0908     0.02866  14.31828      16.5817   8231.68706    -4.70086  0.98067   9396.47586    2e-05  57324.32914  52.57823   1.87674  22.60496  57372.76945 
    14.29998  1.80093   1.6431       1.03306         2071.61557  0.00118  0.17599     0.48904   4.31183     16.96019   4618.18337    -5.69148   1.2346  10757.06354    5e-05  57323.33852  52.57568   0.06447   22.6077  57367.38589 
    14.64313  1.83862  0.77178       0.74187         2159.44074  0.15421  0.10143     0.12998   8.37598      17.6351   6808.73231    -2.31764  0.59731  11197.31496  0.00024  57326.71236  52.68096   9.89068  22.60895  57378.15301 
