 log(Bfield)      Mns    Pspin  cutoff_power  cutoff_wavelength  fnickel    kappa  kappagamma   mejecta  log(nhhost)  temperature  texplosion  thetaPB     vejecta      A_V        MJD_0   log(KE)      M_Ni  Peak_mag     Peak_MJD 
    14.10009   1.5028  1.13132       3.78933         2964.68651  0.08709  0.05574     0.43204  39.28163     18.18228   9428.78752    -6.29348  1.52247  7679.38193  0.00085  58012.87652  52.48323     7.532  21.27068  58065.01361 
     14.0576   1.4935  1.31294       2.93189         3144.07043  0.01962  0.04529     0.06101  44.75322     17.46666   8136.61508   -10.18564   1.1377  6631.35852  0.00016  58008.98436  52.36515   1.73415  21.23144  58067.81281 
    14.21976  1.89449    1.409       3.25697         3102.41927  0.07101  0.07258     0.10058  26.79666     19.44718   9615.02496    -6.55629  1.54968  6915.23809  0.01556  58012.61371  52.36349   5.74892  21.24715  58067.81281 
    14.12645  1.40994  1.13637       3.34407         3128.08841  0.21672  0.06189     0.06132  25.82762     16.44752   4707.95215    -7.25763  1.18525   6245.7254    2e-05  58011.91237  52.27217   17.4294  21.27129  58067.81281 
    14.16183  1.45946  0.99181       4.31816         2909.99425  0.34856  0.09485     0.19473  20.80666      17.9656   9475.79411    -4.78616  1.45044  7561.65763  0.00051  58014.38384  52.42102  26.94231  21.24127  58065.01361 
    14.11743  1.68997  1.24494       3.89666           2982.842  0.04386  0.11352      0.0275  17.46888     20.10109   8837.05903    -6.47877  1.35508  6624.89973  0.07012  58012.69123   52.2917   3.27896  21.26035  58067.81281 
    14.19999  1.58572  1.56705       4.87979         2894.60152    0.182   0.0375     0.01172  44.55538     17.78805   6044.60845     -8.4364  1.26977  7368.62466  0.00034   58010.7336   52.4564  16.07222  21.27406  58062.21441 
    14.26903  1.95728  1.72198       4.59801         2957.60358  0.08249  0.03094     0.15654   51.3573     18.96725   7599.00167    -6.91422    1.351  6174.36976  0.00515  58012.25578   52.3128    7.4538  21.25696  58065.01361 
    14.12634  1.28545  1.12921       3.25264         3087.49925  0.22687  0.03758     0.20321   42.4968      18.5791   9741.86116    -5.45019  1.34088  7867.21598  0.00211  58013.71981  52.50989  19.87961  21.24042  58067.81281 
    14.08922  1.39819  1.58529       3.37746         3169.58497  0.29225  0.04329      0.2982  25.48942     19.59089   9718.68101    -8.06451    1.513  5831.15887  0.02166  58011.10549  52.21148  23.44764  21.25536  58067.81281 
    14.36687  1.75466  1.59441       4.53485         2939.67349  0.27084  0.03547     0.08324  37.30621     18.98084   9645.51995    -6.53164  1.18365  6925.87436  0.00532  58012.63836  52.38976  23.22229  21.27882  58067.81281 
    14.13439  1.86586  2.01898        4.9277         2846.93256  0.04545  0.04184      0.0747  46.09965     19.47467   4426.22648    -11.7511  1.43356  7270.12676  0.01657   58007.4189  52.44713   4.03565  21.24226  58062.21441 
    14.26797  1.72637  1.41206       2.95446         3173.62127   0.1151  0.03694     0.09434  43.68487     18.51564   9988.97448    -7.22583  1.05567   6499.7004  0.00182  58011.94417  52.34601  10.13182  21.28053  58065.01361 
    13.93709  1.17678  0.89354       3.92981         2961.60352  0.06077  0.06449      0.0527  32.97453     18.45143    7730.3148    -5.96957  1.23009  6644.53878  0.00157  58013.20043  52.34461   5.10218  21.24498  58065.01361 
    14.16512  1.58235  1.33846       4.31828         2938.14338  0.06309  0.05693     0.43944  31.47783     19.65528   5496.09094    -6.89366  1.01107  6573.29062  0.02512  58012.27634  52.33175   5.25438  21.28559  58067.81281 
    14.04204  1.31287  1.36825        4.0593         2962.92445   0.1655  0.04178     0.18396  38.72196     17.63757   7586.18454    -8.37497  1.24166  6784.38697  0.00024  58010.79503  52.37455  14.27949   21.2549  58065.01361 
    14.34258  1.93044  1.44267       4.40363         2911.18812  0.24735  0.07548     0.06495  26.30286     18.46509   8883.12316     -7.1349  1.07691  7211.56286  0.00162   58012.0351  52.39848  19.95773  21.26087  58065.01361 
    14.19514  1.59424  1.25095       2.65977         3308.26655  0.01166  0.10024     0.02809  18.93085     19.08572    5434.9774    -7.85856   0.8555  6192.35358  0.00677  58011.31144  52.23975    0.8856  21.29124     58064.05 
    14.31005  1.94292   1.2683       2.92196         3121.81189  0.16345  0.09299     0.22804   22.2988     17.87431   9889.50863    -6.20038  1.13503   6823.9652  0.00042  58012.96962  52.33745  12.79816  21.27144  58067.81281 
     14.2165  1.64094  1.21857        4.7326         2907.33994  0.18458  0.05556     0.01326  34.12603     17.42254   6114.29597    -4.72233  1.47635  7413.64424  0.00015  58014.44767   52.4423  15.58846  21.22674  58065.01361 
    14.26646   1.9505    1.982       4.34053         2943.75441  0.23327  0.06838     0.03549  22.59311     19.28152   8567.59418    -8.19123  1.38893  6911.87617  0.01062  58010.97877  52.34962  18.30903  21.22383  58067.81281 
    14.08058  1.59795  1.50206       3.03898         3016.82548   0.1347  0.08898     0.05267  22.92339     16.24718   9787.28654   -10.18191  1.33126   7153.3259    1e-05  58008.98809   52.3806  10.60066  21.30184  58065.01361 
    14.21465  1.67693  1.50162       2.89785         3213.10417   0.2029  0.04588     0.02207  31.60703     19.05472   9950.09338    -7.06729  1.37537  6608.66093   0.0063  58012.10271  52.33672  16.91018  21.27563  58067.81281 
    13.85558  1.17529  1.28832       3.84822         2965.23852  0.06399  0.04672     0.48792  36.80941     19.71786   4113.59441    -9.84272  1.49471  6544.00346  0.02901  58009.32728  52.33952    5.4745   21.2658  58067.81281 
     14.1785  1.63697  1.49496        4.4328         2942.42234  0.12877  0.06387     0.01009  30.21271     18.48299   5266.37532    -7.61769  1.08929  7187.52305  0.00169  58011.55231  52.40624  10.64801   21.2615     58064.05 
    14.09831  1.54814  1.14524       3.82625         3022.15901  0.06063  0.05419     0.02044  35.57949      17.3883   4491.47484    -5.95424  1.54892  6363.96988  0.00014  58013.21576  52.31278   5.15678  21.26161  58067.81281 
    14.07385  1.69724   1.9081       3.19258         3051.93535  0.04796  0.04367      0.1614  41.95818     16.08793   9011.79324   -11.32756  1.38647  7477.60098    1e-05  58007.84244  52.46486   4.19349  21.26726  58067.81281 
    14.22382  1.95811  2.23279       4.74754         2912.32197   0.1263  0.04079     0.04771  35.17496     18.83711   7756.82811   -11.40413  1.31074  6231.32031  0.00382  58007.76587  52.29364  10.72148  21.25675  58067.81281 
    14.28188  1.79274  1.37483       3.33672         3122.39158  0.40776   0.0793     0.45457  18.19668     19.64394   6892.43292    -7.42213  1.28852  5953.61606  0.02447  58011.74787  52.20232  30.72783  21.26659  58067.81281 
    14.32448   1.7353  1.39594       3.09522         3205.31093   0.3036  0.04345     0.05403   31.0989     19.36579   5201.58041     -5.5409  1.31796  6932.72679   0.0129   58013.6291  52.37708  25.23196  21.28341  58067.81281 
    14.13797  1.67602  1.53694       4.49509          2907.0768  0.14401  0.09815     0.10399   20.2409     19.65018   6262.35549     -8.2504  1.26056  7495.50263  0.02483   58010.9196  52.41114  11.07433  21.26232  58067.81281 
    14.30974  1.88631  0.92908       2.77629         3285.25142  0.02244  0.08978     0.01227   25.6715     18.62607    3659.2076    -4.91807  0.99117  6333.32418  0.00235  58014.25193  52.28379   1.80242  21.25911     58064.06 
    13.94753  1.27173  1.20233       3.05265         3266.00189  0.13609   0.1034     0.22286  13.81163     19.47654   5868.06331    -8.50522  1.38079  5315.70115  0.01664  58010.66478  52.08026   9.71297  21.22994  58065.01361 
    14.21244   1.4099  1.74886       2.71502         3311.98264  0.32377  0.03251     0.13121  32.12787     19.29875   9246.58713   -10.18308  1.03062  6196.63629  0.01105  58008.98692  52.28204  27.06018  21.29228  58067.81281 
    14.22501  1.69871  1.20075       3.19865         3106.26761  0.20189  0.10093     0.02219  19.96849     18.99313    4759.5463    -6.43866  1.14287  7060.70881  0.00547  58012.73134  52.35813  15.48549  21.26242  58067.81281 
    14.30744  2.01162  2.17186       3.33095         3111.35766  0.44679  0.07502     0.02846  18.33646     19.33991   5923.12935    -9.07034  1.43978  6801.52214  0.01215  58010.09966   52.3186  33.71878  21.20723  58067.81281 
    14.25172  1.68063   1.1037       2.34915         3269.10215  0.27617  0.08353      0.0303   24.1361     18.55168   5124.65052    -6.58216  1.18471   7352.2087  0.00198  58012.58784  52.40852  21.93942  21.25301  58065.01361 
    14.31221  1.97277  1.61107       2.74578         3247.57399  0.17899  0.04568     0.01077  34.77474     18.99451   9255.87174    -8.70969  1.36354  6384.35739  0.00549  58010.46031  52.31387  15.16472  21.26051  58067.81281 
    14.26324  2.08174   1.7425       4.44974         2913.10715  0.05036  0.05012      0.0143   39.2761     18.18072   6245.09353    -7.80413  1.43074  6897.58314  0.00084  58011.36587  52.38996   4.35564  21.24333  58067.81281 
    14.14476  1.44505  1.40155       2.60905          3241.6152  0.20344  0.06835     0.20558  24.22263     18.77507   8579.55703    -9.21622  0.96246  6767.43989  0.00331  58009.95378  52.33681   16.1722  21.28086  58067.81281 
    14.28029   1.5775  1.59038       4.11672          2977.5686  0.17636  0.03924      0.1708  40.30148     17.73267   4502.99364     -6.5888  0.87447  7236.56821   0.0003   58012.5812   52.4335  15.31818  21.29183  58065.01361 
    13.84031  1.15291  1.17897       4.72656         2898.63569  0.03069  0.09446     0.03646  21.43903     19.34791   4679.63108    -8.55533  1.48448  7024.92743  0.01238  58010.61467  52.35949    2.3858  21.24311  58067.81281 
    14.28913  1.66902  1.01838       2.87191          3254.7442     0.25  0.04783     0.17019   30.3005     16.23232   4144.13301    -4.57573  1.33045  6223.57468    1e-05  58014.59427  52.28138  20.68297  21.26541  58067.81281 
    14.20744  1.51645  1.04563       2.70911         3259.50932  0.02208  0.08098     0.07076   25.1057     19.28314   9400.39909    -6.23428  0.83187  6739.46675  0.01066  58012.93572  52.33604   1.76655  21.25546  58065.01361 
    14.04171  1.32827  1.61376       2.82622         3133.40986   0.2714  0.04811     0.32047  31.08369     17.26886   4813.15389   -11.46378   1.2877  6922.24729   0.0001  58007.70622  52.37573  22.55373  21.23023  58065.01361 
    14.17244  1.80233    1.376       3.90345         2978.85806  0.06571  0.08845     0.02831  24.61797     20.06594   7552.81128    -7.77463  1.19658  7175.41483  0.06466  58011.39537  52.38894    5.2393  21.23319  58067.81281 
    14.28591  1.84347  1.08009        3.1206         3158.32578  0.09844  0.05828     0.03417   31.5648     19.25147   5765.26743     -5.4564   1.1803  6335.24099  0.00991   58013.7136  52.29992    8.2022  21.24169  58062.21441 
    14.31685  2.07715  1.40417       3.98057         3025.48515   0.1328  0.09099     0.03439   19.2923     19.66364   7100.43714    -6.33176  1.24837  5849.04935  0.02561  58012.83824  52.19177  10.11971  21.26743  58067.81281 
    13.96076  1.24714  1.52628       4.03436         2939.60769  0.26181  0.05244     0.22173  28.09599     19.75767   4357.07708   -10.91019  1.49378  6679.52973   0.0318  58008.25981  52.33702  21.37454  21.28096  58067.81281 
    14.30088  2.06307  1.44512       2.62479         3178.66065  0.12614  0.07704     0.01446  28.28258     17.42107   7111.68996    -7.08675  1.33301  7485.78774  0.00015  58012.08325  52.43651     10.31  21.25334  58067.81281 
    14.24708  1.75903  1.30848       4.40484         2948.89791  0.18376  0.04917     0.01258  40.26528     19.33428   5763.42421    -5.85166  1.50119  7424.26172    0.012  58013.31834  52.45567  15.95889  21.21075  58067.81281 
    14.17726  1.44865  0.70791        2.7605         3233.68976  0.22719  0.06579      0.1483  27.94658     19.79264   5164.60519     -5.1541  1.23997  6479.53784  0.03446   58014.0159  52.31021  18.53055  21.25644  58067.81281 
    14.49915  2.13246   2.0481       3.81458         3025.10405  0.26391  0.03005     0.10643  41.28159     18.90653    9850.9835    -7.22214  1.19311  7028.04491  0.00448  58011.94786  52.40984  23.01387  21.26442  58067.81281 
    14.02439  1.24827  0.98598       3.04594         3116.77665   0.1494  0.10272     0.01764  19.54322     18.11798   4977.87079    -6.38059   1.0802  7098.95174  0.00073  58012.78941  52.36105   11.4127  21.24454  58067.81281 
    14.25582  1.53619  1.48031       3.21974          3221.2637  0.20397   0.0382     0.24554  32.12137     18.62961   4764.42714    -7.61547  0.88815  5496.55469  0.00237  58011.55453  52.17789   17.0467   21.2492  58067.81281 
    14.07042   1.4426  1.02671       2.85283          3197.8424  0.04354  0.04754     0.18802  43.50843     17.68963   5056.51072    -6.48822   1.2753   6792.9627  0.00027  58012.68178  52.38405   3.83015  21.27097  58067.81281 
     14.1208  1.50574  1.47736       3.92946         2976.86493   0.0068   0.0536     0.01497  33.51907     18.17427   7057.95989     -8.6822  0.88443   6462.4212  0.00083   58010.4878  52.32169   0.57276  21.26186  58067.81281 
    14.33288  1.70376  1.78657       4.78175          2893.9925  0.22507  0.04714     0.07299   34.4063      18.0968   8966.67108    -9.14397  0.84672  7430.81995  0.00069  58010.02603  52.44492  19.03424  21.27292  58067.81281 
    14.31131   1.6381  1.19663       2.46851         3282.72568   0.2511  0.06963     0.03623  25.07724     18.30592     4700.023    -6.56535  0.90237  7123.81859  0.00112  58012.60465  52.38412  20.08673  21.23437  58067.81281 
    14.30146  1.79558  1.57393       3.18804         3113.21942  0.04256  0.05243     0.02974  37.11588     17.95367    3645.5667    -8.12623  0.79031  6796.82696   0.0005  58011.04377  52.37305   3.64602  21.26086  58067.81281 
    14.38143  1.86193  1.49858       3.82945         2963.87534  0.38396  0.06539       0.112  23.72726     18.88567   8345.77024    -6.50298  1.16664  7293.47715  0.00427  58012.66702   52.4002  30.40815  21.24829  58067.81281 
    14.31062  2.00728  1.65069       4.67402         2897.57121  0.36379  0.08725     0.05592  17.88951     19.97309   7480.39638    -6.30554   1.5682  6606.09364  0.05222  58012.86446  52.29122  27.32506  21.21961  58067.81281 
    14.21049  1.84812  1.44944       3.25937         3139.19665  0.05783  0.06446     0.01373  29.03004     18.79834   9075.68196    -7.23744  1.21564  6269.43608  0.00349  58011.93256   52.2845   4.74828  21.26544  58067.81281 
    14.18977  1.50934  1.28428       3.29231          3174.6071  0.31641  0.06811     0.31206  19.99319     19.66468   7095.90394    -6.65664  1.11759  6071.15974  0.02567  58012.51336  52.22708   24.2745  21.26056  58067.81281 
    14.11545  1.51398  1.42764        3.4702         3081.40082  0.10366  0.04984     0.46757  34.76128     18.59416   7164.43966    -9.28984  1.11069  6402.24387  0.00218  58009.88016  52.31627   8.78207  21.25666     58064.05 
    13.93417  1.24308  1.60611       4.24692         2943.32591  0.15964  0.04446     0.21525  32.40508     18.41928    3310.1264    -9.96701  1.53025  6710.15037  0.00146  58009.20299  52.35183  13.36244  21.27117  58065.01361 
     13.9893  1.54403  1.86936       4.31872         2926.14635  0.07524  0.07069     0.14699  23.34948      19.7268   8653.97715   -12.88907  1.40299  6692.37141  0.02962  58006.28093  52.32421   5.94136  21.30719  58067.81281 
    14.10554  1.52044  1.76202       4.62986         2878.76969  0.07945  0.03774     0.03383  43.14432     18.79379   4874.80266    -9.64038  1.06167  7127.45661  0.00346  58009.52962   52.4252   6.97879  21.24944  58067.81281 
    14.14305  1.51259  1.18878       3.04409         3279.06018   0.0908  0.08969     0.01241  17.57626     18.69089   5219.28501    -7.48948  1.03485  5452.87241  0.00273  58011.68052   52.1231   6.79715  21.26415  58067.81281 
    14.29974  1.77289  1.78648       4.91146         2840.80407  0.15737  0.06586     0.06388  30.21243      19.6937   9107.42054     -8.5587  0.80285  7836.43679  0.02744   58010.6113  52.48132  13.01325  21.28119  58067.81281 
    14.09579   1.5468   1.4399       2.69485         3289.54514  0.11539  0.06871     0.01977  22.36367     19.18384   5307.83514    -8.86506  1.22963  5853.38339  0.00848  58010.30494  52.20442   9.03931  21.18858  58062.21441 
    14.42568  1.87258  1.47688       3.73708         3152.36057  0.23384  0.03721     0.13452  31.95295     16.43526   4428.78505    -5.52121  0.96704  5684.87974    2e-05  58013.64879  52.20676  19.52593  21.25814  58067.81281 
    14.45036  1.97623  1.38104       3.14669         3107.41655  0.25567  0.03862     0.20544  37.85029     17.77525   6115.33782    -5.32396  1.10206  6763.36209  0.00033  58013.84604   52.3702  21.97472  21.23824  58067.81281 
    14.53923  1.89657   1.0782       2.85532          3208.4973  0.25514  0.02122     0.07303  52.48727     19.94333   9797.86979    -4.97876  1.16758  7128.46114  0.04876  58014.19124  52.43912  23.13519   21.2753  58065.01361 
    14.20076  1.78402  1.24714       4.34942         2944.91275  0.06171  0.05754     0.02405  42.73141     16.28389    6005.6647    -6.19996  1.23418  7307.22235    1e-05  58012.97004  52.44615   5.41209   21.2766  58067.81281 
    14.31289  1.67092  0.88962       2.80035         3134.88054  0.15172  0.06259     0.32515  31.75786     20.07291   7251.17164    -4.49085  0.89701  7227.13385  0.06571  58014.67915  52.41479  12.65547  21.25345  58065.01361 
    14.36982  2.10209  1.68853       3.49617         3041.29402  0.36777  0.09406      0.0386  19.72892      18.0533    7973.3193    -6.83883  1.25927  7484.19238  0.00063  58012.33117  52.40773  28.14418  21.24015  58065.01361 
    14.20116  1.77596  1.95575       4.88296           2915.648  0.19577  0.04682     0.01884  31.46761     19.62794   6821.91746   -10.51003  1.30996  6674.34836  0.02359  58008.65997  52.34498  16.30364  21.27806  58067.81281 
    14.08231  1.59706  1.48358       3.13973         3053.33164   0.0239  0.08402     0.29441  22.87754     17.25366   4595.14877    -8.23307  1.22304  7087.27034   0.0001  58010.93693  52.37239   1.88011  21.24041  58067.81281 
    14.31562  1.83587  1.07535        2.5208         3191.94919  0.13049  0.10094     0.01151  23.51887     18.98415   7105.74228    -5.91508  0.99609  7784.45019  0.00536  58013.25492  52.45608  10.31765  21.25459  58067.81281 
    14.37431  1.82832  1.87733       2.55941         3416.40284  0.43298  0.04909     0.04714  21.67348     19.55199   6655.08254     -8.5456  1.02568  5951.54281   0.0198   58010.6244  52.21635  33.72305  21.24806  58065.01361 
    14.25509  1.78191   1.4649       3.06586         3240.66196  0.13663  0.04777     0.37848  31.91779      19.1615   5048.61907    -8.42395  1.09741  5740.92979  0.00806  58010.74605   52.2152  11.40668  21.24049  58067.81281 
    14.33242   1.4606  1.14224       4.83988         2892.83876  0.40993  0.03989     0.38763  32.43638     19.23954   7988.78263    -6.41799  1.35862  7632.33589  0.00964  58012.75201  52.46376  34.31851  21.23406  58067.81281 
    14.46077  1.95288   1.3872       2.83994         3270.19985  0.30779  0.04207     0.01241     31.24     17.57939   4294.55225    -5.73875  1.12682  6716.65266  0.00021  58013.43125  52.34992   25.5999  21.22941  58065.01361 
    14.28796  1.86554  1.43736       4.82691         2844.59565  0.20761  0.09743     0.01745  21.31385     18.49966   3797.95323    -6.14034   1.1025  7480.53666  0.00176  58013.02966   52.4136  16.12003  21.25149  58067.81281 
    14.14244  1.65403   1.1714       3.66198          2972.1619  0.09294  0.09866     0.01231  23.31157     18.51633   7294.87645    -6.16324  1.26126  7092.40951  0.00182  58013.00676  52.37451   7.33688  21.22826  58067.81281 
