 texplosion  fnickel    Pspin  log(Bfield)      Mns  thetaPB   mejecta    kappa  kappagamma      vejecta  temperature    alpha  cutoff_wavelength  log(nhhost)      A_V         MJD0   kenergy   mnickel           TSD   log(L0)  Peak_mag     Peak_MJD  log(E_rad)  log(Peak_lum)  Rise_Time    E_fold  tau_1  delta_m15     r_peak     frac 
    -7.0379  0.03191  1.13548     14.23128  1.79673   1.0464   36.1629  0.09103     0.35912   8979.51679   4810.87772  3.87985          3032.0502     18.55704    0.002   58012.1321  17.39388   1.15391   74147.55894  47.54287  21.25275  58067.94489    51.25117       44.36746    30.7996  64.06316   61.0     0.0913  -21.72643  0.99324 
   -7.15839  0.01285  1.04113     14.17574  1.78458  1.50158  46.83418   0.0681     0.25404   8883.17442   7007.43736  2.92906         3233.32001     18.42834  0.00149  58012.01161  22.04583    0.6018   79962.50402  47.58248  21.21742  58067.94489    51.33338       44.39247   27.10364   68.9911   58.5    0.10384  -21.75274  0.99711 
   -6.21938  0.00153  0.75907     14.21187  1.71194  1.21108  39.77877  0.08754     0.19654   9170.41475   5054.34086  2.97602         3264.27568     17.93086  0.00047  58012.95062  19.95522   0.06095   34524.72257  48.20364  21.23244  58065.57948     51.2476       44.37793   29.56761  64.06316   57.5    0.10528  -21.77697  0.99987 
   -6.79865  0.14445  0.97881     14.06529  1.37494  1.19272  21.85119  0.11253     0.12582   8487.10034    4436.8901  3.11502         3225.97516     19.68694  0.02702  58012.37135   9.38903   3.15633   90555.95274  47.46881  21.24567  58067.94489    51.25029        44.3764   32.03158  62.83118   63.0    0.09996  -21.75691     0.98 
   -7.57424  0.12855   1.1748     14.10577  1.55551  1.42973  25.79732  0.10799     0.13196   9357.79253   6440.65856  3.75182         3065.78876     17.58227  0.00021  58011.59576  13.47562   3.31629  122482.83671  47.23271  21.22463  58067.94489    51.26425        44.4017   28.33563  60.36721   62.0    0.09362  -21.75494  0.97412 
    -8.0117  0.00556  1.39258      14.2314  2.00728  1.42848  36.52999  0.07525      0.0369    8177.8136    9315.1469  4.57761         2973.21799     19.56908   0.0206   58011.1583  14.57307   0.20324  124525.63338  47.18856  21.27886  58067.94489    51.26278        44.3996   29.56761  61.59919   52.0    0.10041  -21.64591  0.99842 
   -6.20086  0.20924  1.21137      14.2714  1.80056  1.30488  30.81702  0.08573     0.14393   9435.76647   7219.45231  4.29174         3024.66617     19.27834  0.01055  58012.96914  16.36711   6.44812   70304.82008  47.51071  21.24623  58065.57948    51.24444        44.3728   28.33563  65.29514   68.0    0.07625  -21.79319  0.96062 
   -5.24757  0.27378  1.10403     14.36482  1.92534  1.16129  29.07893  0.10008      0.3525  10069.57301   9235.70259   4.8979         2916.59874     19.61133   0.0227  58013.92243  17.58846   7.96125   40610.89015  47.85875  21.23885  58065.57948      51.337       44.37589   27.10364  72.68705   63.5    0.08064   -21.8244  0.96757 
  -11.59763  0.00531   1.2619     14.05583   1.4613  1.01031   22.7282  0.11721     0.03518   8022.47806    8667.0862  2.95146         3249.74858     16.59547    2e-05  58007.57237   8.72588   0.12073  167086.16581  47.00859  21.18717  58063.21407      51.232       44.37363   29.56761  60.36721   54.5    0.10002  -21.50213  0.99872 
  -10.56541  0.05059  1.36362      14.1276  1.67823  1.12303   27.2417  0.10027     0.07847   8597.17823   6491.05174  3.78159          3026.2345     19.94229  0.04864  58008.60459  12.01084   1.37826  161013.39623  47.01745  21.22022  58063.21407    51.31928       44.36841    28.7261  73.52856   60.5    0.10208  -21.60496  0.98637 
   -4.30792  0.37319  0.84183     14.33587  1.36126  1.43251  39.12265  0.03712     0.01948   9513.02602    8336.2168  4.96669         2909.64858     19.95823  0.05046  58014.86208  21.11994  14.60018   19074.61368  48.27189  21.20491  58067.94489    51.24111       44.39037   32.03158  57.90324   89.0    0.09825  -21.79566  0.96999 
   -6.12281  0.12162  0.80296     14.21127  1.42627  0.91603  42.16261  0.06383     0.37917   8804.64773   4863.55534  3.04683          3235.7879     18.01147  0.00057  58013.04719  19.49749   5.12793   32274.86008  48.10479  21.24959  58065.57948    51.31199       44.35976   29.95287   71.0698   67.0    0.08405   -21.7788  0.98302 
   -7.33624  0.17942  1.23315     14.25612  1.76209  1.53713  40.06876  0.05583     0.01511   8273.36597   7051.80104  3.42176         3191.24604     18.56323  0.00203  58011.83376  16.36054   7.18929   76496.86991   47.4492  21.26631  58065.57948    51.30765       44.38459   28.33563  71.45506   72.5    0.09674  -21.71619  0.95333 
   -6.43618   0.0317  1.19408     14.22195  1.89983  1.25539  29.41499  0.11966     0.03919   9725.39854    3971.4335  4.10483         2994.83361      18.1744  0.00083  58012.73382  16.59628   0.93259   90510.81074  47.43679  21.22531  58063.21407    51.28236       44.36873    28.7261  72.29658   58.5    0.09068  -21.78017   0.9944 
   -4.52554  0.32676   0.8036     14.17446  1.26586   1.4319  29.38827  0.05436     0.08501   7871.52761   3572.92684  3.38697         3290.94627     16.65959    3e-05  58014.64446  10.86224   9.60294    33990.6586   48.0298  21.21079  58067.94489    51.26691       44.38961    30.7996  62.83118   88.5     0.1004  -21.65336  0.97033 
   -9.57839  0.20407  1.29172     14.16125  1.39346  0.92709  25.56114  0.07189     0.03916   7602.34538   5615.78653  3.14976         3251.90235     17.66264  0.00026  58009.59161   8.81257   5.21618  102744.03441  47.17884  21.21648  58067.94489    51.32182       44.44708   28.33563  61.59919   70.0    0.10058  -21.54746  0.94271 
   -7.02177  0.05806  1.14075     14.24053  1.71518  1.01864   33.9645  0.08379      0.0125   9212.42565   3433.76695  3.68839          3046.6291     18.56743  0.00205  58012.14823  17.19493   1.97213   68461.52776  47.55333  21.25197  58067.94489    51.25333       44.37111   31.19007  64.90468   56.5    0.11266  -21.73088  0.98771 
   -9.44987  0.04487  1.27169     14.08698  1.51516  1.07888  24.66374  0.11205     0.04722   8644.78606   7105.30994  3.42646         3159.79397     19.06511  0.00645  58009.72013  10.99498   1.10675   152432.8436  47.05746  21.27462  58065.57948    51.24064       44.37313   28.33563  62.83118   59.0    0.10524  -21.62436  0.98891 
   -7.37193  0.08951  1.10499     14.16767  1.69086   1.1896  22.95814  0.12683     0.13941   8698.05433   9584.56066  3.80476         3098.57787     19.81123  0.03597  58011.79807  10.36115   2.05505   88572.11247  47.46294  21.23461     58064.05    51.33068       44.36812   29.56761  73.91903   53.0    0.10033  -21.76727  0.98757 
    -7.4719  0.19997  1.19657     14.16353   1.5354  1.29888   31.8812   0.0667     0.13377   8305.14912   4721.32165  3.46625         3207.31717     18.98942  0.00542   58011.6981  13.11767   6.37525   96127.40812  47.31634  21.25444  58065.57948    51.30685       44.37426   27.10364  71.45506   70.0     0.0932  -21.73278  0.95004 
   -7.28581  0.39341  0.95238     14.44106  1.60897  1.08013  31.53759  0.04901     0.11888   8821.71027   6121.44465  3.17155           3167.803     17.66063  0.00025  58011.88419  14.64068  12.40706   17776.80106  48.26792  21.27819  58065.57948     51.2819       44.38384   27.10364  67.75911   99.5    0.09064  -21.72262  0.96931 
   -7.88186   0.0036  1.41905     14.18079  1.81914  1.32385  27.30273  0.09361     0.12333   8793.55343   7200.76654  3.23836         3130.45605     18.90564  0.00447  58011.28814  12.59395   0.09816  147941.94947  47.05463  21.26389  58065.57948    51.23385       44.37492   28.33563  61.59919   53.0    0.10508  -21.69109  0.99907 
   -5.09524  0.01073  0.79139     14.20518  1.73262  1.30887  54.09589  0.06251     0.09039   8868.92605   5952.71231  3.60824          3084.3981     18.02162  0.00058  58014.07476  25.38245   0.58021   39170.08558  48.11781  21.20665  58065.57948    51.35301       44.36652   29.95287  78.46171   60.0     0.0851  -21.76952  0.99865 
   -5.82149  0.07981  0.98778     14.20665  1.67823  1.45539  45.39936  0.05572     0.05038   8683.41636   6306.64328  3.18166         3188.25153     18.61887  0.00231  58013.34851  20.42011    3.6233   58705.58485   47.7357  21.23952  58065.57948    51.33557       44.38232   28.33563  71.45506   62.5    0.11073  -21.72312  0.98447 
   -6.78429  0.11607  1.28867     14.23026  1.76308  1.26317  26.36147  0.09078     0.23424   8951.33333   9470.35105  3.21156         3148.15244     18.23773  0.00096  58012.38571  12.60005    3.0598   94155.75461  47.32099  21.24159  58065.57948    51.38774       44.37629   29.56761  87.47085   52.0    0.11297  -21.72794  0.97652 
   -9.15462  0.01709  1.38697     14.14623  1.73807  1.23441    26.906  0.10194     0.12304   8532.27101   5639.42104  3.52589         3112.40473     17.45728  0.00016  58010.01538  11.68438   0.45995  158330.18283  47.02521  21.24064  58067.94489    51.32019       44.38017   29.56761   68.9911   57.0    0.10279   -21.6123  0.99552 
   -6.51519  0.08782  1.14897     14.20061  1.72114  1.29754   37.1495  0.07126     0.01514   8528.89793   6243.33342  3.45167         3151.99543     17.39084  0.00014  58012.65481  16.12004   3.26241   83758.31441  47.46102  21.25242  58067.94489    51.23477       44.38592   28.33563  59.13523   62.5    0.10725  -21.71042   0.9798 
   -7.59544  0.04622  1.14806     14.16133  1.68549  1.36499  29.43086  0.09281     0.11853   9049.36089   4794.02607  3.04315         3233.53428      18.7652  0.00324  58011.57456  14.37692   1.36026   98130.69557  47.38383   21.2436     58064.06     51.2339       44.36556    30.7996  62.83118   57.0    0.10483  -21.72665  0.99105 
   -7.72026  0.01173  1.09166     14.04514  1.47363  1.34357   32.0841  0.08654      0.0434   8607.32078   6053.15222  3.20549         3215.69796     18.70847  0.00284  58011.44974  14.17924   0.37643  132464.51074  47.23896  21.23925  58067.94489    51.26604       44.39433   27.10364  61.59919   56.5    0.10772  -21.70839  0.99716 
    -5.2796  0.25262  0.88344     14.53214  1.69674  0.84779  47.23365  0.03848     0.12366   9635.65862   6685.14126  3.49766         3053.81848     16.57278    2e-05   58013.8904  26.16022  11.93205   10604.87918   48.5806  21.26481  58065.57948    51.30066       44.42801   28.33563  61.59919   91.0    0.08244  -21.77348  0.97912 
    -8.8805  0.10186  1.44376     14.20265  1.83297  1.33004  24.90955  0.10887     0.03868   9146.30323   5409.89454   3.7764         3071.42551     18.51271  0.00181   58010.2895  12.43038   2.53727   139528.5682  47.06835  21.23518  58067.94489    51.27877       44.43715    30.7996  59.13523   60.0    0.10552  -21.65797    0.976 
   -8.50866  0.01805  1.19248     14.18758  1.81708  1.37982  41.02831  0.06821     0.13607   8372.78844   8971.67873   3.2411          3191.8255     18.23768  0.00096  58010.66134  17.15738   0.74053  101141.72888  47.37039  21.21768     58064.06    51.38471       44.40862   28.33563    76.383   53.0    0.10343  -21.61242  0.99524 
  -10.40523  0.47817  1.43724     14.22522  1.49892  1.20096  20.37371  0.07729     0.03046   7989.93617   5592.11537  2.62234         3376.53152     17.55723   0.0002  58008.76477   7.75861   9.74218  101910.39016  47.12135   21.2408  58067.94489    51.26967       44.40767    30.7996  61.59919   86.0    0.09334  -21.57902  0.89111 
   -5.04583  0.35537  0.82953      14.6222  2.11028  1.46368  37.59972  0.04012      0.0766   8614.47232   9956.36246  3.18426         3245.41138     18.65599  0.00252  58014.12417  16.64444  13.36171    7681.06937   48.8701  21.24951  58067.94489    51.39152       44.43349   28.33563  73.91903   85.5    0.08546  -21.67142  0.99237 
   -8.17465   0.0863  1.07234     14.11481  1.55959  1.26759  32.07777  0.10202     0.05757   9452.43672   6934.16578  4.07076         2987.23312     17.23841   0.0001  58010.99535  17.09696   2.76837   98145.78111  47.40932  21.28443  58067.94489    51.31286       44.39455    30.7996  66.52713   63.0    0.09285  -21.67435  0.98227 
   -4.66706  0.28275  0.94337     14.40692   1.7086  1.00959  41.75396  0.05037     0.29323    9552.8445   5863.29145  4.01029         3007.91107     19.99242  0.05459  58014.50294  22.72952   11.8061   21675.63871  48.21615  21.26457  58067.94489     51.3549       44.38451   29.56761  77.61498   88.0    0.08251  -21.87323  0.96775 
   -7.05323  0.11654  1.03969      14.2929  1.67322  0.78508  36.49686  0.07319     0.13166   9308.29001   4035.98604   3.4892         3038.43511     20.31794  0.11552  58012.11677  18.86351   4.25344   43589.99643   47.8192  21.22346  58065.57948    51.28971       44.37406   27.10364  66.52713   63.0    0.08759  -21.86726  0.97775 
   -6.40588  0.47088  1.11467     14.20443  1.32403  1.50129  22.42013   0.0614     0.11444   7959.51446   5826.93387  3.26958         3254.39954     17.92524  0.00047  58012.76412   8.47302  10.55721   59586.87744   47.5213   21.2404  58067.94489    51.25662       44.39824   32.42205  59.97674   92.5    0.09828   -21.6761  0.92567 
   -8.36639  0.29232  1.22377      14.2683  1.51684  1.01182  31.93923  0.05826     0.06454   8143.58524   5321.66759  3.03151         3247.03678     18.16314  0.00081  58010.80361  12.63522   9.33659   61312.34378  47.48684  21.22117  58065.57948    51.49608       44.51937   27.10364  77.61498   85.0    0.09299  -21.64248   0.9268 
   -8.90601  0.18302  1.39759     14.13033  1.58401  1.31639  22.89598      0.1     0.03975   8571.89053   9961.80026  3.33447         3155.89551     18.77433   0.0033  58010.26399  10.03552   4.19052  157644.64545  46.98017   21.2503  58063.21407     51.2457       44.36437   31.19007  64.90468   53.5    0.10517  -21.64044  0.95459 
   -7.35428   0.3049  1.21852     14.29297  1.60321  1.19103  31.38605  0.06012     0.03979   8667.45163    7458.7958  3.39659         3142.75462     18.04925  0.00062  58011.81572  14.06522   9.56954   57348.41339  47.54365  21.24392  58065.57948    51.32143       44.38713   28.33563  67.75911   79.5    0.09154  -21.71656  0.93475 
    -8.0996  0.35257  1.50761     14.31714  1.73751  1.05091  26.57507  0.06671     0.01288   8297.39914   9305.89791  3.88714         3052.92445      20.0145  0.05744   58011.0704  10.91404   9.36948   85122.90212  47.22215  21.24638  58067.94489    51.30501       44.37976   28.33563   68.9911   63.5    0.09673   -21.7213  0.90569 
   -6.41061  0.34907  0.92298     14.18222  1.26394  1.11338  29.59141  0.06472     0.05568   8951.78977   6419.96495   3.1965         3237.75002     17.96552  0.00051  58012.75939  14.14531  10.32957   43199.66158  47.80471  21.20297     58064.06    51.23768       44.37987    30.7996  59.13523   87.0    0.09798  -21.74986  0.94809 
   -6.58584  0.11968  1.03753     14.29249  1.60537  0.87284  38.59752  0.06733      0.0535   9052.43639   7145.97206  3.28108         3156.23916     17.25115   0.0001  58012.58416  18.86764   4.61944   41726.50362  47.82201  21.24478  58065.57948    51.32092        44.3765   28.33563  70.22308   64.0    0.09349  -21.75091  0.97575 
   -7.28549  0.44121  1.35635     14.34199  1.66682  1.19494  23.39303  0.07461      0.1759   8813.76553   5972.91102  4.04971         3038.79588     18.57901  0.00211  58011.88451  10.84018  10.32125   58946.80301  47.45553  21.24024  58065.57948     51.2385       44.37426   28.33563  61.59919   89.5    0.10111  -21.72167  0.91819 
   -7.56884  0.07782  1.18532     14.17969  1.67971  1.08005  29.17124  0.11075     0.04619   9842.42434   4653.25263  4.59621         2937.16508     19.77179  0.03285  58011.60116  16.85723   2.27004   95793.85345  47.36507  21.24285  58067.94489    51.38532       44.38276    30.7996  85.00689   61.0    0.10095  -21.79225  0.98373 
   -5.95591  0.28111  0.91738     14.47682  1.95153  1.25935  40.03368  0.04953     0.09302    8932.2591   8751.21567  3.15392         3189.41282     19.13354  0.00756  58013.21409  19.05353  11.25387    16968.5062  48.40447  21.22126  58065.57948    51.25121       44.43388   28.33563  56.67126   80.5    0.10797  -21.72849  0.98187 
   -4.32607  0.27606  0.81781     14.63297  1.94128  1.10209  52.10066   0.0341     0.07011  10415.03309   8378.73449  4.89099         2905.08324     18.44251  0.00154  58014.84393  33.71256   14.3828    6535.39237  48.91636  21.23412  58067.94489    51.34201       44.37895   28.33563  78.84697   91.5    0.08895  -21.79565  0.99086 
   -5.18488  0.11641  0.93837      14.3632  1.87515  1.11312  48.09435  0.05461     0.27821   8830.14469    9483.3352   3.5778         3143.90997     18.42443  0.00148  58013.98512  22.36953   5.59869   28787.32853  48.13793  21.22859  58067.94489    51.27494       44.38757    30.7996  64.06316   58.0    0.06883  -21.75799  0.98487 
   -6.26136  0.09789   1.1471     14.25171   1.7875  1.39785   47.6761  0.04529     0.06837   7945.93368   7449.83841  2.96052         3307.94724     18.51221  0.00181  58012.90864  17.95634   4.66679   68522.58093  47.56606  21.24616  58067.94489    51.27129       44.37822   31.19007  62.44071   65.0    0.10144  -21.71852  0.97424 
   -5.93563  0.31719  0.80299     14.46339  1.60715  1.22149  52.19665  0.02837     0.07185   9509.52439   6409.35315  3.81944         3073.69096     20.24587  0.09786  58013.23437  28.15706   16.5561   11389.73669  48.60897  21.20492  58065.57948    51.24132       44.38473    30.7996  57.90324  111.0    0.08012  -21.86157  0.98151 
   -7.15115  0.20882  1.04875     14.23415   1.7073  1.33843  26.91201  0.09656     0.34085   9279.38312   9376.95099    2.704         3267.61405     17.04235    6e-05  58012.01885   13.8233    5.6198   59313.91797  47.68666  21.23714  58065.57948    51.29046       44.38148   27.10364   68.9911   57.5      0.096   -21.7897  0.97333 
   -6.50859  0.20369  0.99966     14.24588  1.57085  1.44664  42.61018  0.04954     0.08165   8625.69662   7015.77665   3.5002         3126.28784     17.18076    8e-05  58012.66141  18.91163   8.67926   46977.75408  47.79339  21.23862  58065.57948    51.29623       44.43561   28.33563  60.36721   80.0    0.07935  -21.69545  0.96265 
    -7.9689  0.05296  0.94331     14.08742   1.4077  1.03547  31.50466  0.09677     0.15361   8792.53106   4706.05714  3.29919         3171.13492     18.74039  0.00306   58011.2011   14.5288   1.66841   77767.84233  47.57725  21.23984  58065.57948    51.31697        44.3701   28.33563  70.22308   60.0    0.09979   -21.6769   0.9904 
   -7.25005  0.19152  1.23206     14.28336  1.79847    1.167  30.01984  0.07671     0.03771   8719.33814   3517.59759  2.97414         3214.41229     19.59713  0.02197  58011.91995  13.61453   5.74946   68749.31984  47.50521  21.25202  58067.94489    51.26433       44.39288    30.7996  61.59919   68.0    0.09068  -21.75494  0.96294 
   -6.64714  0.20142  1.39439      14.2318   1.7379  1.51114  27.64384  0.07487     0.05207   8300.04853   9082.11315  3.89067         3126.87521     17.06511    6e-05  58012.52286  11.36022    5.5681  107895.80181  47.18709  21.26443  58067.94489    51.33284       44.40729   28.33563  66.52713   59.5    0.11061  -21.71003  0.95001 
   -7.53749  0.02268  1.23872     14.27233  1.97249  1.17571  35.03501  0.08705     0.03975   8939.06245   8741.97057  3.21505         3187.26736     18.64342  0.00244  58011.63251  16.69988   0.79458   80189.69227   47.4738  21.21277  58067.94489    51.25765       44.41391   28.33563  59.13523   53.0    0.10719  -21.71792  0.99518 
   -8.48022  0.21479  1.29141     14.04762  1.38736  1.38335  22.21076  0.10554     0.08849   9109.34485   5710.26373  3.82886         3052.96098      17.7613  0.00032  58010.68978  10.99423   4.77076  172540.09648  46.95202  21.23986  58067.94489    51.28494       44.37898   28.33563  67.75911   64.0     0.0971  -21.68848  0.94662 
