 texplosion  fnickel     Pspin  log(Bfield)      Mns  thetaPB   mejecta    kappa  kappagamma     vejecta  temperature    alpha  cutoff_wavelength  log(nhhost)      A_V         MJD0   kenergy  mnickel             TSD   log(L0)  Peak_mag     Peak_MJD  log(E_rad)  log(Peak_lum)  Rise_Time     E_fold  tau_1  delta_m15     r_peak     frac 
  -10.01326  0.18532   1.04752     14.25211  1.78825   1.3527  14.63998  0.06341     0.06863  3932.24348   6271.47966  0.37631         5610.47459     20.14986  0.07845  55257.39974   1.35036  2.71302     57062.17131  47.72461  17.77037  55323.61175    51.27884       44.45733   23.09864   52.79689   70.5    0.10264  -20.95923  0.98792 
    -6.9706  0.14661   3.98344     14.34137  1.57769  0.71141  13.93309  0.08803     0.05119  4253.92778   6712.99229  4.44081         3860.80055      19.6515   0.0249   55260.4424   1.50402  2.04278    482619.15509  45.58275   18.1908  55323.61175     50.8648       43.81457   39.59767   89.09475   75.0    0.08748  -20.88748  0.83483 
  -12.66935  0.08311   5.54809     14.33917  1.68495  0.70756  27.83809  0.04768       0.027  4005.46835   6018.17302  4.82034         3925.98551     18.05202  0.00063  55254.74365   2.66424  2.31375   1010066.41551   45.0028  18.37825  55338.44371    50.83183       43.72294   42.89747  108.89359   83.5    0.07567   -20.6833  0.71523 
  -21.40601  0.11786    4.9688     14.32478   1.8462  0.94872  26.92365  0.06077     0.01998  4024.88802   5532.00749  0.96977         3272.34331     16.38009    1e-05  55246.00699   2.60177  3.17317    948516.06236  45.16558   17.9279  55327.31974      50.959       43.94927   49.49709   79.19534   95.5    0.05726  -20.37414  0.72509 
   -2.78117  0.05333   0.81236     14.74763  2.07356   1.1036  71.30521  0.02309     0.32826  4717.91211    5597.0496  4.52714         2878.65653     19.28051   0.0106  55264.63183   9.46778  3.80237      4062.33062  49.15729  17.91564  55319.90376    50.92364       43.91672   39.59767   79.19534   98.5     0.0683  -20.42988  0.99858 
   -6.82296  0.03849   1.37733        14.71  1.62171  0.60798  98.40715  0.01096     0.38377  2829.41428   5309.91691  1.92739         4128.03219     17.38691  0.00014  55260.59004   4.69945  3.78782     10861.16819  48.16486  17.68284  55312.48777    50.88648       43.91901   39.59767   69.29592  104.5    0.04625  -20.37912  0.97494 
  -18.56034  0.09328   4.16452     14.83275  1.54406  0.17414  25.36183  0.06855     0.02283  3774.16434   6069.15236  2.30051          3144.2095     18.78582  0.00339  55248.85266   2.15501  2.36576     53716.92326  46.48827   17.6811  55323.61175    51.07482       44.15478   32.99806   65.99611   94.0    0.05437  -20.39966  0.79361 
  -22.29166   0.1273   5.73452     14.59546  1.63169  0.68828  35.20877  0.06357     0.09178  3533.18424   5177.23973  3.60885         3724.00716     17.44169  0.00015  55245.12134   2.62187  4.48215    321018.02533  45.45796  18.64632  55353.27568     50.8189       43.57911  102.29398  135.29203  108.5    0.03827  -20.18914  0.53979 
   -4.40678  0.03639   1.31762       14.916  1.70586  0.22629  71.99228  0.01993     0.02104  5467.56579   5814.41117  2.25466         2505.21196     17.38515  0.00013  55263.00622  12.83811  2.61949      4048.97136  48.65386     17.75  55319.90376    51.02709       44.05927   29.69825   75.89553   67.0    0.09117  -20.99917  0.97891 
  -20.68529  0.22238   3.12361     14.51094  1.71549   0.8465  18.16852  0.09886     0.09746  3538.48812   5610.84668  1.11815         2950.73049     18.19601  0.00087  55246.72771   1.35701  4.04024    147788.19281  46.34428  18.06763  55323.61175     50.8383       43.77033   46.19728   92.39456  108.0    0.04271  -20.13684   0.8278 
  -25.19564   0.1838   7.46711     14.48231  1.69504  0.67417  25.16078  0.06352     0.08671  3916.33475   5204.52065   4.8742         2738.95243      20.1062  0.07095  55242.21736   2.30203  4.62454     952092.5142  44.77304  17.97432  55323.61175    51.09791       44.17296   36.29786   62.69631  105.5    0.04997  -20.28374  0.41162 
  -24.05711  0.20017   7.46614     14.61319  1.63614   0.8775  27.80198  0.04663     0.39099  3841.42838   4870.34012   0.6067         2745.90702     17.31682  0.00012  55243.35589   2.44731  5.56499    502853.44355  45.03503  17.98945  55327.31974    51.12456       44.20945   32.99806   62.69631  106.0     0.0485  -20.21017  0.35864 
   -8.93808  0.09161   2.18701     14.58088  1.48162  0.57782  34.34304  0.07999     0.04795  4284.82152   5778.30413  3.36444          3731.8149     19.24752  0.00982  55258.47492   3.76124  3.14619     45341.99304  47.10338  17.56946  55319.90376    51.15949       44.29298   26.39845    56.0967  101.0    0.04329  -20.40523  0.91271 
  -47.69742  0.17378   6.21437     14.65682  1.74931   0.9199  33.70399  0.09127     0.34468  3005.45734   5066.26585  0.70996         3695.46035     18.63912  0.00242  55219.71558   1.81606  5.85693    304680.10507  45.44107  18.17387  55334.73572    51.11449       44.16626   32.99806   69.29592  120.0    0.02927  -19.90002  0.46021 
    -8.1788  0.18539   3.29007     14.39427  1.60149  1.34866  20.95411  0.08306      0.2684  4860.06767   5144.64341  2.88801         3821.41905     18.74593  0.00309   55259.2342   2.95244  3.88476    261941.29025  46.02076  18.56299  55342.15171    50.79487       43.59037   89.09475  128.69242   88.0    0.06502  -20.62563  0.80252 
   -4.77968  0.03608   1.29072     14.38364  1.77261  1.35385  89.28169  0.01436     0.02328  4580.30313   6023.68464   3.9541         2267.39587     19.76254  0.03216  55262.63332  11.17321  3.22105     46862.25592  47.62497  18.07958  55331.02773     51.0702       44.12472   29.69825   69.29592   80.0    0.08665  -20.69981  0.97963 
  -19.20071  0.13674    6.2056     14.60541  1.83581  0.47286  23.83619  0.06009     0.05156  3669.02369   5838.44493  3.34979          2946.8182     18.91773   0.0046  55248.21229    1.9141   3.2594    404015.17477  45.34071   18.2877  55334.73572    50.91938       43.82467   39.59767  105.59378  102.0     0.0532  -20.27921  0.61909 
  -22.72645  0.07249   5.21865     14.42578  1.76178  0.68382  58.32046  0.03741     0.01785  3844.09377   5824.76246  3.31541         2998.32291     20.52592  0.18649  55244.68655   5.14086  4.22766    627068.96593  45.28237  17.86408  55323.61175    51.01605       44.04487   32.99806   72.59573  108.0    0.04213  -20.37083  0.62569 
  -33.42656  0.24544  16.76669     14.02609  1.63108     1.48  24.04541  0.05342     0.02041  3517.82702   4936.78957  3.60184         3283.92423     16.91774    5e-05  55233.98644   1.77504   5.9018  37757819.32362  42.45542  18.34574  55338.44371      50.874       43.77998    56.0967   98.99417  111.0    0.04903  -20.24648  0.07462 
  -27.97515  0.16358   6.38275     14.25392  1.73922  1.23884   21.6344  0.09454     0.02542  3421.85065   5576.11056  1.10028         3975.61728     19.66648  0.02578  55239.43785    1.5111   3.5389   2043359.47182  44.58884   17.9377  55327.31974    51.07235       44.13627   29.69825   69.29592  108.0     0.0427   -20.1303  0.56555 
  -18.79884  0.30354   7.24988     14.50661  1.88887  0.56196  11.91804   0.1511     0.11272  4877.90957   5068.65693  2.30414         3856.99311     17.90601  0.00045  55248.61416   1.69161  3.61765    894229.14551  44.87294  18.42003  55334.73572     51.0089       43.88906    56.0967  108.89359   90.0    0.06342  -20.53567  0.52568 
  -13.35601  0.24032    4.9642     14.32167  1.66942  1.05082  15.48632  0.07661     0.06668  4271.48607   5579.04029  1.67952         3855.02366     17.73296   0.0003  55254.05699   1.68552  3.72165    868438.47256  45.16097  18.24435  55331.02773    50.94129       43.89504   39.59767   89.09475   93.0    0.07219  -20.58806  0.66025 
   -6.37211  0.09576   1.55261     14.38064  1.69364   1.0519  29.07724  0.05352     0.08769  5138.80258   6254.77212  1.33171         3707.80795     17.97537  0.00052  55261.04089   4.58041  2.78431     65688.75048  47.29805  18.33484  55342.15171    50.91722       43.82808   49.49709   98.99417   71.0     0.0839  -20.90169  0.96839 
  -48.25197  0.25282   6.46115     14.96767  1.72218  0.68494  25.21442  0.06897     0.13777  2954.06839    5561.1802  0.77383         2908.32421     19.67395  0.02622  55219.16103   1.31255  6.37468     77477.67313  45.99513  18.08185  55327.31974    51.02238       44.05138   32.99806   72.59573  119.0    0.03945  -20.00804  0.42029 
  -39.64275  0.12437   9.13586     14.84647  1.89703  0.39662   39.1708  0.05614     0.04917   3324.1345   5886.43774  1.43863         3054.65055     18.95075  0.00496  55227.77025   2.58194  4.87149    298158.80009  45.15097  18.36151  55338.44371    50.86737       43.73177    56.0967  112.19339  117.0    0.03869  -19.99876  0.34497 
   -6.71649  0.05041   0.84391     15.01646  1.64396  0.24795   56.4274  0.09956     0.14128  8169.28423   6324.48704  2.80244         2523.91933     16.01792    1e-05  55260.69651   22.4639  2.84432      1007.80869  49.62877   18.1809  55331.02773     50.9479       43.90732   42.89747   88.18298   89.5    0.07041  -20.59826  0.99566 
   -4.13306  0.04404    1.6175     14.45236  1.77022  1.12569  63.62924  0.03403     0.02955  4785.82447    5901.4066   3.1079         3320.07814      17.4724  0.00016  55263.27994   8.69356  2.80208     53556.37501  47.37037  18.67436  55356.98367    50.74863       43.52837   89.09475  131.99223   83.5    0.05539   -20.6606  0.96957 
  -13.20698  0.05138   1.10815     14.21059  1.04096  0.91742  64.61368  0.04368     0.04995  4825.63799   5923.15609  0.55548         4824.06876      18.2975   0.0011  55254.20602   8.97555  3.31976     45005.97111  47.54381  17.89379  55319.90376    50.90758       43.89233   36.29786   82.49514   96.0    0.04994  -20.38514  0.96476 
  -39.44224  0.12608   5.60894     14.69599  1.60589  0.90683  45.55759   0.0415     0.28581  2663.62174   5123.71944  0.86083         4402.04565     16.22551    1e-05  55227.97076   1.92812  5.74371    190241.54961  45.69749  18.19851  55327.31974      50.846       43.73993   46.19728  105.59378  116.0    0.03236  -19.98468  0.48632 
  -40.21831  0.27734  20.24566     14.96897  1.48111   0.2214  18.63146   0.0931     0.25608  3533.27073   5036.24463  2.42639         3985.20407     17.19787    9e-05  55227.19469   1.38748  5.16733    650322.44038  44.01364  18.55735  55349.56769    50.77495       43.55339   98.99417  135.29203  108.5    0.04953  -20.09859  0.06054 
   -4.18916  0.05865   1.37026      14.4529   1.6606  0.81627   45.8683  0.04285      0.0857  6213.88577   6743.24759  1.98611         2720.14194     18.32599  0.00118  55263.22384  10.56492  2.69001     35965.42567  47.65962  18.47504  55342.15171    50.76862       43.59625    56.0967  125.39262   68.0    0.09133  -20.89651  0.97677 
    -8.0412  0.14577   2.71323     14.56198  1.77001  0.86079  23.60338  0.08426     0.19366  5038.89276   5643.85026  1.81879         4303.81916     16.99626    6e-05   55259.3718   3.57496  3.44063     90948.79086  46.69105  17.59462  55316.19576    51.55269       44.85561   16.49903   39.59767   86.5    0.06805  -20.65555  0.88924 
   -7.75939  0.05821   1.90608     14.38746  1.64099   1.1668    59.473  0.01906     0.03752  4046.39384    5642.7332  2.29395         3023.18863     18.67285  0.00262  55259.65361   5.80876  3.46171      92956.4686  46.95539  17.32413  55308.77978    51.03188       44.18172   23.61379    56.0967   89.0    0.07956  -20.59228  0.93764 
  -22.89417  0.11021   2.52091     14.89603  1.60121  0.40613  44.92014  0.03727     0.08023  3679.25878   4946.21962  0.13417         2548.06255      17.9153  0.00046  55244.51883   3.62735   4.9507     15251.63979  47.48686  18.18133  55334.73572    50.94886       43.89313   36.29786   94.78437  105.0    0.04424  -20.09391  0.85534 
   -9.35718  0.05586   1.77785     14.42492   1.7357  1.20202  52.14331  0.04736     0.04424  4725.90136   6445.03435   1.6078         3501.97659     18.09844   0.0007  55258.05582   6.94696  2.91276     71985.59895  47.15129   18.6551  55349.56769    50.83511       43.63363   82.49514  125.39262   87.0    0.05815  -20.52416  0.95894 
   -8.85297  0.09572    4.4527     14.77622  1.98513  0.21587  11.70315  0.07028     0.05207  5466.28021   5607.21755  2.55272         2959.21677     17.84734  0.00039  55258.56003     2.086  1.12018    102425.94597  46.25898  17.88223  55319.90376    50.99352       44.05106   29.69825   69.29592   71.5    0.12712  -21.02421  0.91147 
  -13.68849  0.08903   2.39369     14.37495  1.35231  0.73989  37.16877  0.04209     0.03038  3887.60931   7698.33251  0.86776           4867.524     18.88247  0.00424  55253.72451   3.35097  3.30918    127976.57574  46.53466  17.93567  55327.31974     51.0253       44.04045   32.99806   77.01717   87.5    0.06162  -20.48053   0.8751 
   -4.30048  0.20037   1.11707      14.5203  1.65227  1.31387  17.48306  0.14775     0.17322  5574.17722   5919.69966  2.27688         4032.99614     17.43958  0.00015  55263.11252   3.24046  3.50313     17436.18871  48.14931  18.03887  55319.90376    51.01473          44.02   42.89747   75.89553   91.5    0.06665  -20.56413  0.98989 
  -27.86635  0.13543  11.55835     14.38312   1.7058  1.38424  31.84046  0.05518      0.0233  3130.38175   5700.05963  3.39817         4340.12388     17.06147    6e-05  55239.54665   1.86123  4.31228   3624922.12288  43.81568  18.37238  55338.44371    50.88471       43.75453   46.19728   115.4932  112.5    0.04357  -20.16169   0.2383 
    -3.4387  0.19874   1.52807     14.66685   1.6108  0.78534  21.91878  0.07799     0.41801   5990.7775   5371.34676  3.40101         3264.52377     17.46422  0.00016   55263.9743   4.69256  4.35619     16197.06088  47.89816  18.06607  55327.31974    50.98649        43.9641   32.99806   86.61492   86.0    0.08348  -20.73592  0.96516 
  -28.21669  0.28255  18.09004      14.7867  1.57344  0.48935  21.63924  0.06139     0.42977  3611.34207   4468.69084  4.69784         2686.74154     18.95062  0.00496  55239.19631   1.68347  6.11407   1276883.25841  43.84466  18.25904  55331.02773    50.89211       43.78617    56.0967  105.59378  108.0    0.04701  -20.22777  0.07296 
   -5.44433  0.05629   1.74265     14.49207  1.67254  1.57046  65.84354   0.0183     0.05558  3381.18735   5663.90421  2.16635         4372.71879     16.49708    2e-05  55261.96867   4.49034  3.70642     48918.93824  47.32032  17.88515  55312.48777    50.86722       43.82645   33.51321   89.09475   96.5     0.0657  -20.57627  0.95517 
   -11.8613  0.15657    6.7321     14.87086  1.89032  0.37019  23.88432  0.04166     0.03844   3111.6739   5813.53548  3.15353         4398.39854     18.57525  0.00209   55255.5517   1.37952  3.73968    144187.66874  45.73015  17.94395  55323.61175    51.01037        44.0646   29.69825   69.29592   98.5    0.06258  -20.54244  0.55887 
  -29.25734  0.19861  18.03852     14.41276  1.76636  1.11063  30.92377  0.04589     0.08276  3611.15166   4560.55455  3.52339         3295.87322     18.38465  0.00135  55238.15566   2.40553  6.14181   7975714.01974  43.10175  18.10397  55331.02773    51.04619       44.06897   32.99806   75.89553  107.5    0.04823  -20.30789  0.08304 
    -9.6069  0.04837   0.96596     14.53279  1.65993  1.47453  81.08712   0.0188     0.10396  4180.37338   5719.85559  1.48762         3253.79359     17.24228   0.0001   55257.8061   8.45297  3.92216     12366.70783  48.42676  18.45245  55338.44371     50.7506       43.58357   69.29592    118.793   99.5    0.06259  -20.37879  0.99397 
  -14.39495  0.04735   1.09896     14.82563  1.86748  0.52739  73.23543  0.02611     0.01816   3784.8715   5945.91117  0.58423         4394.63874      18.7881  0.00341  55253.01805   6.25822  3.46787      4674.96632  48.78836  17.83194  55323.61175    51.03979       44.10538   32.99806   65.99611  102.0     0.0498   -20.1855  0.99159 
  -27.08305  0.12576   5.40427     14.09922  1.66705  1.29598  24.64375  0.10152     0.02585  4175.69165    5785.2121    2.182         3873.35109     20.41107  0.14315  55240.32995   2.56325  3.09909   2862821.71968  44.56853   18.3155  55338.44371    50.87226       43.74605    59.3965  108.89359  103.5    0.04871  -20.40492   0.6592 
   -7.32533  0.07337   1.20022     14.60255  1.78165  0.73015  46.50332  0.03306     0.05745  5010.40026   6274.14082  0.77012         3811.60591     19.29175  0.01088  55260.08767   6.96396  3.41205     14861.19053  48.18909  18.07474  55323.61175    50.89321       43.86085   39.59767   85.79495   75.0    0.08397   -20.7991  0.98453 
  -10.37876  0.18027   2.24894     14.67656  1.87147  0.50443   18.1674  0.12391     0.09892  5430.28848   5392.87616    1.879         2385.15153     18.97507  0.00525  55257.03424    3.1957  3.27506     38978.95932  47.24624  18.77539  55360.69166    50.83113        43.5918   98.99417  135.29203   79.5    0.06483    -20.689  0.92995 
  -19.61167   0.1868   5.01557     14.36687  1.65105  1.23363  23.66407  0.07526     0.05473  3709.96874   5225.40656   0.9161         4336.13549     16.43669    2e-05  55247.80133   1.94293  4.42049    711985.24932  45.23349   18.3436  55331.02773    50.80837       43.71941    56.0967   95.69436  103.0    0.04747  -20.29139  0.61274 
  -25.90785  0.14431   7.17208     14.32459  1.84281  0.97446  32.75348  0.02426     0.01624  3670.41226   5495.14529   0.1765         5190.08561     18.96674  0.00515  55241.50515   2.63217  4.72677   1974297.44845  44.52762  18.34361  55338.44371    50.84865       43.69638    59.3965   115.4932  114.0    0.06094  -20.34089  0.45573 
  -21.68305  0.16426   4.13533     14.04673   1.6649  1.53538  10.36526  0.16665     0.05698  4121.49016   5895.18774  2.51151         2105.76467     18.88746  0.00429  55245.72995   1.05031  1.70258   2131872.96353  44.92845  18.14284  55331.02773    51.04046       44.07564   32.99806   75.89553   89.0    0.06174   -20.4179  0.85809 
  -31.61518  0.13984  10.60943     14.71064  1.73385  0.61363  35.83505  0.04988     0.11779  2433.10854   5112.05025  3.35317         4220.67235     18.18679  0.00085  55235.79782   1.26549  5.01111    686958.86924  44.61954  18.38139  55334.73572    50.84162       43.71808   49.49709  112.19339  115.0    0.03339  -20.08696  0.24912 
  -11.45986  0.08247    2.1978     14.37415  1.84664  1.07593  47.54876  0.01818     0.02119  4105.32137   5287.37401  0.73477         3074.39062     19.82509  0.03714  55255.95314   4.78036  3.92138    147869.13558  46.68137  18.18432  55334.73572    50.97077       43.93348   39.59767   89.09475   91.0    0.09398  -20.67437  0.91869 
  -20.42649  0.08395   2.42968     14.57049  1.84434  0.66583  45.35933  0.04153     0.02525  4381.08674   5208.30484  0.11646         2940.31976     17.68342  0.00027  55246.98651   5.19347  3.80789     73075.97408  46.89981   17.6658  55308.77978    51.03359       44.16023   29.69825   52.79689   93.0    0.05666   -20.3541  0.90477 
  -21.20058  0.09181    4.3311     14.51895  2.02947  0.70507  30.24368  0.04077     0.01367  3054.77517   6215.88868  0.66562          4973.0127     17.63577  0.00024  55246.21242   1.68353  2.77676    323964.12104  45.79253   18.2517  55331.02773    50.83023       43.72273   46.19728  105.59378   97.5    0.05624  -20.29385  0.82145 
   -13.4086  0.16715   4.46833     14.58415  2.00049  1.01807  21.67765  0.07521     0.06529  3959.30917   5695.57733  2.03552         3808.70097     19.31101  0.01137   55254.0044   2.02711  3.62351    251734.34207  45.86875  17.97357  55323.61175    51.08286       44.17038   23.09864   69.29592   98.0    0.05355  -20.37062  0.76592 
  -25.78456  0.23213   4.19632     14.44062  1.69511  1.06624  22.51382  0.06981     0.31329  3531.66697   5188.31909  2.48069         2387.98891      20.3259  0.11766  55241.62844   1.67508  5.22608    364348.83584  45.69079  18.32923  55334.73572    50.96772       43.92843   39.59767   89.09475  110.0    0.04443  -20.21976  0.66662 
