 texplosion  fnickel    Pspin  log(Bfield)      Mns  thetaPB   mejecta    kappa  kappagamma      vejecta  temperature    alpha  cutoff_wavelength  log(nhhost)      A_V         MJD0   kenergy  mnickel            TSD   log(L0)  Peak_mag     Peak_MJD  log(E_rad)  log(Peak_lum)  Rise_Time    E_fold  tau_1  delta_m15     r_peak     frac 
  -15.89552  0.14555  2.16017     13.89911  1.84923  1.46894  12.21417  0.21068     0.01684   7472.52931   5805.27278  1.20235         2344.44431     19.90987  0.04514  57991.45295   4.06843  1.77781  1275153.87256   45.7613  19.57301  58078.24808    51.35011       44.45236    47.3895  61.43084   59.5    0.08499  -21.70183  0.96154 
  -14.55898  0.00692  1.12885     13.98336   1.6396  1.19777  68.71164  0.03537      0.0778   5893.01443   9098.98013  0.40786         5043.28367     18.42417  0.00148  57992.78949  14.23418  0.47551   209458.11929  47.05721  19.56393  58075.79786     51.3982       44.47561   35.10334  68.45151   57.5    0.07785  -21.57641   0.9966 
  -11.37948  0.00419  0.72364     14.10533  1.58789  0.94876  49.07884  0.08613     0.07035   8454.77408   4400.42027  0.49897         3022.80468     19.17126  0.00824  57995.96899  20.92789  0.20553    47534.33292  48.07362  19.67531  58075.79786    51.22337       44.29085   56.16534  63.18601   61.0     0.0781  -21.70818  0.99945 
  -14.06182  0.00818  1.54269     13.82088  1.36595  0.84086  32.24083  0.04322      0.0118   5095.45868   8349.96973    0.431         5890.50374     16.30447    1e-05  57993.28665   4.99344  0.26386   688736.71593  46.18967  19.85258  58066.12065    51.27641       44.25782   38.61367  93.02384   66.5    0.08227  -21.66785  0.99527 
  -15.89344  0.04928  2.56026     13.90107    1.741  1.01829  14.28239  0.11018     0.02715   6192.01424   8049.36464  0.68883         4706.65567     17.50459  0.00018  57991.45503   3.26657  0.70389  1671222.83352  45.47004  19.59473  58075.79786    51.39934       44.52365   36.43966  60.09452   66.0    0.09239  -21.65347  0.97604 
  -14.37679  0.03377  1.41106     14.00715  1.63608  0.95158   23.0877  0.10364     0.09093   7503.11098   4459.18779  0.09244         4062.22603     16.56084    2e-05  57992.97168   7.75337  0.77971   292688.97822  46.71715  19.59058  58075.79786    51.30288       44.37803     42.124  68.45151   60.0    0.09489  -21.67499  0.99119 
  -16.01154  0.10171  2.03388     14.03036  1.66369   0.8242  15.14287  0.17948     0.07666   8177.15627   5399.33591  0.26358         3979.11795      16.0958    1e-05  57991.33693   6.04004  1.54021   555679.24829  46.12844   19.5225  58079.16059    51.24565       44.32498   54.41017  63.18601   64.0    0.08953  -21.66564  0.96535 
  -13.08016  0.01268  1.24761     14.00383   1.6973  1.18827  54.21034  0.03744     0.17904   6022.95563   8006.39861  0.50389         4174.58479      17.8381  0.00038  57994.26831  11.73083  0.68752   241033.23852  46.92437  19.64612  58070.07142    51.29012       44.32404     42.124  71.96184   59.0    0.08515  -21.62994  0.99429 
  -16.09322  0.02355  2.05787     13.94312  1.67997  0.71127  16.13473  0.14496     0.01036    7534.6459   8010.43825  1.05545         2038.60897     20.12822  0.07464  57991.25525   5.46405  0.38002   858462.87485  45.93359  19.47992  58075.79786    51.40261       44.56008     42.124  52.65501   52.0    0.09806   -21.7562  0.99107 
  -13.51504  0.01604  0.71844     14.13447  1.73022  0.96924  35.45838  0.08638     0.17364   7377.31215   4715.50374   0.0709         3553.31571     17.34208  0.00012  57993.83343  11.51178  0.56875    44642.62743  48.14442  19.60651  58074.11572    51.33259       44.39292   45.63434  68.45151   59.5    0.08496  -21.61719  0.99871 
  -18.85381  0.00614  1.51773     14.03328   2.0035  1.39581  40.55093  0.06021     0.10865   6776.88988    6425.6157  0.19986         2768.90434      17.2014    9e-05  57988.49466  11.10935  0.24918   367657.56985   46.6428  19.63438  58075.79786    51.31349       44.36513   38.61367  73.71701   65.0    0.08241   -21.5421  0.99759 
  -12.00889  0.02344  1.63814      14.1255  1.79723  0.79235   26.7308  0.07878     0.10121   6963.40312   4295.47991  0.45866          3644.8654     18.79589  0.00347  57995.33958   7.73183  0.62654    251255.1028  46.69463  19.55877  58074.11572    51.40713       44.51518   35.10334  63.18601   63.0    0.09208   -21.6741  0.99169 
  -13.75363  0.00858  1.93619     14.40952  1.93427  0.43631  21.65869  0.15323     0.18684    7255.2217   4096.65961  0.73275         4413.91665     17.26494   0.0001  57993.59484   6.80081  0.18573    102137.6498  46.97228  19.55393  58074.11572    51.33572       44.43575   38.61367  66.69634   67.0    0.07745   -21.6384  0.99689 
  -13.23049  0.11514  1.82986     14.05398  1.88505  1.52105  15.91219  0.30142     0.14355   8573.04736   4865.10233  0.54759         4940.62408      18.1909  0.00086  57994.11798   6.97634  1.83205   457112.85896  46.35931  19.60221  58075.79786    51.26015       44.35035    47.3895  64.44779   69.5    0.07188    -21.661  0.97235 
  -15.65265  0.00214  1.91843     13.93484  1.80726   1.1669  19.11148  0.09957     0.07801   7041.63106   4845.74965   0.8493          2053.8553     16.29043    1e-05  57991.69582   5.65286  0.04087   833773.99897  46.03893  19.64546  58070.07142    51.28482       44.30591   49.14467  77.22734   65.0    0.09424  -21.65884  0.99925 
  -10.63736  0.00877  0.80793     14.12617  1.80649  1.21681   24.3156  0.11928     0.04455   7155.13023   4826.10764   0.5729         3532.79223     16.69989    3e-05  57996.71111   7.42587  0.21327    61243.04923  47.92387  19.69164  58078.24808    51.67524       44.78517   38.19482  60.09452   60.5    0.08706   -21.6597  0.99941 
   -16.2642  0.00366  1.17745     14.08748  1.81615  1.15244  13.56362  0.28836     0.15104   8334.10655   3117.26463  0.34877         2188.30188     16.23448    1e-05  57991.08427    5.6198   0.0496   156272.68063  47.19223  19.60506  58070.89744    51.30514       44.38322    30.7797  70.11019   61.0    0.08306  -21.52723  0.99967 
  -18.64599  0.12633  2.40512     13.90355  1.93304  1.02834  10.95005  0.31319     0.01249   8430.59918   5213.28875  0.86262         2118.69588     17.05266    6e-05  57988.70248   4.64259  1.38328  1618900.63951  45.58359  19.44738  58075.79786    51.48987       44.60054     31.593  61.43084   55.0    0.10836   -21.7109  0.96488 
   -5.85855  0.19627  0.85872     14.34201  1.84258  0.60123   15.8063  0.11552     0.08361   5776.64735   7988.95673   0.9229         3236.37256     16.39799    1e-05  58001.48992   3.14637  3.10236    26117.92458  48.24962  19.53554  58075.79786    51.38725       44.51935     31.593  63.18601   64.0    0.08399  -21.65391  0.99033 
   -8.26944  0.06896  0.75454     13.95786   1.4644  1.41456  12.94878  0.17842     0.35862   6153.64392   6042.39964  0.61436         4671.11586     16.26916    1e-05  57999.07903   2.92497  0.89289     93998.8513  47.70602  19.52105  58075.79786    51.40127       44.52225   33.34817  64.94117   61.0    0.08598  -21.67269  0.99692 
   -9.91348  0.28964  1.16641     14.22003  1.91728  0.77544  19.03685  0.08796     0.01592   6697.29246   7990.61797  0.43228         3781.38255     20.45527  0.15849  57997.43499   5.09355  5.51386    87931.56627  47.47368  19.48598  58075.79786    51.41151       44.55397   32.53487  62.24414   61.5    0.09438  -21.80839    0.968 
  -12.07688   0.0062  1.27542     13.91911  1.55102  1.30019   38.8626  0.06916     0.19112   6580.81215   8486.63062  0.74293         3821.97122     19.61578  0.02294  57995.27159  10.03964    0.241   340033.30602  46.71663  19.57113  58073.34765    51.34773        44.4295   43.12853  60.42632   60.5    0.07959  -21.66547  0.99758 
  -14.70238  0.00483  2.75102     13.91918  1.95913  1.35433  10.28399  0.20018     0.01398   5977.15612   8318.16188  1.63406         3856.87645     18.48597   0.0017  57992.64609   2.19168  0.04966  1997627.98846  45.38141  19.63561  58075.79786    51.57454       44.69354    31.7094  64.82478   59.0    0.08252   -21.6555  0.99833 
  -13.65323  0.01973  0.97578     14.12222  1.91829  1.31596  31.63524  0.11695     0.03822   7710.95802    3380.4647  0.44344         2861.06611     18.81275  0.00361  57993.69524  11.22057  0.62404    96605.52938  47.58805  19.65081  58070.89744    51.28219       44.33984   38.61367  73.71701   63.5    0.07762  -21.61439  0.99752 
  -10.33428  0.01407  1.27891     13.95705  1.65926  1.00749  31.11795  0.05097     0.04261   5444.91887   9347.89303  0.99551          2846.3756     16.84657    4e-05  57997.01419   5.50327  0.43773   307123.98919  46.78777  19.50705  58075.79786     51.5184       44.65315     31.593  59.91693   60.0    0.08097  -21.64787    0.996 
  -16.23402  0.02875   1.8208     13.97039  1.82902  1.44531  15.80215   0.1991     0.29828   8115.88468   7811.96347  0.55516          2307.7564     18.04493  0.00062  57991.11445    6.2089  0.45433   645333.93002  46.20076  19.48952  58073.34765    51.44791       44.54705   40.36884  57.92051   58.5    0.08274  -21.64083  0.99272 
   -9.10859  0.14753   0.9676     14.41811  1.81066  0.52854  18.13597  0.16157     0.26479   7908.11967   3380.68336  0.38986         3543.11794     19.51145  0.01804  57998.23988   6.76573  2.67554    22952.32828  48.19446  19.50114  58074.11572    51.40434       44.51412   33.34817  63.18601   63.0    0.09058  -21.67199  0.98896 
   -9.18822  0.01296  1.01265     14.13408  1.70239  0.82171  38.85738  0.05164     0.03067   6667.49207   7628.64147   0.6216         2869.84571     16.68737    3e-05  57998.16025  10.30447  0.50359    87424.37226  47.54735  19.69598  58075.79786    51.50611       44.61181    36.0452  63.99931   57.0    0.09741  -21.66172  0.99731 
  -11.49141   0.0012  1.27263     14.25791  1.94034  0.60444  40.29416  0.09483     0.01669   8064.74192   3130.87821  0.69719          5378.0935     20.93208  0.47513  57995.85706  15.63328  0.04836    88977.43694  47.39804  19.62624  58073.34765    51.30709       44.40126   33.34817  71.96184   63.0    0.08204  -22.06999  0.99966 
  -16.76262  0.00248  1.96221     13.96727  1.90881  1.27331  16.52812  0.12961     0.15421   6902.59086   5768.53231  1.04271           2142.203     16.77367    3e-05  57990.58585   4.69759  0.04102   793456.41169  46.06459  19.44275  58074.11572    51.43269       44.58818     42.124  54.41017   66.0     0.0835  -21.61136  0.99928 
   -9.06893  0.01894  0.90218     14.20895  1.91577  0.79719  58.41501  0.02494     0.01104   4653.46807   3904.79098  0.48306         5515.76498     16.42918    1e-05  57998.27954    7.5458  1.10656    55316.12886  47.89775  19.53111  58073.34765    51.36696       44.47616   38.61367  61.43084   64.0    0.08323  -21.63926  0.99621 
   -9.41506  0.00133  1.00219     13.97165  1.74121  1.27968  53.60959  0.05166     0.03103   7506.16983   8233.30921  1.41532         2445.51163     20.62189   0.2326  57997.93341  18.01799  0.07131   185042.58417  47.24052  19.65602  58070.07142    51.29435       44.35291     31.593  78.98251   58.5    0.07945  -21.88731  0.99963 
   -9.32502  0.00233  0.87454     14.12608  1.86622  1.25789    39.758  0.08379     0.38024   8271.00564   5022.87211  0.46358         2171.61903     19.89083  0.04321  57998.02345  16.22439  0.09272    74160.95748  47.78607  19.42373  58074.11572    51.49362       44.62006   33.34817  57.92051   57.0    0.09337  -21.71917   0.9997 
  -15.71247  0.01997  2.92621      13.7633  1.59661   1.3985  12.89131  0.20067     0.03328   7750.32685   3776.13546   1.7721         4410.81572     16.08596    1e-05    57991.636   4.61917  0.25744  3776007.47717   44.9624  19.53711  58073.34765    51.33249       44.43177     31.593  67.54172   65.5    0.08657  -21.67357  0.98667 
  -10.83194  0.09269  1.25726     14.02611  1.56924  1.17233  17.55032  0.18977     0.05367   7660.53102   5527.28963  0.39513         5451.99486     18.83218  0.00377  57996.51653    6.1437  1.62671   204232.67452  46.95556  19.56865  58074.11572    51.37349       44.48521     31.593  66.69634   64.5    0.08278  -21.64541   0.9848 
     -6.777  0.02582  0.90759     14.23348   1.7612  0.76797  35.20862  0.06503     0.07126   6576.64411   4220.56612  1.07805         3188.29248     17.36153  0.00013  58000.57147   9.08416  0.90921    45967.57761  47.93642  19.77055  58070.89744    51.28316        44.3228   39.94999  79.40136   63.0    0.08695  -21.66854  0.99651 
  -11.70154  0.00225  1.24194     14.06799  1.69301  0.96525  33.47566  0.08965     0.14581   7371.14003   4773.46123  0.48291         3394.47464     17.89461  0.00044  57995.64693   10.8499  0.07537   177293.50261  47.06061  19.52104  58073.34765    51.32333       44.39331   45.63434  60.52105   62.0    0.08162   -21.6555  0.99938 
  -12.83094  0.11839  2.18265     13.92232  1.76315  1.47349  10.29666   0.1975     0.08543   6973.01889    5975.1353  1.01478         3289.62113     17.05925    6e-05  57994.51753   2.98652  1.21898  1115402.22782  45.78973  19.50909  58075.79786    51.57826       44.74721    36.8585  54.41017   67.5    0.09153   -21.6593  0.97085 
   -15.3531  0.01111  0.83942     14.04262  1.51765  0.85777  37.26568  0.07246     0.02615   6915.60456   6510.74223   0.0745         4921.18411     17.08375    7e-05  57991.99537  10.63155  0.41415    81603.96761  47.69034  19.55893  58075.79786    51.38842       44.48247     31.593  70.20667   60.0    0.08612  -21.54896  0.99822 
  -11.95848  0.00368  2.08377     14.11548  2.08146  0.88942  14.81644  0.08377     0.18107   4604.35003    9322.3866  0.86624          4644.5228     18.65479  0.00251  57995.38999   1.87373   0.0545   493079.92751   46.2566  19.56305  58075.79786     51.4176       44.51423   43.87917   59.0035   63.0    0.08509  -21.64681  0.99905 
   -9.11177  0.03098  1.87401     14.05743  1.67946  0.85962  22.24902  0.15572     0.02716   7540.47756   5044.81057  2.86576         3026.74374     17.14253    8e-05   57998.2367   7.54633   0.6892   420396.78461  46.32481  19.77097  58075.79786    51.26515        44.2965    47.3895  70.20667   69.0    0.07318   -21.6494  0.98678 
  -12.11743   0.1078  1.27872     14.03869  1.60567  1.09156  16.17614  0.22007     0.12635   8266.24367   7497.08081  0.40148          3775.6018     17.42105  0.00015  57995.23104   6.59354  1.74376   204003.94612  46.95131  19.46206  58075.79786    51.46941       44.60121   29.83784   64.1354   60.0    0.08038  -21.65743  0.98368 
  -11.72621  0.00125  0.86262     13.90715  1.59304  1.51572  23.29092  0.07258      0.4944   5595.44416   7762.68148  0.31111         3629.33485     16.36119    1e-05  57995.62226   4.34994  0.02906   168803.59374  47.37205  19.57429  58070.89744    51.37017       44.45544   38.61367  64.94117   58.5    0.08897  -21.62558  0.99988 
  -12.77854  0.00444  1.37268     13.91705  1.70117  1.43058  22.24563  0.08152      0.3508   6209.77119   8569.32344  0.31754         3777.30593     17.12461    7e-05  57994.56993   5.11709  0.09874   436120.92871  46.58485  19.47772  58074.11572    51.50377       44.65975   29.83784  57.92051   55.5    0.09385  -21.66168    0.999 
  -14.10157   0.0047  1.36381     14.08087  1.55264  0.67292  19.42539  0.19979     0.01373   8168.77437    4419.4341  0.58561         2645.26376     19.54063  0.01929   57993.2469   7.73234  0.09137   184785.41423  46.92374  19.70807  58073.34765    51.12039       44.15503   54.96036   72.2853   56.5    0.08672  -21.68254  0.99895 
  -14.79296  0.00153  2.36897     13.86169  1.53991  0.78358   8.26851  0.21589      0.0556   7335.81031   6975.44501  0.50505         5326.08144     20.32628  0.11776  57992.55551    2.6543  0.01262  1517216.04456  45.52617  19.64624  58070.89744    51.31654       44.40266   33.34817  71.96184   67.0    0.09599  -21.78298  0.99954 
  -15.68068   0.0145  0.84691     13.86677  1.44617  1.45102  57.87008  0.04338     0.30215   5427.81382   9659.86262  0.37447          5262.2929     19.30135  0.01112  57991.66779  10.17024  0.83905   177899.52966  47.32321   19.5416  58074.11572     51.4196       44.52793   34.68449  63.60485   58.0       0.07   -21.5192    0.996 
  -12.17482  0.00206  2.59461      13.8103  1.52142  1.50962  11.39843  0.16909     0.02006    5282.3742   8448.16363  1.55174         5505.36192     17.30255  0.00011  57995.17365   1.89728  0.02348  2278292.55186  45.26534  19.50153  58074.11572    51.44141       44.56548   35.10334   58.8699   67.0     0.0805   -21.6579  0.99897 
  -11.90769  0.13342  1.33693     14.43213   1.8068  0.46471   26.2132  0.15333     0.01544   9176.92674   6015.20077  0.41536         2593.46994     19.21254  0.00906  57995.44078  13.16867  3.49736    40990.49607  47.66086  19.58277  58073.34765    51.37569       44.45239     42.124  61.43084   59.0    0.08402  -21.69596  0.97063 
  -15.30093  0.00121  1.65229     14.08282  1.97658  1.10806  19.51576   0.1347     0.03268   6714.48224   7428.98693  0.82389         3401.06158     19.76141  0.03207  57992.04754   5.24853   0.0236   342188.04698  46.59433  19.68295  58073.34765    51.23438        44.3226    47.3895  64.94117   62.5    0.07788  -21.63152  0.99972 
  -13.26011  0.03375  1.78195     14.01812  1.75649   1.0537   21.4541  0.12434     0.07677   6912.45286    7373.4145  1.01427         3314.46582     17.77624  0.00033  57994.08836   6.11508  0.72398   476444.87049  46.33369  19.50832  58075.79786    51.38049       44.47706     42.124  59.67567   65.5    0.07527  -21.63805  0.98825 
  -11.32283   0.0102  1.11571     14.18676  1.77085   0.7846  17.33468  0.21442     0.04047   8623.81257   3529.85894   0.2304         2368.47528     17.94263  0.00049  57996.02564   7.69027  0.17688    86611.61874  47.48435  19.60918  58073.34765     51.2333       44.30593   45.63434  68.45151   57.0    0.08758   -21.7137  0.99891 
  -10.15753  0.00672  1.58159     13.97942  1.63748  1.07413  31.34715  0.06742     0.06195   6471.08544   7341.30429  1.13913         3251.45534     18.98664  0.00539  57997.19094   7.83032  0.21058   418148.65875   46.4635  19.57403  58073.34765    51.26184       44.33168   40.36884  71.96184   63.5    0.08808  -21.63985  0.99699 
  -18.62055  0.00802  2.14557     13.94043  1.83789  1.38234  11.38829  0.26541     0.03765   8429.24064   5247.10489  0.36898         2178.02973     16.49428    2e-05  57988.72792   4.82684  0.09131   1033618.4179  45.85572  19.48986  58075.79786     51.6837       44.85512   28.46124  55.78677   58.0    0.09272  -21.62728  0.99796 
  -12.00695  0.03984  1.07688     14.15209  1.71449  0.89866  19.12199   0.1721     0.17085   8275.76561   5057.01257  0.17753         4380.41637     19.18901  0.00858  57995.34152   7.81226  0.76183    91642.33117  47.47655  19.52662  58073.34765    51.36549       44.45174   38.61367  64.94117   58.5    0.08648  -21.68229  0.99549 
   -14.0674  0.01794  2.38358      13.9831  1.78207  0.96726  23.00798  0.08332     0.02142   6181.63448   6949.05622  1.25334         3882.96893     18.26559  0.00102  57993.28107    5.2446  0.41279  1016261.77403  45.75831  19.60398  58068.44723    51.24877       44.32724   32.92932  70.80796   69.0    0.08648   -21.6518  0.98817 
  -10.28805  0.01621  1.34544     14.17569   1.6505  0.65309  35.90108  0.07152      0.0498   6651.71791   5046.27122  0.57618         4464.69407     18.89369  0.00435  57997.06042    9.4755  0.58208   123533.01604  47.13695  19.61419  58074.11572    51.33336        44.3999   38.19482  70.62552   64.0    0.08278  -21.67534  0.99411 
   -15.3668  0.08502  1.77473     14.06771   1.7025  0.85852  10.08471  0.33269     0.15346   8928.52328   5155.74841  0.01066         3212.77741     17.82744  0.00037  57991.98167   4.79568  0.85742   364540.38124  46.43992  19.42865  58078.24808    51.57145       44.70456   35.10334  57.92051   59.5    0.09446  -21.65959  0.98558 
