 log(Bfield)      Mns    Pspin  cutoff_power  cutoff_wavelength  fnickel    kappa  kappagamma   mejecta  log(nhhost)  temperature  texplosion  thetaPB     vejecta      A_V        MJD_0   log(KE)      M_Ni  Peak_mag     Peak_MJD 
    14.28888   1.7676  8.66841       2.76943          2196.1747  0.05069  0.02621     0.02322   9.24943     16.99782   4209.24046     -8.3717  0.96463  6262.83041    6e-05   58535.1183  52.18588   3.32357  19.55222  58573.95066 
    14.25323  1.25894  6.34298       0.76534          3334.6272  0.01888  0.15383     0.17265   1.60687     17.56304   9943.26098    -9.48146  0.43281  6810.76782   0.0002  58534.00854  52.04688   0.75999  19.55024  58573.95066 
    14.16358   1.6235  7.09281       0.54181         2766.51788  0.00305  0.09671     0.07964   2.76192     20.14349   7198.02588   -11.40213  0.80821  6845.59238  0.07731  58532.08787  52.12853   0.14649  19.54233      58575.4 
    13.99847   1.4706  7.20647       4.36944         2712.14771  0.00139   0.1291     0.15391   1.84094     19.53818   7876.53141    -8.48042  1.34804  6374.17235  0.01918  58535.00958  52.01005   0.05869  19.52533  58573.95066 
    14.15389  1.65288  7.56445       3.05431         2118.24536  0.00259  0.08047     0.10827   3.28893     18.79249    3947.4904   -10.40431  0.97808  6556.57868  0.00345  58533.08569  52.11329   0.13103  19.53965      58575.3 
    13.92271  1.29322  6.33562        3.6196         2321.02029  0.00187  0.06381     0.07112   4.76555     16.98013   6533.25696   -11.36532  1.56052  6149.31868    5e-05  58532.12468  52.10132   0.10474  19.54403  58573.95066 
    14.57572  2.15499  9.09609       0.57455         2012.69226  0.00159  0.10035     0.08932   2.55221     18.91214    7020.1859   -10.85691  0.49157  6506.44079  0.00454  58532.63309  52.07395   0.07486  19.52589  58573.95066 
    14.03612    1.539  7.29597       1.21643         2813.35578  0.00617  0.05687     0.09483   4.09673      19.0045   5084.95179    -9.72325  1.27274  6598.58765  0.00561  58533.76675  52.14526   0.33183  19.54733     58574.46 
    14.18587  1.83489  8.17537       3.25112         2110.61404  0.01347  0.08025       0.091   3.80872      17.6345   6814.98912   -11.13651  1.15588  6531.17715  0.00024  58532.35349  52.12775   0.71032  19.53559  58573.95066 
    14.08696  1.38469  6.38595       0.10533         2833.81303  0.00142  0.03646     0.07727   5.64344     19.76391   8038.27654    -9.94309  0.84326  6604.74248  0.03226  58533.54691  52.18195   0.08315  19.45994  58570.82345 
    14.03736  1.53378  7.54575       3.97962          2676.8441   0.0137  0.03051     0.02884   9.67656     16.26913   7482.41753    -9.95724  1.56848   6374.6618    1e-05  58533.53276  52.20556   0.90714  19.53417      58575.3 
    14.14522   1.5252  7.12705       4.44355         2147.00187  0.00161  0.10321      0.2009   2.49777     19.55893   6025.43924    -9.17947  0.83013   6732.5132  0.02012  58534.31053  52.10073   0.07506  19.54326     58574.46 
    14.22762  1.86963  8.31661       0.11844         2453.65705  0.00922  0.03261     0.05581   7.26268     18.62937   4415.01243    -9.58085  1.06652  6850.64038  0.00237  58533.90915     52.24   0.57212  19.54333     58574.35 
    14.31201  1.92043  8.26069       1.95932         2086.16113  0.00571  0.07691     0.07618   2.89107     19.52554   3531.81083   -10.23497  0.85757  5809.86331  0.01863  58533.25503  51.99196    0.2783  19.55569     58573.29 
    14.31691  1.84372  8.20515       1.45255         2495.43496  0.00157  0.05228     0.04424   5.73552     18.88928   7449.48303   -11.00194  0.73145  6448.35645  0.00431  58532.48806  52.16287   0.09188  19.52049  58576.57603 
    14.16135  1.31092  6.48826       0.24158         3094.74354  0.02025  0.02937     0.02809   9.18287     16.15601   8014.42239   -10.64749  0.64068  6703.15951    1e-05  58532.84251  52.24421    1.3254   19.5492     58574.46 
     14.1776  1.53028  7.25167       3.13043         2260.17374  0.00369  0.08267     0.09702   3.06031       18.289    7016.1704    -9.04792  0.77532  6745.74632  0.00108  58534.44208  52.12896   0.18276  19.53864  58573.95066 
    14.17615   1.5328  7.24174       1.82057         2916.19873  0.00942  0.07342      0.0904   3.55451     19.89964   6518.94438    -9.26022  0.77068  6599.58065  0.04409  58534.22978  52.12849   0.48745  19.55742     58574.35 
    14.13185  1.42296  6.91612       2.62333         2717.20291  0.00956  0.02972     0.06412  10.93569      16.4329   8675.98461    -12.1591  0.79378  6128.97006    2e-05   58531.3309  52.18287   0.64984  19.55712      58575.3 
    13.92846   1.3489  6.40856       1.66524         2609.35753  0.00622  0.03745     0.02619   7.52201     19.67383   7316.38458    -11.7508  1.44065   6162.7043  0.02622   58531.7392  52.15162   0.38936  19.56525      58575.3 
    14.40817  1.58452   7.5534        2.0985         2849.69604  0.00407  0.03428     0.03177   8.21177      16.1375   9616.69593   -11.74497  0.47183  5565.68733    1e-05  58531.74503  52.07183   0.25968   19.5461     58573.42 
    14.37914   1.4638   6.9253       0.80928         2682.02422  0.00176  0.05551     0.09265    4.7004     16.12796   8568.32026   -10.18403  0.43301  6519.83656    1e-05  58533.30597   52.1506   0.09797  19.58136  58573.95066 
    14.13214  1.62647   7.6375        3.7874         2427.52074  0.00615  0.08464     0.06527   3.24283     18.92214   6766.12341    -9.86958  0.99146  6466.23935  0.00464  58533.62042  52.09948   0.30994  19.53535     58573.42 
    14.31872  1.48498  7.46114       3.29604         3147.89329  0.03224  0.08466     0.06142   3.93507     18.43885   5737.69957   -11.45014  0.49144   6281.5381  0.00153  58532.03986  52.09777   1.71537  19.55241     58574.46 
    14.00622  1.35787  6.47287       0.21767         2237.87576  0.00771  0.08481     0.12283   2.81172     18.72472   5877.47574   -10.25572  1.12201  6619.71823  0.00295  58533.23428  52.10171   0.37293   19.5296     58573.29 
    14.05403  1.35598  6.54466       0.34672         2615.81894  0.02257   0.1223     0.13631   2.12059      17.2695   7317.31909   -10.21984  0.91927  6971.53243   0.0001  58533.27016   52.1084   0.99904  19.52535     58574.35 
    14.15595  1.38875  6.61018       0.53536         2062.41271  0.00364  0.09864     0.27954   2.52213     18.53346   6794.26825    -9.98395  0.71188  6774.85821   0.0019  58533.50605  52.10748   0.17017   19.5484     58574.37 
    14.22087   1.5068  7.27037       4.47969         2118.99459  0.04368  0.06567     0.05922   4.88854     16.96262   9037.29902   -10.81645  0.74972  6538.36493    5e-05  58532.67355  52.15746    2.4612  19.55493  58573.95066 
    14.02476  1.50676  7.19278       1.66434         2611.24433  0.01241  0.02979     0.03406   9.28043     19.42481   3064.59405    -9.95976  1.38651  6580.84293  0.01478  58533.53024  52.22923   0.81402  19.54972     58575.32 
    14.15669  1.51617   7.5154       2.76019         2029.28532  0.08057  0.05424     0.05714   5.62438     17.76836   7404.40402    -10.2169   1.1859  6052.09061  0.00033   58533.2731  52.10568   4.70362  19.55256  58573.95066 
    13.95061  1.22812  6.15661       1.98842          2450.5659  0.01295  0.10013      0.1541   2.52143     17.47446   9586.16345    -9.45314   0.9964   6966.7738  0.00017  58534.03686   52.1317   0.60555  19.55392     58573.29 
    14.17412  1.63578  7.61529       4.50392         2291.99234  0.00161  0.09759     0.13341   2.98091     17.08932    7895.7651   -11.01946   0.8818  6232.50196    7e-05  58532.47054  52.05688   0.07933  19.53145  58573.95066 
     14.2361  1.62553   8.1466       4.55452         2115.97168  0.05624  0.03496     0.05067    8.0543     18.39487   6275.89153    -9.20253  0.90614   6720.7478  0.00138  58534.28747  52.23372   3.57509  19.52315  58573.95066 
    14.20169   1.5573  7.14794       0.15384         2284.39367  0.00283  0.04083     0.03517   6.16533     17.56832   8590.83348   -10.60911  0.71667  6731.22607  0.00021  58532.88089  52.20783   0.16909  19.54991  58573.95066 
     14.5919  1.58755  7.64618       2.34892         3017.15499  0.00589   0.1386     0.36724    1.7723     17.44548   9448.70388    -9.96972  0.28642  6000.21914  0.00015  58533.52028  51.95185   0.24539  19.56252     58575.36 
    13.98182  1.37423  6.69944       0.57359         2376.18927  0.00737  0.02268     0.10087   9.88695     18.67697   4998.48293    -8.78412   1.3771   6812.8354  0.00264  58534.70588  52.26534   0.49065  19.53996  58573.95066 
    14.14577  1.76072  8.27118       3.52152         2909.62796  0.00455  0.05644      0.0363   5.15512     18.33963   3304.95281   -10.68581  1.23916  5773.82406  0.00121  58532.80419  52.05532   0.26002   19.5463     58573.42 
    14.25505  1.67477  7.91072        0.7211         2506.47452  0.04281  0.05437      0.0517   5.04026     18.55916   7238.74868    -9.59878   0.7762  6845.64961  0.00201  58533.89122  52.20074   2.43132  19.52984     58575.38 
    14.12831   1.7464  7.90249       1.81734         2246.61622  0.02834  0.03156     0.03905   8.73307     20.03907   4775.09124    -9.85199  1.38617  6940.52995  0.06079  58533.63801  52.26959   1.83489  19.52783  58573.95066 
    14.09011  1.40736   6.6413         0.344         2080.98816  0.01126  0.05933     0.13828   4.17985     17.88047   5424.24013   -10.44104  0.94328  6391.00681  0.00042  58533.04896  52.11984   0.60873  19.54871  58573.95066 
    14.30212  1.80411  8.24948       3.04884         2161.54429  0.01931  0.08911     0.10322    2.8574     18.02445   4078.25317    -9.66052  0.72311  6996.10934  0.00059  58533.82948  52.15183   0.93825  19.54098     58574.46 
    14.03613  1.58196  7.35886        2.8814          2221.0389  0.00106   0.0716     0.07867   3.82989     17.67265   6386.19606   -10.51122  1.39692  6743.00947  0.00026  58532.97878  52.15613   0.05583  19.54566  58573.95066 
    14.30783  1.71055   7.9547       2.27333         2608.53794   0.0048  0.13766     0.17352   1.73708      16.6958   9293.02829    -8.53546  0.63449  6842.24439    3e-05  58534.95454  52.06288   0.19865  19.51723  58573.95066 
    14.68651  1.69058  7.73629       0.83517         3226.20126  0.00947  0.04429     0.17132   6.85386     18.04458    6820.0333   -12.59182  0.26426  6058.98119  0.00062  58530.89818  52.12744   0.58021  19.55739     58574.35 
    14.19778  1.68083   7.6455       0.30724         2653.03034  0.01289  0.04911     0.06373   5.58762     17.14153   6521.98545   -11.40309   0.9642  6164.50654    8e-05  58532.08691  52.12096    0.7512   19.5319     58574.35 
    14.16149  1.46401  6.87365       0.31825         2643.76705  0.00439  0.05666     0.07591   4.31183     16.81721    6329.2334   -10.60633  0.73931  6648.71429    4e-05  58532.88367  52.15777   0.23946  19.55367      58575.3 
    14.15617  1.61929  7.66579        0.0817         3600.39558  0.02556  0.02899     0.03894   9.31068     17.50437   5493.55314   -10.28991  1.03251  6763.21484  0.00018  58533.20009  52.25328   1.67835   19.5485      58575.4 
    14.27477  1.61794  7.49894       0.92497         2585.96416  0.02335  0.06447     0.05962   4.50953     18.25695   6763.83147   -11.33255  0.64786  6521.79089    0.001  58532.15745  52.14616   1.28839  19.55185     58574.46 
    14.15053  1.84176  8.47487       4.14574         2443.45906  0.00927  0.04665     0.04707   5.79778     16.86973    6449.3078   -10.03646  1.23361   6703.2196    4e-05  58533.45354  52.19769   0.54547  19.54823     58574.35 
    14.24786  1.62231  7.43689        0.4887          3078.9927  0.00147  0.03375     0.04449   7.91801      17.9363   3980.09279   -10.48798  0.75179  6150.86853  0.00048  58533.00202  52.15507   0.09287  19.55691     58574.35 
    14.04743  1.48126   6.8944       0.23807         2699.50968  0.00442  0.03822     0.10467   6.40865     19.11349   4128.66711   -10.02845   1.1237  6767.25927  0.00721  58533.46155  52.21652   0.26623   19.4812     58573.37 
    14.08196  1.60557  7.81686        3.1205         2826.66827  0.01085  0.04295     0.06931   5.72873     17.86764   6278.12214    -9.49084  1.30467  5953.17388  0.00041  58533.99916  52.09334    0.6362  19.55727     58575.36 
    14.27774  1.28718  6.29042       1.81323          2358.5007  0.00936   0.1008     0.13917   2.90035      16.8245   6784.38168   -10.82874  0.43039  6896.88256    4e-05  58532.66126  52.14135   0.45684  19.54589     58574.35 
    14.49173  1.63185  7.46606       0.30162          3474.0221   0.0163  0.09092     0.07932   3.57871     17.33869   7647.29715   -12.87044  0.38808  6391.32381  0.00012  58530.61956  52.10147    0.8449  19.53658     58574.39 
    14.32757  1.98064  9.53564       2.85086          2311.8532  0.14324  0.06512     0.05102   5.27515     19.80128    6030.2194    -10.2931  1.16327  6674.92318  0.03516   58533.1969  52.18381   8.22928  19.51951     58574.46 
    14.67529  2.04493  8.89492       3.46191         2081.61841    0.005  0.05145     0.03985   5.07155     18.06275   8005.21056   -11.04077  0.35533  6349.34396  0.00064  58532.44923  52.13605   0.28424  19.54222     58574.35 
    14.39514  1.98334  8.96189       3.31564         2263.39033  0.03756  0.05366     0.05131   5.62107     16.42312   6668.86944   -11.12408  0.69857   6634.2409    1e-05  58532.36592  52.18539   2.19221  19.53898      58575.4 
    14.07701  1.64908  7.70718       3.08004         2101.13504  0.01637  0.03767     0.03405   7.08203     18.47822   4176.52554    -9.91873  1.54402  6826.89628  0.00167  58533.57127  52.23443   1.01046   19.5642      58575.4 
    14.65234   1.8609  8.39048       1.66034         3330.38554   0.0098   0.1092     0.08222   2.79177     19.32424   5995.94912   -11.99707  0.28739  6614.61394  0.01172  58531.49293  52.10011   0.47297  19.54735  58573.95066 
    14.11049  1.66483   7.6962       2.71054         2270.93551  0.00161  0.05758       0.051   4.58595     18.99469   5463.19334    -9.56989  1.15961  6632.23553  0.00549  58533.92011  52.16266   0.08945  19.55592     58574.46 
    14.47838  1.77094  8.37955        0.0082         3083.68684   0.0653  0.04539     0.05193   5.62821     16.09336    7464.6361   -10.31383   0.4764  7198.65235    1e-05  58533.17617  52.25645   3.81273  19.53187      58575.3 
    14.42328   1.6105  7.55215       1.71352         2695.82041  0.00705  0.12443     0.44758   2.27099     16.58167   8674.54288   -10.40807  0.43774  6776.91511    2e-05  58533.08193  52.09342   0.31922  19.54118  58573.95066 
    13.91724  1.18299  6.31416       4.73073         3177.66426   0.0032   0.0585     0.05892   4.19148     17.97733   3736.19697   -10.32861  0.93764  5755.21432  0.00053  58533.16139  52.02915   0.17314  19.53035     58573.42 
    14.23923  1.87142  8.52236       0.76659         2826.86036  0.01945    0.026     0.05609  10.76255     19.15879   7070.76894   -10.39636  1.17473  6188.62913  0.00801  58533.09364  52.18981   1.31777  19.55161     58574.46 
     14.1559  1.69085  7.91241       4.36013          2324.0566  0.03748  0.09416     0.07641   2.97892     17.77275   8489.01172   -11.19506  0.99113   6237.3134  0.00033  58532.29494  52.05747   1.84325   19.5359      58575.3 
    14.33529  1.60535  7.47732       1.80492         2459.52466  0.01608  0.04013     0.04061   6.99098     19.75323   8787.21798    -9.76549  0.57197  6742.83589  0.03147  58533.72451  52.22235   0.98913   19.5432     58573.42 
    14.38746  1.84745  8.26055       3.73376         2250.93792  0.00205   0.0386     0.04005   7.97454     16.90844   6122.69837     -11.383  0.60915   6431.7901    4e-05    58532.107  52.19456   0.12971  19.55177      58575.3 
    14.25761  1.69151  7.88495       2.07156         2977.19557  0.00146   0.0526      0.0886   5.80771     18.49158   9403.50647   -11.47886  0.76635   5873.1939  0.00172  58532.01114  52.08306   0.08578  19.53265  58573.95066 
    14.03737  1.48939  7.37813        3.4762         2580.60825  0.02425   0.0376     0.04629   7.39095     17.82441   6143.45998    -9.60594  1.42575  6213.21129  0.00037  58533.88406  52.15694   1.51169  19.53992      58575.3 
    14.14962  1.06665  5.50896       1.39641         2091.03164  0.01705  0.04298     0.06875   6.49406     17.57715   7573.66009   -11.49866  0.47517  6472.30461  0.00021  58531.99134  52.17919   1.03055  19.55091     58574.39 
    14.49337  2.17514  9.24246        0.7268         2800.16923  0.00316  0.07886     0.30476   3.58255     17.44684   5832.13338    -11.3221  0.63462  6317.03236  0.00016   58532.1679  52.09144   0.16367  19.53618     58574.46 
     14.2533  1.56297  7.44229       0.06415         3640.07606  0.11657   0.1141     0.14348   2.35284     19.30752   8724.73514    -9.88995  0.74594  6821.32526  0.01128  58533.60005  52.10398   5.33582  19.53258     58573.42 
    14.54592  1.67402  7.75104       2.05709         2703.23871  0.00742  0.10922      0.3475   2.84051     17.67876   8142.28689   -11.11939  0.34107   6642.4153  0.00027  58532.37061    52.106   0.36002  19.55118  58573.95066 
    14.11357  1.70617  7.92107       0.27285         2602.24151  0.05538  0.07641     0.10724    3.5415     17.96511   8034.66815   -10.36126    1.409   6978.4668  0.00051  58533.12874  52.17654   2.86223  19.55424      58575.3 
     14.0198  1.32848  6.38885       0.11907           2788.596   0.0369  0.04559     0.07266   7.85693      18.7857   9279.07119   -12.93975  1.31285  5863.75572  0.00339  58530.55025  52.11278   2.33222  19.56443  58577.07786 
    13.99633  1.37172  6.53655       0.14511         2978.71287   0.0042  0.04459     0.05145    6.0237     18.48512    6349.2931   -10.52395  1.30428  6416.78727   0.0017  58532.96605  52.16383   0.24946  19.53232     58574.46 
    14.11449  1.75507  8.22313       3.11345          2228.3405   0.0342  0.04881     0.05171     5.777     16.44957   6121.70084    -9.20133  1.49393  7130.51364    2e-05  58534.28867  52.25099   2.00982  19.57983     58574.39 
    13.98308  1.40169  6.51358       0.32613         2090.64796  0.00419  0.05559     0.04438   4.98226     17.22454   8229.10549   -12.53638  1.49659  6069.07519    9e-05  58530.95362  52.09488   0.23728  19.53929     58574.46 
    14.53533  1.69296  7.99996       4.33452         2761.42633  0.00319  0.03511       0.042   7.86414     17.01155   7710.35802   -11.03845  0.35089  5982.53418    6e-05  58532.45155  52.13029   0.20173  19.54538     58574.39 
    14.59165  1.63989  4.71515       0.05717         5321.97324  0.17547  0.09776     0.16834   8.30951     16.78384   7648.57276   -22.89009  0.82058  4644.17537    3e-05  58520.59991  51.91577  11.23367  19.53724     58574.46 
    14.12038   1.6583  7.79572        4.2738          2480.1907  0.00521  0.03409     0.03931   8.07758     17.17555   6006.66764   -10.45923  1.09854  6374.94252    8e-05  58533.03077  52.18812   0.33173  19.55051     58574.35 
    14.12451  1.42654  7.03334       0.05774         2346.84647  0.03614  0.02588     0.03009    9.3875     17.95976    6972.1306    -9.48332  0.95806  6582.42169  0.00051  58534.00668  52.23053   2.37778  19.52466  58573.95066 
    14.26725  1.59524  7.71551       3.78943         2614.03586  0.03249  0.05145     0.06531   5.23187     18.61206   3121.11434   -10.44291  0.62466   6527.9565  0.00227  58533.04709  52.16357   1.86294  19.54426     58574.46 
    14.16097  1.62452  7.65657       2.11489         2495.70676  0.01998  0.06746     0.10404   3.83025     19.15836   4926.99552    -8.85911  0.96975  6674.26183    0.008  58534.63089  52.14724   1.05559  19.52296     58574.46 
    14.58609  1.91921  8.42413       0.87094          2534.5753  0.00732  0.10375     0.11299   2.75203     18.88666   7870.46043   -11.83657  0.38361   6587.1046  0.00428  58531.65343  52.09462   0.35183  19.53441     58574.46 
    14.02025  1.58142  7.44978       2.35329         2598.31324  0.01767  0.08035     0.07696   3.27249     18.78623   6557.13248   -11.17499  1.47629  6362.29618   0.0034  58532.31501  52.08654   0.89298  19.56006      58575.3 
