 texplosion  fnickel    Pspin  log(Bfield)      Mns  thetaPB  mejecta    kappa  kappagamma     vejecta  temperature    alpha  cutoff_wavelength  log(nhhost)      A_V         MJD0  kenergy  mnickel            TSD   log(L0)  Peak_mag     Peak_MJD  log(E_rad)  log(Peak_lum)  Rise_Time    E_fold  tau_1  delta_m15     r_peak     frac 
  -10.21628  0.03772  8.43052     14.36952   1.8014  0.84068  9.59498  0.03091     0.02057  6981.18847   6814.27068  1.27615         2459.17281      16.8957    4e-05  58533.27372  2.78952  0.36194  2168126.69815  44.33666  19.56789      58575.3    50.53079       43.80598   26.41839  38.83288   55.0    0.25224  -20.14578  0.88356 
  -11.18573  0.00184  6.32471     14.00212  1.32346  1.46368   2.2647  0.13794     0.10504  7155.53294   7416.85018  0.53908         2995.50685     17.61293  0.00023  58532.30427  0.69171  0.00418  4868243.14031   44.1011  19.54097  58576.39689    50.50737       43.77317   26.41839  45.30503   50.5    0.25879  -20.17966  0.99864 
  -11.72227  0.00349  7.39345     14.22459  1.64835  0.89299  3.34375  0.09563     0.05377   7063.1963   7151.38787  0.65204         3044.85528     19.62971  0.02368  58531.76773  0.99509  0.01167  2974300.51672  44.27482  19.55998      58575.4     50.4626       43.68862    30.1863  45.85188   51.5    0.25342  -20.19568  0.99626 
   -9.72346  0.00795  8.38297     14.25943  1.76799  0.88216  3.09645  0.10405     0.05645  6891.63701   7009.41358   4.7011         2766.83782     16.30887    1e-05  58533.76654  0.87728  0.02462  3493244.30753   44.1263  19.53925     58574.46    50.49024       43.74043   27.45262   44.2708   55.0    0.25392  -20.17519  0.99083 
  -10.83406  0.01706  9.36227     14.27872  2.09234  1.31609  4.63865  0.07594     0.03551  7370.10119   6723.48292  3.35954         2633.40855      16.7964    3e-05  58532.65594  1.50302  0.07912  4718225.90198  43.97294  19.54607  58576.57603    50.52299       43.78166   28.04597  41.99607   52.5    0.25238  -20.20163  0.97207 
  -10.76344  0.00803  7.01744     14.07559  1.50663  1.21817  3.66613  0.07624     0.04282  7381.07533   6971.20009  0.98716         2257.71427     16.25333    1e-05  58532.72656  1.19145  0.02943  4864100.55216  44.06749  19.55658      58575.4    50.52162       43.78968   26.41839  41.99607   51.5    0.24547  -20.17099   0.9903 
  -11.49041  0.01544  7.10243     14.26542  1.55481  0.82819  3.47372  0.10584     0.07859  6974.57671   6961.48538   1.1509             2509.7     16.76205    3e-05  58531.99959  1.00799  0.05364  2145207.03047  44.42624  19.54712      58575.4    50.52133       43.80152   26.41839  40.99026   51.0    0.26517  -20.17116  0.98304 
  -11.54805  0.02312  8.65064     14.28478  2.01334   1.3783   4.2926  0.07427      0.0478  7476.45096   7008.18952   0.0294         2211.31354     16.92249    5e-05  58531.94195  1.43133  0.09925  3769457.91361  44.12239  19.54315      58575.3    50.54056       43.81636   24.26101  40.70518   50.5    0.26512  -20.18507  0.96875 
   -11.4504  0.01635  8.78649     14.36075  2.03402   0.9098  3.97326  0.07916     0.04656  7252.13456   6977.66408  2.26082         2058.99794     16.96194    5e-05   58532.0396  1.24654  0.06496  2768893.97287  44.24726  19.57101      58575.3    50.52565       43.80539   26.41839  40.99026   52.5     0.2446  -20.17505   0.9789 
  -11.06942  0.01676  7.45726     14.30928  1.65366  0.80461  5.88136  0.05191     0.06079  7257.87894   6525.88888  0.14932         3492.82738     16.03603    1e-05  58532.42058  1.84809  0.09854  2055208.73388  44.42928  19.57355     58575.34    50.71511       43.89655   23.94474  44.95059   54.0    0.27996  -20.18073  0.96909 
  -11.52254  0.01234  8.23463     14.20816  1.75481  1.40576  4.21775  0.10921     0.05001  7273.87544   7100.02832  3.19772           2851.533     18.17995  0.00084  58531.96746  1.33119  0.05205   4236482.2937  44.05478  19.55811      58575.4    50.51593        43.7699   28.04597  42.74751   48.5    0.25581  -20.20445  0.98149 
  -10.14757  0.09067   8.6113     14.30601    1.883  0.93995  2.28224  0.14524      0.0793  7701.36427   6836.28468  4.90553         2007.14282     17.38019  0.00013  58533.34243  0.80746  0.20693  3167963.26991  44.17278  19.52887      58575.3    50.53279       43.78427   28.04597  40.99026   51.5    0.25302  -20.19965  0.93094 
  -11.88549  0.04697  6.11564     14.08644  1.28843  1.12891  5.71509  0.06481     0.04045  7293.98073    7128.1815  0.10273         2089.59083     18.32141  0.00116  58531.60451  1.81376  0.26842  3005282.17198  44.32814   19.5529     58574.46    50.52341       43.79366   26.41839  41.83743   48.5    0.27962  -20.19554  0.92209 
  -11.51324  0.00244   7.2816     14.14096  1.59723  1.22957  3.56563  0.09215     0.05622   6849.0763   7011.64317  2.24197         2227.74045     18.51473  0.00182  58531.97676  0.99776  0.00869  4108908.32716  44.13403  19.56267      58575.4    50.54178       43.83847   24.26101  39.24946   53.0    0.24557  -20.14931  0.99717 
  -12.02705  0.02103  7.12451     14.14742  1.57834  1.11644  3.59101  0.08715     0.05554   7312.3322   6670.91347  0.13721         2136.39237     16.19995    1e-05  58531.46295  1.14539  0.07553  3773053.77098  44.18484  19.54785  58576.57603    50.53646       43.75132   29.15534  44.19566   52.5    0.25472  -20.18299  0.97653 
  -11.48531  0.02912   8.4931     14.43586  1.80296   0.6574  8.95657  0.03991     0.02116  6830.53261   6637.37929  1.21604         3177.55956     17.70325  0.00028  58532.00469  2.49275  0.26085   1622599.6349  44.45649  19.55379      58575.4    50.56165       43.83635   25.88859  38.83288   54.0    0.25436  -20.17037  0.91191 
  -11.10185  0.00773  7.50388     14.12951   1.6751  1.55521  3.75511  0.08625     0.06259  7862.08255   6841.16455  0.18837         2044.98207     16.86852    4e-05  58532.38815   1.3846  0.02901  4824076.55477   44.0589  19.54796      58575.3    50.54035       43.80749   26.41839  40.99026   51.5    0.26185  -20.22034  0.99069 
  -11.43578  0.00559   7.6127     14.19878  1.67415  1.07888  4.46451  0.07636     0.04633  7170.34161   6777.79647  0.57603         3342.70249     19.23414  0.00953  58532.05422  1.36924  0.02498  3606914.87592  44.17243  19.55141      58575.3    50.50366       43.73254   29.88173  43.46926   52.0    0.25655  -20.19537  0.99176 
  -10.11645  0.02054  7.75638     14.23413  1.64085  0.87301  5.32795  0.06134     0.03319  7438.78854   6849.01392  4.33618          2227.1575     16.17439    1e-05  58533.37355   1.7587  0.10945  3118499.25573  44.21065  19.55205      58575.3     50.5471       43.83816   24.26101  39.24946   52.5    0.25678  -20.18209  0.96232 
  -12.37249  0.04234  8.11198       14.263  1.81827  1.24021  6.18451  0.05951     0.03809  7341.86884   6902.24015   0.0809         3044.86299     16.34159    1e-05  58531.11751  1.98859  0.26182  3309199.91868  44.19053  19.53103      58575.4    50.54052       43.83057   24.26101  39.24946   51.0    0.25599  -20.18666  0.92003 
  -21.31695   0.0939  6.33178     14.57141  1.38659  0.32208  7.36526  0.05896     0.04075  5749.09448   4489.76519  0.04699         4201.04733     19.08717  0.00679  58522.17305  1.45216  0.69161   371536.94268  45.23774  19.55292     58574.37    50.51056        43.6202   34.51812  56.84303   61.5    0.19379  -20.08567  0.82696 
  -12.00073   0.0061  6.36932     14.15167  1.29755  0.74029  6.94019  0.05273     0.02712  7014.87508   6999.15874  1.37825         2877.94733     16.23727    1e-05  58531.48927  2.03722  0.04236  2430999.88701    44.388  19.59349  58576.39689    50.60235       43.80048   29.67441  43.67659   51.0    0.24551  -20.18131  0.98574 
  -11.51944    0.003  8.03995     14.45701  1.84446  0.59505  6.41428  0.04686     0.03885   7199.4335   7001.21892  0.62575         2239.66738     16.73351    3e-05  58531.97056  1.98322  0.01924  1349512.69801  44.59403  19.54897     58574.46    50.50766       43.76749   28.04597  43.14764   53.5    0.26501  -20.16823  0.99387 
  -15.06048  0.07249  8.15899     14.68861  1.66367  0.27068  8.51982  0.04954      0.0424  7329.95147   4258.77088  1.14729          2790.5887     18.74717   0.0031  58528.42952  2.73061  0.61761   431451.80468  45.03171  19.54334      58575.3     50.5287       43.76882   28.04597  43.14764   59.0    0.21682  -20.19701  0.80587 
  -11.62551   0.0023  7.49598     14.13322   1.6719  1.42875  3.82218  0.08263     0.05468  7182.11657   6794.27826  0.59069         2572.35041     17.64333  0.00024  58531.86449   1.1761   0.0088  4723308.34553  44.06815  19.56563      58575.3     50.5384       43.82107   25.88859  40.84936   53.5    0.24816  -20.17297  0.99716 
    -11.778  0.03795  7.27806     14.19524  1.58816  1.05894   3.1252  0.11434     0.06923  7190.14774   6719.62325  1.31214         2041.26078     16.51165    2e-05    58531.712  0.96378  0.11861  3178829.43938  44.24344  19.53452      58575.3     50.5357       43.80175   26.41839  40.99026   51.5    0.26247  -20.16945  0.96257 
  -10.59683  0.02654  7.08168     14.19975    1.562  1.00242  3.11402  0.09374     0.15974   7205.8472   7087.71849  0.46287         2315.91107     17.74207  0.00031  58532.89317  0.96454  0.08263   2899168.5064  44.29998  19.54132  58576.57603    50.50824       43.71871   30.20335  45.30503   53.0    0.27137  -20.17562   0.9744 
  -11.40146  0.01056  8.26315     14.37345  1.91658  0.80105   8.9976  0.03157     0.02237  7331.50251   6780.30827  0.26703         2182.05398     18.30401  0.00112  58532.08854  2.88496  0.09504  2176343.60369  44.37935   19.5635     58574.39    50.55291       43.83956   24.26101  40.99026   53.5    0.25486  -20.18393   0.9705 
  -11.47525  0.00859  8.13402     14.13381  1.79879  1.38219  7.46824  0.04053       0.046  6850.81825   3354.84037  2.06606         2793.23343      19.2964  0.01099  58532.01475  2.09089  0.06417  5967298.25597  43.92744  19.53688      58575.4    50.51985       43.78761   26.41839  42.74751   60.0     0.2244  -20.17548   0.9783 
  -12.86204  0.06831  8.03336     14.23872  1.76004  1.34607   5.3187   0.0762     0.04188   7400.6412   6992.99851   0.1539         3057.34091     18.60819  0.00225  58530.62796  1.73769  0.36334  3513186.49324  44.15887  19.57076     58574.46    50.52769        43.8087   26.41839  38.83288   50.5    0.25126  -20.19524  0.88958 
   -10.7609  0.00497  6.87876     13.98028  1.42538  1.55422  9.03501  0.03062     0.05318   6884.4103   3188.08046  3.30351         2455.66343     18.28737  0.00108   58532.7291   2.5544  0.04492  6858065.06095  43.91155  19.54395    58573.813     50.5112       43.77608   26.41839  43.14764   60.5    0.23675  -20.14846  0.98451 
  -11.56452  0.00346  7.70421     14.16651  1.68828  1.37845   4.9385  0.08083      0.0473  7137.01613   7149.40295  1.73841         2682.79871     16.92892    5e-05  58531.92548  1.50057  0.01708  4322055.33015  44.08714   19.5668      58575.4    50.53197       43.78555   28.04597  40.99026   50.0    0.25201  -20.18882  0.99429 
    -12.353  0.01116  6.57519     14.22422  1.42444  0.69923  3.74576  0.08656     0.05018  7302.33738   6931.21424  0.29067         2167.82205     18.55226  0.00198    58531.137  1.19149  0.04179  2036243.44238  44.47784  19.54483      58575.4    50.53477       43.79391   28.04597  40.99026   51.0    0.25946   -20.1854  0.98696 
  -13.28068  0.00273  6.47895     14.16365  1.41139   0.8234   5.3991  0.06169      0.0372  7127.93763    6884.2303  0.30977         2437.91673     18.21059   0.0009  58530.20932  1.63635  0.01473  2589231.26016  44.38231  19.54578  58576.57603    50.52469       43.79119   28.04597  40.99026   52.0    0.25617  -20.17862  0.99544 
  -12.15004  0.00835  7.41354      14.3799  1.63337  0.64072  5.23151  0.06943     0.07278   6842.2383   7050.75845   1.1287         2659.16745     17.90125  0.00044  58531.33996    1.461  0.04368   1449284.4735  44.58073  19.55275      58575.4    50.52525       43.80328   26.41839  40.99026   52.5    0.25872  -20.16038  0.98596 
  -11.69228  0.00104  6.33545     13.97332  1.30571  1.38248  2.77644  0.11699       0.093  7183.94618   6912.81075  1.16841         2616.70345      17.0685    7e-05  58531.79772  0.85476  0.00288  5502611.15111  44.04057  19.55639     58574.35    50.50449       43.75495   27.45262  46.42818   55.0    0.24952  -20.17233  0.99903 
  -11.15784  0.00442  8.14151     14.08995  1.71056  1.48043  4.92607  0.06103     0.05009  6296.89641   3320.07685  3.53128          3135.1591     19.43004  0.01495  58532.33216  1.16515  0.02176   6957597.5636  43.83811  19.53633      58575.3    50.54107       43.83407   24.26101  39.24946   60.5    0.23421  -20.16412  0.99189 
  -12.40661    0.013  6.41622     14.05823  1.38839   1.1198  4.30944  0.07259     0.04354  7332.26243   6919.90422  0.15275         2027.53765     19.19702  0.00874  58531.08339  1.38205  0.05602  4059049.76352  44.18837  19.58616      58575.4     50.6243       43.85322   25.88859  39.24946   51.5    0.24904  -20.19307  0.98277 
  -12.11324  0.09512  8.10695     14.48293  1.97101  1.03951  6.47116  0.09187     0.28912  7089.14479    6896.6596  1.85997         2415.90718     19.89613  0.04374  58531.37676  1.93998  0.61551  1301264.61481  44.63145  19.54134      58575.4    50.54509       43.82534   25.88859  39.24946   48.0    0.24146   -20.2292  0.84886 
  -11.78405  0.03214  7.38436     14.34007  1.67515  0.76217  2.73496   0.1238     0.11582  7110.37746   6893.66837  0.02168         2507.39745     17.75468  0.00032  58531.70595  0.82483  0.08789  1771598.49629  44.50791  19.55374      58575.4    50.55317       43.82748   25.88859  40.70518   52.0     0.2612  -20.16738  0.97341 
  -11.62338   0.0098  6.21967      14.0968  1.28242  0.79888  4.74565  0.06969     0.03892  7336.56092    6767.3502  1.14424         2389.78766     18.90817   0.0045  58531.86662  1.52373  0.04651  2949708.28704  44.31956  19.55584      58575.4    50.53115        43.7783   28.04597  41.99607   52.5    0.25203  -20.18483  0.98478 
  -11.79058  0.00172  7.39702      14.1865  1.64942   1.1188  8.57318  0.03808     0.02708  6860.32656   7197.81717   1.1147         2406.21943     17.54336  0.00019  58531.69942   2.4069  0.01475  3550198.70376  44.19781   19.5555      58575.4    50.53732        43.8044   25.88859  43.14764   52.5    0.24804  -20.15397  0.99529 
  -12.41763  0.03145  7.34592      14.2523  1.59452  0.78162  4.90263  0.07359     0.03333  7688.56748   6803.99441  0.22067         2356.87808     17.52172  0.00018  58531.07237  1.72881  0.15417  2499999.64062  44.34144  19.54088      58575.4    50.51306       43.77183   26.41839  45.30503   49.0    0.25064   -20.2088    0.951 
  -20.06488  0.01269  6.58294     14.67193  1.53425  0.23535  7.35274  0.05175     0.07441  6204.88539   3840.79181  0.04524         2663.68329     19.29643  0.01099  58523.42512  1.68867  0.09327   279700.76322  45.37121  19.56323  58576.39689    50.55958       43.85036   24.26101  38.83288   60.0    0.20563   -20.1354  0.97416 
  -11.36998  0.00204  7.09905     14.09541  1.54817  1.34421  6.86508  0.04364     0.02834  7272.38541   6955.11952  0.68677         2437.74943     17.82517  0.00037  58532.12002  2.16584  0.01402  4668871.70142  44.08705  19.55242     58574.46    50.54528       43.84227   24.26101  39.24946   52.5    0.25452  -20.17488  0.99546 
  -13.43632  0.02978  7.40673     14.32747  1.65748  0.75754  7.77413  0.04743     0.02196   7277.6965   6765.17075  0.22415         2279.38388     16.11761    1e-05  58530.05368  2.45622  0.23154  1868871.34904  44.47746  19.56509      58575.4     50.5397       43.81896   25.88859  40.99026   49.5    0.25445  -20.20223   0.9314 
   -11.4003  0.01146  7.38642     14.24935   1.5741   0.8538  7.76324  0.04502     0.02753  6985.85695   6733.22274  0.60608         3544.47593     17.84823  0.00039   58532.0897     2.26  0.08897   2529361.6126    44.326  19.55163  58576.39689    50.53259       43.80532   26.41839  38.83288   51.5    0.25715  -20.18174   0.9704 
  -11.57276  0.02239  6.32162     14.09661  1.30786  0.87144  5.11015  0.06133     0.04079  7400.28634    6508.2612  0.29221          2992.0441     18.61365  0.00228  58531.91724  1.66939  0.11442  3110414.38148  44.29093  19.53974      58575.4    50.54475       43.81124   28.04597  38.83288   53.5    0.26675  -20.19112  0.96334 
  -10.17485  0.00415  7.40845     14.11263  1.58882  1.13028   3.3718  0.08503     0.05043  7470.57504   7038.82909  4.48089         2122.78129     19.13805  0.00763  58533.31515  1.12253    0.014  4820380.40991  44.04738  19.54372      58575.3    50.51354        43.7627   27.45262   44.2708   53.0    0.25459  -20.18133  0.99521 
  -10.30689  0.00125  8.31891     14.36638  1.89423  0.80034  4.00165  0.07479     0.05904  7226.93943   6997.69391  1.16128         2434.42675     16.28555    1e-05  58533.18311  1.24674  0.00502  2252299.36054  44.35352  19.55312      58575.3    50.53031       43.80371   28.04597  40.99026   53.0    0.25892  -20.17381  0.99835 
  -11.37801  0.00701  7.50032     14.24323  1.67905  0.95255   3.1676  0.09507     0.07538  7134.74843   6794.09053  0.27606         3092.91539     17.65369  0.00025  58532.11199  0.96187   0.0222  2861460.72051  44.28716  19.55115     58577.42    50.57767       43.82188   29.57653  43.14764   53.0    0.26908  -20.17143  0.99292 
  -11.34845  0.07702  6.64012     14.05601  1.32106  1.29157  5.04449  0.07599     0.04627  7559.53563   6419.38485  0.74306         2691.34132     17.12836    7e-05  58532.14155  1.71963   0.3885  4178905.52355  44.12435  19.53361  58576.39689    50.55518       43.83347   25.88859  40.84936   53.0    0.25983  -20.20978  0.87742 
  -11.64692  0.01073  6.55994     14.20247  1.43607  0.84094  3.85026  0.08371     0.38857   7048.7808    6956.4381  0.43557         2437.42551     16.93819    5e-05  58531.84308  1.14116  0.04131  2258674.17634  44.43837  19.55854      58575.4    50.54277        43.8129   25.88859  43.14764   52.0    0.27005  -20.17385  0.98739 
  -12.70359  0.01405   7.5679     14.38977  1.73788  0.68429  3.77863   0.0751     0.03809  6036.29816   7359.70029   0.2958         4783.69718     16.86164    4e-05  58530.78641   0.8213   0.0531  1535502.43551  44.56466  19.55605  58576.39689    50.54832       43.81101   28.04597  40.99026   52.0    0.25149  -20.13881  0.98384 
  -10.23048  0.07006  8.16854     14.22301  1.63412  1.15975  3.72206   0.1063     0.06333   6721.4748    6908.5302  2.58615         3068.00422     17.91703  0.00046  58533.25952  1.00309  0.26076  3625516.93307  44.09847  19.53546      58575.4    50.52815       43.78827   28.04597  41.99607   53.0    0.25682  -20.16587  0.90634 
  -10.71767  0.03337  8.16691     14.36706  1.77397  0.73373  4.31615  0.07904     0.04879  7213.03301   7039.68391  2.71742         2417.05805     17.77832  0.00033  58532.77233  1.33955  0.14404  2026563.02201  44.38692  19.54392      58575.3    50.55165       43.73929   29.84833  49.97481   52.5    0.25115  -20.18724  0.95184 
  -12.22249  0.01714  7.55514     14.40953    1.747  0.65328  6.02095  0.05108     0.03054  6954.65335    6902.3837  0.06422         2803.87832     17.10337    7e-05  58531.26751  1.73717  0.10319  1404511.93793  44.60713  19.54314     58574.46    50.56313       43.85508    25.6763  39.20848   51.5    0.25895   -20.1675  0.96941 
  -10.58497  0.06883  7.64048     14.25742   1.6299  0.86657   2.9753  0.10814     0.06542  7125.33148    6887.0752  3.75637         2159.02202     17.44587  0.00016  58532.90503  0.90109  0.20479  2700063.16561  44.28339  19.57107  58576.57603     50.5865       43.80982   28.04597  40.99026   54.0    0.24491  -20.17612  0.93331 
  -13.36237  0.06704  9.59922     14.80357  1.97504  0.29896  8.93231  0.05094     0.04982  7028.15803   4108.67394  4.34308         2619.80247     18.30779  0.00113  58530.12763  2.63193  0.59886   417568.74906  44.97922  19.55054     58574.35     50.5231       43.77299   28.04597  42.78091   58.0    0.21205    -20.177  0.80099 
