"Time (MJD)" g-4746.48 g-4746.48_err i-7829.03 i-7829.03_err r-6366.38 r-6366.38_err w-5980.7 w-5980.7_err "Temp./1e3 (K)" "Temp. Err." "Radius/1e15 (cm)" "Radius Err." "Log10(Bol. Lum)" "Log10(Bol. Err)"
-12.000 -21.550 -0.073 -21.416 -0.053 -21.368 -0.058 -21.175 -0.110 17.960 0.308 2.057 0.041 44.497 42.960
-11.600 -21.554 -0.070 -21.420 -0.049 -21.372 -0.055 -21.180 -0.108 17.940 0.305 2.063 0.041 44.497 42.956
-11.200 -21.557 -0.068 -21.423 -0.047 -21.376 -0.052 -21.184 -0.106 17.914 0.302 2.070 0.041 44.498 42.952
-10.800 -21.559 -0.066 -21.427 -0.044 -21.380 -0.050 -21.189 -0.104 17.880 0.298 2.078 0.040 44.498 42.946
-10.400 -21.562 -0.065 -21.431 -0.042 -21.384 -0.048 -21.193 -0.103 17.840 0.293 2.087 0.040 44.497 42.938
-10.000 -21.564 -0.064 -21.435 -0.041 -21.388 -0.047 -21.198 -0.102 17.791 0.287 2.097 0.040 44.497 42.929
-9.600 -21.566 -0.063 -21.438 -0.040 -21.392 -0.046 -21.202 -0.101 17.736 0.280 2.108 0.039 44.496 42.918
-9.200 -21.568 -0.063 -21.442 -0.040 -21.395 -0.046 -21.207 -0.100 17.674 0.272 2.120 0.038 44.495 42.905
-8.800 -21.569 -0.063 -21.445 -0.040 -21.399 -0.046 -21.211 -0.100 17.606 0.265 2.133 0.038 44.493 42.891
-8.400 -21.570 -0.064 -21.448 -0.041 -21.402 -0.046 -21.215 -0.100 17.533 0.257 2.146 0.037 44.491 42.877
-8.000 -21.571 -0.065 -21.451 -0.042 -21.406 -0.047 -21.220 -0.100 17.455 0.250 2.160 0.037 44.489 42.863
-7.600 -21.571 -0.066 -21.454 -0.043 -21.409 -0.048 -21.224 -0.100 17.375 0.243 2.175 0.036 44.487 42.849
-7.200 -21.571 -0.067 -21.456 -0.044 -21.412 -0.049 -21.228 -0.101 17.291 0.237 2.190 0.036 44.485 42.836
-6.800 -21.571 -0.068 -21.458 -0.046 -21.415 -0.051 -21.232 -0.101 17.204 0.231 2.205 0.036 44.482 42.823
-6.400 -21.570 -0.070 -21.460 -0.048 -21.417 -0.052 -21.235 -0.102 17.115 0.226 2.221 0.035 44.479 42.810
-6.000 -21.570 -0.071 -21.462 -0.050 -21.419 -0.054 -21.239 -0.103 17.023 0.222 2.237 0.035 44.476 42.799
-5.600 -21.568 -0.073 -21.463 -0.052 -21.421 -0.056 -21.243 -0.104 16.930 0.218 2.253 0.035 44.473 42.788
-5.200 -21.567 -0.074 -21.464 -0.054 -21.423 -0.058 -21.246 -0.105 16.835 0.215 2.270 0.035 44.470 42.779
-4.800 -21.565 -0.076 -21.465 -0.057 -21.425 -0.060 -21.249 -0.106 16.738 0.213 2.286 0.036 44.466 42.769
-4.400 -21.563 -0.078 -21.466 -0.059 -21.426 -0.062 -21.252 -0.107 16.640 0.210 2.303 0.036 44.462 42.761
-4.000 -21.560 -0.079 -21.466 -0.061 -21.427 -0.065 -21.255 -0.108 16.540 0.209 2.321 0.036 44.458 42.754
-3.600 -21.557 -0.081 -21.466 -0.063 -21.428 -0.067 -21.258 -0.110 16.440 0.208 2.338 0.037 44.454 42.748
-3.200 -21.554 -0.082 -21.466 -0.066 -21.428 -0.069 -21.260 -0.111 16.339 0.208 2.356 0.037 44.450 42.742
-2.800 -21.550 -0.084 -21.465 -0.068 -21.428 -0.071 -21.263 -0.112 16.244 0.208 2.372 0.038 44.446 42.739
-2.400 -21.546 -0.085 -21.464 -0.070 -21.428 -0.073 -21.265 -0.114 16.137 0.208 2.391 0.039 44.441 42.735
-2.000 -21.542 -0.087 -21.463 -0.072 -21.428 -0.075 -21.267 -0.115 16.036 0.210 2.409 0.040 44.437 42.732
-1.600 -21.537 -0.088 -21.461 -0.074 -21.427 -0.077 -21.268 -0.116 15.944 0.212 2.424 0.041 44.432 42.731
-1.200 -21.532 -0.089 -21.459 -0.075 -21.426 -0.079 -21.270 -0.118 15.846 0.214 2.441 0.042 44.428 42.730
-0.800 -21.527 -0.090 -21.457 -0.077 -21.425 -0.080 -21.271 -0.119 15.747 0.216 2.458 0.043 44.423 42.730
-0.400 -21.522 -0.091 -21.455 -0.079 -21.424 -0.082 -21.272 -0.120 15.634 0.218 2.479 0.045 44.418 42.728
0.000 -21.516 -0.092 -21.452 -0.080 -21.422 -0.083 -21.273 -0.121 15.549 0.222 2.493 0.046 44.413 42.729
0.400 -21.510 -0.093 -21.449 -0.081 -21.420 -0.085 -21.274 -0.122 15.438 0.224 2.513 0.048 44.408 42.728
0.800 -21.503 -0.093 -21.446 -0.083 -21.417 -0.086 -21.274 -0.123 15.342 0.228 2.530 0.049 44.402 42.728
1.200 -21.497 -0.094 -21.442 -0.084 -21.415 -0.087 -21.274 -0.124 15.246 0.231 2.546 0.051 44.397 42.728
1.600 -21.490 -0.094 -21.439 -0.085 -21.412 -0.088 -21.274 -0.125 15.152 0.235 2.563 0.053 44.392 42.729
2.000 -21.483 -0.094 -21.434 -0.085 -21.409 -0.089 -21.273 -0.126 15.059 0.238 2.579 0.054 44.387 42.729
2.400 -21.475 -0.094 -21.430 -0.086 -21.406 -0.090 -21.273 -0.127 14.967 0.242 2.595 0.056 44.382 42.728
2.800 -21.468 -0.094 -21.426 -0.087 -21.402 -0.091 -21.272 -0.127 14.893 0.246 2.606 0.058 44.377 42.730
3.200 -21.460 -0.094 -21.421 -0.087 -21.398 -0.091 -21.271 -0.128 14.788 0.249 2.626 0.060 44.371 42.727
3.600 -21.452 -0.094 -21.416 -0.087 -21.394 -0.092 -21.270 -0.128 14.700 0.252 2.640 0.062 44.365 42.726
4.000 -21.443 -0.094 -21.410 -0.088 -21.390 -0.092 -21.268 -0.129 14.615 0.255 2.655 0.063 44.360 42.724
4.400 -21.435 -0.094 -21.405 -0.088 -21.385 -0.092 -21.266 -0.129 14.530 0.258 2.669 0.065 44.355 42.722
4.800 -21.426 -0.093 -21.399 -0.088 -21.380 -0.092 -21.264 -0.130 14.448 0.261 2.683 0.067 44.349 42.720
5.200 -21.417 -0.093 -21.393 -0.088 -21.375 -0.092 -21.262 -0.130 14.383 0.265 2.692 0.069 44.344 42.720
5.600 -21.408 -0.092 -21.387 -0.088 -21.370 -0.092 -21.259 -0.130 14.308 0.268 2.704 0.071 44.339 42.717
6.000 -21.398 -0.092 -21.380 -0.087 -21.365 -0.092 -21.256 -0.130 14.231 0.270 2.716 0.072 44.334 42.714
6.400 -21.389 -0.091 -21.374 -0.087 -21.359 -0.092 -21.253 -0.130 14.155 0.273 2.728 0.074 44.328 42.711
6.800 -21.379 -0.091 -21.367 -0.087 -21.353 -0.092 -21.250 -0.130 14.061 0.274 2.745 0.076 44.322 42.704
7.200 -21.369 -0.090 -21.360 -0.086 -21.347 -0.091 -21.246 -0.130 13.989 0.276 2.756 0.077 44.316 42.701
7.600 -21.359 -0.090 -21.353 -0.086 -21.341 -0.091 -21.243 -0.130 13.918 0.278 2.766 0.079 44.311 42.697
8.000 -21.349 -0.089 -21.345 -0.085 -21.334 -0.091 -21.239 -0.130 13.864 0.282 2.772 0.081 44.306 42.696
8.400 -21.338 -0.089 -21.338 -0.085 -21.327 -0.090 -21.234 -0.129 13.783 0.283 2.785 0.082 44.300 42.691
8.800 -21.328 -0.089 -21.330 -0.085 -21.320 -0.090 -21.230 -0.129 13.719 0.286 2.794 0.084 44.294 42.689
9.200 -21.317 -0.089 -21.322 -0.084 -21.313 -0.089 -21.225 -0.129 13.656 0.290 2.801 0.086 44.289 42.687
9.600 -21.306 -0.089 -21.314 -0.084 -21.306 -0.089 -21.220 -0.129 13.595 0.293 2.809 0.088 44.283 42.686
10.000 -21.296 -0.089 -21.305 -0.084 -21.298 -0.089 -21.214 -0.128 13.537 0.298 2.815 0.090 44.278 42.686
10.400 -21.285 -0.090 -21.296 -0.083 -21.290 -0.088 -21.209 -0.128 13.491 0.303 2.818 0.093 44.273 42.688
10.800 -21.274 -0.090 -21.288 -0.083 -21.282 -0.088 -21.203 -0.128 13.426 0.309 2.826 0.095 44.267 42.689
11.200 -21.263 -0.091 -21.278 -0.083 -21.273 -0.088 -21.197 -0.128 13.374 0.315 2.830 0.098 44.261 42.692
11.600 -21.251 -0.092 -21.269 -0.083 -21.265 -0.088 -21.191 -0.128 13.323 0.322 2.834 0.101 44.256 42.697
12.000 -21.240 -0.093 -21.259 -0.083 -21.256 -0.087 -21.184 -0.127 13.273 0.330 2.837 0.104 44.250 42.701
12.400 -21.229 -0.095 -21.250 -0.084 -21.247 -0.087 -21.177 -0.127 13.225 0.339 2.839 0.107 44.245 42.707
12.800 -21.217 -0.096 -21.240 -0.084 -21.237 -0.088 -21.170 -0.127 13.178 0.348 2.841 0.111 44.239 42.712
13.200 -21.206 -0.097 -21.229 -0.084 -21.227 -0.088 -21.163 -0.127 13.133 0.358 2.842 0.115 44.234 42.719
13.600 -21.194 -0.099 -21.219 -0.085 -21.217 -0.088 -21.156 -0.128 13.089 0.368 2.843 0.119 44.228 42.726
14.000 -21.182 -0.100 -21.208 -0.085 -21.207 -0.088 -21.148 -0.128 13.046 0.379 2.843 0.123 44.222 42.733
14.400 -21.170 -0.102 -21.197 -0.086 -21.197 -0.089 -21.140 -0.128 13.004 0.391 2.842 0.127 44.217 42.740
14.800 -21.158 -0.104 -21.186 -0.087 -21.186 -0.089 -21.132 -0.128 12.964 0.404 2.841 0.132 44.211 42.748
15.200 -21.145 -0.106 -21.174 -0.087 -21.175 -0.089 -21.124 -0.129 12.924 0.416 2.840 0.136 44.205 42.756
15.600 -21.133 -0.107 -21.163 -0.088 -21.164 -0.090 -21.116 -0.129 12.886 0.430 2.837 0.141 44.199 42.764
16.000 -21.120 -0.109 -21.151 -0.089 -21.152 -0.091 -21.107 -0.129 12.848 0.443 2.835 0.146 44.193 42.771
16.400 -21.107 -0.111 -21.139 -0.090 -21.141 -0.091 -21.098 -0.130 12.811 0.457 2.832 0.151 44.187 42.778
16.800 -21.095 -0.113 -21.127 -0.091 -21.129 -0.092 -21.089 -0.130 12.775 0.471 2.828 0.156 44.181 42.785
17.200 -21.082 -0.114 -21.114 -0.091 -21.117 -0.093 -21.080 -0.131 12.740 0.485 2.824 0.161 44.175 42.792
17.600 -21.069 -0.116 -21.102 -0.092 -21.105 -0.093 -21.070 -0.131 12.705 0.499 2.820 0.166 44.169 42.798
18.000 -21.056 -0.118 -21.089 -0.093 -21.092 -0.094 -21.061 -0.132 12.671 0.513 2.816 0.171 44.163 42.803
18.400 -21.042 -0.120 -21.076 -0.094 -21.080 -0.095 -21.051 -0.133 12.638 0.526 2.811 0.176 44.157 42.808
18.800 -21.029 -0.121 -21.063 -0.095 -21.068 -0.095 -21.041 -0.133 12.605 0.540 2.806 0.181 44.151 42.812
19.200 -21.016 -0.123 -21.050 -0.096 -21.055 -0.096 -21.031 -0.134 12.573 0.553 2.800 0.186 44.145 42.816
19.600 -21.002 -0.125 -21.037 -0.097 -21.042 -0.097 -21.021 -0.135 12.542 0.566 2.794 0.191 44.139 42.820
20.000 -20.989 -0.126 -21.024 -0.098 -21.030 -0.098 -21.011 -0.135 12.512 0.579 2.788 0.195 44.133 42.823
20.400 -20.975 -0.128 -21.011 -0.099 -21.017 -0.098 -21.000 -0.136 12.482 0.591 2.782 0.200 44.127 42.826
20.800 -20.961 -0.129 -20.998 -0.099 -21.004 -0.099 -20.990 -0.137 12.452 0.603 2.775 0.204 44.121 42.828
21.200 -20.948 -0.131 -20.984 -0.100 -20.991 -0.100 -20.979 -0.137 12.424 0.615 2.769 0.209 44.114 42.830
21.600 -20.934 -0.133 -20.971 -0.101 -20.978 -0.100 -20.969 -0.138 12.396 0.627 2.762 0.213 44.108 42.831
22.000 -20.920 -0.134 -20.958 -0.102 -20.965 -0.101 -20.958 -0.139 12.369 0.638 2.754 0.217 44.102 42.832
22.400 -20.907 -0.136 -20.944 -0.103 -20.952 -0.102 -20.947 -0.140 12.343 0.649 2.747 0.221 44.096 42.833
22.800 -20.893 -0.137 -20.931 -0.104 -20.939 -0.103 -20.936 -0.141 12.317 0.660 2.739 0.224 44.090 42.833
23.200 -20.879 -0.139 -20.917 -0.105 -20.926 -0.104 -20.925 -0.142 12.292 0.670 2.731 0.228 44.084 42.834
23.600 -20.866 -0.141 -20.904 -0.106 -20.913 -0.104 -20.914 -0.143 12.268 0.680 2.723 0.231 44.078 42.833
24.000 -20.852 -0.143 -20.891 -0.107 -20.899 -0.105 -20.903 -0.144 12.244 0.690 2.715 0.235 44.072 42.833
24.400 -20.838 -0.144 -20.877 -0.108 -20.886 -0.106 -20.892 -0.145 12.222 0.699 2.706 0.238 44.066 42.832
24.800 -20.825 -0.146 -20.864 -0.109 -20.873 -0.108 -20.881 -0.146 12.200 0.707 2.698 0.241 44.060 42.831
25.200 -20.811 -0.148 -20.851 -0.111 -20.860 -0.109 -20.870 -0.148 12.179 0.716 2.689 0.243 44.054 42.830
25.600 -20.798 -0.150 -20.838 -0.112 -20.847 -0.110 -20.859 -0.149 12.159 0.724 2.680 0.246 44.049 42.828
26.000 -20.785 -0.152 -20.824 -0.114 -20.835 -0.112 -20.848 -0.151 12.140 0.731 2.670 0.248 44.043 42.826
26.400 -20.771 -0.155 -20.811 -0.116 -20.822 -0.114 -20.837 -0.153 12.122 0.738 2.661 0.250 44.037 42.824
26.800 -20.758 -0.157 -20.798 -0.118 -20.809 -0.116 -20.825 -0.155 12.105 0.744 2.651 0.252 44.032 42.822
27.200 -20.745 -0.159 -20.785 -0.120 -20.796 -0.118 -20.814 -0.157 12.089 0.750 2.641 0.254 44.026 42.820
27.600 -20.732 -0.162 -20.773 -0.122 -20.784 -0.120 -20.803 -0.159 12.075 0.756 2.631 0.255 44.021 42.817
28.000 -20.720 -0.165 -20.760 -0.125 -20.771 -0.123 -20.792 -0.161 12.061 0.761 2.621 0.257 44.015 42.814
28.400 -20.707 -0.168 -20.747 -0.128 -20.759 -0.126 -20.780 -0.164 12.049 0.765 2.611 0.257 44.010 42.811
28.800 -20.694 -0.171 -20.735 -0.131 -20.746 -0.129 -20.769 -0.167 12.037 0.769 2.600 0.258 44.005 42.808
