"Time (MJD)" cyan-5182.42 cyan-5182.42_err g-4746.48 g-4746.48_err orange-6629.82 orange-6629.82_err r-6366.38 r-6366.38_err "Temp./1e3 (K)" "Temp. Err." "Radius/1e15 (cm)" "Radius Err." "Log10(Bol. Lum)" "Log10(Bol. Err)"
-29.000 -19.791 -0.108 -19.765 -0.098 -19.695 -0.097 -19.680 -0.102 11.541 0.242 1.757 0.050 43.591 42.044
-28.600 -19.806 -0.105 -19.780 -0.095 -19.710 -0.094 -19.694 -0.099 11.557 0.243 1.765 0.050 43.598 42.051
-28.200 -19.821 -0.101 -19.795 -0.091 -19.724 -0.091 -19.709 -0.096 11.574 0.243 1.774 0.050 43.605 42.058
-27.800 -19.837 -0.099 -19.810 -0.089 -19.739 -0.089 -19.723 -0.094 11.591 0.243 1.783 0.050 43.612 42.065
-27.400 -19.853 -0.096 -19.826 -0.086 -19.754 -0.087 -19.738 -0.092 11.609 0.243 1.791 0.050 43.618 42.072
-27.000 -19.868 -0.093 -19.841 -0.084 -19.768 -0.085 -19.752 -0.091 11.628 0.243 1.800 0.051 43.625 42.079
-26.600 -19.884 -0.091 -19.857 -0.082 -19.783 -0.083 -19.767 -0.089 11.647 0.244 1.809 0.051 43.632 42.086
-26.200 -19.900 -0.089 -19.872 -0.080 -19.798 -0.082 -19.782 -0.088 11.667 0.244 1.817 0.051 43.639 42.093
-25.800 -19.916 -0.087 -19.888 -0.078 -19.813 -0.081 -19.796 -0.087 11.688 0.244 1.826 0.051 43.647 42.100
-25.400 -19.932 -0.085 -19.904 -0.077 -19.828 -0.080 -19.811 -0.086 11.708 0.244 1.834 0.051 43.654 42.107
-25.000 -19.948 -0.083 -19.920 -0.075 -19.843 -0.079 -19.826 -0.085 11.730 0.244 1.843 0.051 43.661 42.114
-24.600 -19.964 -0.082 -19.936 -0.074 -19.858 -0.078 -19.841 -0.084 11.752 0.245 1.852 0.052 43.668 42.121
-24.200 -19.981 -0.080 -19.952 -0.072 -19.873 -0.078 -19.856 -0.084 11.774 0.245 1.860 0.052 43.676 42.128
-23.800 -19.997 -0.078 -19.968 -0.071 -19.889 -0.077 -19.871 -0.083 11.797 0.245 1.869 0.052 43.683 42.136
-23.400 -20.014 -0.077 -19.984 -0.069 -19.904 -0.076 -19.886 -0.082 11.821 0.245 1.878 0.052 43.691 42.143
-23.000 -20.030 -0.075 -20.000 -0.068 -19.919 -0.075 -19.901 -0.081 11.845 0.245 1.886 0.052 43.698 42.150
-22.600 -20.047 -0.074 -20.016 -0.067 -19.935 -0.074 -19.916 -0.080 11.869 0.246 1.895 0.052 43.706 42.158
-22.200 -20.063 -0.072 -20.033 -0.065 -19.950 -0.073 -19.931 -0.079 11.895 0.246 1.903 0.052 43.713 42.165
-21.800 -20.080 -0.070 -20.049 -0.064 -19.965 -0.072 -19.946 -0.078 11.922 0.245 1.912 0.053 43.721 42.172
-21.400 -20.097 -0.069 -20.066 -0.062 -19.981 -0.071 -19.962 -0.077 11.950 0.245 1.920 0.052 43.729 42.178
-21.000 -20.113 -0.067 -20.082 -0.061 -19.996 -0.070 -19.977 -0.076 11.978 0.244 1.928 0.052 43.737 42.184
-20.600 -20.130 -0.065 -20.098 -0.059 -20.012 -0.068 -19.992 -0.074 12.008 0.243 1.936 0.052 43.744 42.190
-20.200 -20.147 -0.063 -20.115 -0.057 -20.027 -0.067 -20.007 -0.073 12.039 0.242 1.943 0.052 43.752 42.196
-19.800 -20.164 -0.061 -20.131 -0.056 -20.042 -0.065 -20.022 -0.072 12.071 0.241 1.951 0.052 43.760 42.202
-19.400 -20.180 -0.059 -20.148 -0.054 -20.057 -0.064 -20.036 -0.070 12.103 0.240 1.958 0.051 43.768 42.208
-19.000 -20.197 -0.057 -20.164 -0.052 -20.072 -0.062 -20.051 -0.068 12.135 0.239 1.965 0.051 43.776 42.214
-18.600 -20.213 -0.055 -20.180 -0.050 -20.087 -0.060 -20.065 -0.066 12.168 0.239 1.972 0.051 43.784 42.220
-18.200 -20.229 -0.053 -20.196 -0.047 -20.101 -0.058 -20.080 -0.065 12.202 0.239 1.979 0.051 43.792 42.227
-17.800 -20.245 -0.051 -20.211 -0.045 -20.116 -0.056 -20.094 -0.063 12.236 0.239 1.986 0.051 43.799 42.235
-17.400 -20.261 -0.048 -20.226 -0.043 -20.130 -0.054 -20.108 -0.061 12.270 0.240 1.992 0.051 43.807 42.243
-17.000 -20.276 -0.046 -20.241 -0.040 -20.144 -0.053 -20.121 -0.059 12.305 0.242 1.998 0.052 43.814 42.253
-16.600 -20.291 -0.043 -20.256 -0.038 -20.157 -0.051 -20.134 -0.057 12.340 0.244 2.004 0.052 43.822 42.263
-16.200 -20.306 -0.041 -20.271 -0.036 -20.171 -0.049 -20.147 -0.056 12.377 0.247 2.009 0.053 43.829 42.274
-15.800 -20.321 -0.039 -20.285 -0.033 -20.184 -0.047 -20.160 -0.054 12.414 0.251 2.013 0.054 43.836 42.287
-15.400 -20.335 -0.037 -20.298 -0.031 -20.196 -0.046 -20.172 -0.053 12.453 0.255 2.018 0.054 43.844 42.300
-15.000 -20.349 -0.035 -20.312 -0.030 -20.208 -0.045 -20.184 -0.052 12.492 0.259 2.021 0.055 43.851 42.312
-14.600 -20.362 -0.034 -20.325 -0.029 -20.220 -0.044 -20.195 -0.051 12.534 0.262 2.024 0.056 43.858 42.323
-14.200 -20.375 -0.033 -20.337 -0.028 -20.231 -0.044 -20.206 -0.051 12.576 0.262 2.027 0.055 43.864 42.329
-13.800 -20.388 -0.033 -20.349 -0.028 -20.242 -0.044 -20.216 -0.051 12.618 0.258 2.029 0.054 43.871 42.329
-13.400 -20.400 -0.033 -20.361 -0.028 -20.252 -0.044 -20.226 -0.051 12.660 0.251 2.031 0.053 43.878 42.325
-13.000 -20.411 -0.033 -20.372 -0.030 -20.262 -0.045 -20.236 -0.052 12.701 0.243 2.032 0.051 43.884 42.318
-12.600 -20.422 -0.035 -20.383 -0.031 -20.271 -0.046 -20.245 -0.053 12.739 0.235 2.034 0.049 43.890 42.310
-12.200 -20.432 -0.036 -20.393 -0.033 -20.280 -0.047 -20.253 -0.054 12.775 0.226 2.036 0.047 43.896 42.301
-11.800 -20.442 -0.038 -20.403 -0.035 -20.288 -0.048 -20.261 -0.054 12.808 0.218 2.038 0.045 43.901 42.293
-11.400 -20.451 -0.039 -20.412 -0.036 -20.296 -0.050 -20.268 -0.055 12.840 0.210 2.040 0.043 43.906 42.285
-11.000 -20.460 -0.041 -20.420 -0.038 -20.303 -0.051 -20.275 -0.056 12.870 0.204 2.041 0.041 43.911 42.278
-10.600 -20.468 -0.043 -20.428 -0.040 -20.310 -0.052 -20.282 -0.057 12.900 0.199 2.042 0.040 43.915 42.273
-10.200 -20.476 -0.045 -20.436 -0.042 -20.316 -0.053 -20.288 -0.058 12.928 0.194 2.043 0.039 43.920 42.269
-9.800 -20.483 -0.046 -20.442 -0.044 -20.322 -0.054 -20.294 -0.059 12.956 0.190 2.044 0.038 43.924 42.265
-9.400 -20.489 -0.048 -20.449 -0.045 -20.327 -0.055 -20.299 -0.059 12.983 0.187 2.044 0.037 43.927 42.263
-9.000 -20.496 -0.049 -20.455 -0.046 -20.332 -0.055 -20.303 -0.060 13.009 0.184 2.044 0.036 43.931 42.261
-8.600 -20.501 -0.050 -20.460 -0.047 -20.337 -0.056 -20.308 -0.060 13.035 0.182 2.044 0.036 43.934 42.260
-8.200 -20.506 -0.051 -20.465 -0.048 -20.341 -0.056 -20.312 -0.060 13.060 0.180 2.043 0.035 43.937 42.260
-7.800 -20.511 -0.051 -20.469 -0.049 -20.344 -0.056 -20.315 -0.060 13.085 0.178 2.042 0.035 43.940 42.260
-7.400 -20.516 -0.052 -20.473 -0.049 -20.348 -0.056 -20.318 -0.060 13.110 0.177 2.041 0.034 43.943 42.260
-7.000 -20.519 -0.052 -20.477 -0.049 -20.351 -0.056 -20.321 -0.060 13.134 0.176 2.040 0.034 43.946 42.261
-6.600 -20.523 -0.052 -20.480 -0.049 -20.353 -0.055 -20.323 -0.059 13.157 0.175 2.038 0.034 43.948 42.262
-6.200 -20.526 -0.052 -20.483 -0.049 -20.355 -0.055 -20.326 -0.059 13.180 0.174 2.036 0.033 43.950 42.263
-5.800 -20.529 -0.052 -20.486 -0.048 -20.357 -0.054 -20.327 -0.058 13.203 0.174 2.034 0.033 43.952 42.264
-5.400 -20.532 -0.051 -20.488 -0.048 -20.359 -0.053 -20.329 -0.057 13.225 0.173 2.032 0.033 43.954 42.265
-5.000 -20.534 -0.051 -20.490 -0.047 -20.360 -0.052 -20.330 -0.056 13.246 0.173 2.030 0.033 43.956 42.267
-4.600 -20.536 -0.050 -20.492 -0.047 -20.361 -0.051 -20.331 -0.055 13.267 0.173 2.027 0.032 43.958 42.268
-4.200 -20.538 -0.049 -20.493 -0.046 -20.362 -0.050 -20.332 -0.054 13.286 0.173 2.024 0.032 43.959 42.269
-3.800 -20.539 -0.049 -20.495 -0.045 -20.363 -0.049 -20.332 -0.053 13.305 0.172 2.022 0.032 43.960 42.270
-3.400 -20.540 -0.048 -20.496 -0.044 -20.363 -0.048 -20.332 -0.052 13.323 0.172 2.019 0.032 43.962 42.271
-3.000 -20.541 -0.047 -20.496 -0.043 -20.363 -0.047 -20.333 -0.051 13.340 0.172 2.017 0.032 43.963 42.272
-2.600 -20.542 -0.046 -20.497 -0.042 -20.363 -0.046 -20.332 -0.049 13.355 0.172 2.014 0.032 43.964 42.273
-2.200 -20.542 -0.045 -20.497 -0.041 -20.363 -0.044 -20.332 -0.048 13.369 0.172 2.011 0.031 43.964 42.274
-1.800 -20.542 -0.044 -20.497 -0.040 -20.363 -0.043 -20.332 -0.047 13.382 0.172 2.009 0.031 43.965 42.274
-1.400 -20.543 -0.043 -20.497 -0.039 -20.362 -0.042 -20.331 -0.046 13.394 0.172 2.007 0.031 43.965 42.275
-1.000 -20.542 -0.043 -20.497 -0.039 -20.362 -0.042 -20.331 -0.046 13.403 0.172 2.005 0.031 43.966 42.276
-0.600 -20.542 -0.042 -20.496 -0.038 -20.361 -0.041 -20.330 -0.045 13.410 0.173 2.003 0.031 43.966 42.277
-0.200 -20.542 -0.041 -20.496 -0.037 -20.361 -0.041 -20.330 -0.045 13.413 0.174 2.002 0.032 43.966 42.279
0.200 -20.541 -0.039 -20.495 -0.036 -20.360 -0.040 -20.329 -0.044 13.411 0.176 2.002 0.032 43.966 42.282
0.600 -20.540 -0.038 -20.494 -0.035 -20.360 -0.040 -20.329 -0.044 13.405 0.178 2.002 0.033 43.965 42.286
1.000 -20.539 -0.038 -20.494 -0.034 -20.359 -0.040 -20.328 -0.044 13.394 0.180 2.004 0.033 43.964 42.290
1.400 -20.538 -0.037 -20.492 -0.034 -20.359 -0.040 -20.328 -0.044 13.378 0.183 2.006 0.034 43.963 42.294
1.800 -20.537 -0.036 -20.491 -0.033 -20.358 -0.040 -20.328 -0.044 13.357 0.186 2.009 0.034 43.962 42.297
2.200 -20.535 -0.035 -20.490 -0.033 -20.358 -0.040 -20.328 -0.044 13.333 0.188 2.012 0.035 43.960 42.300
2.600 -20.534 -0.035 -20.489 -0.032 -20.358 -0.040 -20.327 -0.044 13.307 0.190 2.016 0.036 43.958 42.302
3.000 -20.532 -0.034 -20.488 -0.032 -20.357 -0.040 -20.327 -0.044 13.281 0.192 2.020 0.036 43.957 42.303
3.400 -20.531 -0.034 -20.486 -0.032 -20.357 -0.040 -20.327 -0.044 13.255 0.193 2.024 0.037 43.955 42.303
3.800 -20.529 -0.034 -20.485 -0.032 -20.356 -0.040 -20.326 -0.045 13.232 0.194 2.028 0.037 43.953 42.303
4.200 -20.528 -0.033 -20.484 -0.032 -20.356 -0.041 -20.326 -0.045 13.206 0.194 2.032 0.037 43.952 42.301
4.600 -20.526 -0.033 -20.483 -0.032 -20.355 -0.041 -20.326 -0.045 13.185 0.193 2.035 0.037 43.950 42.298
5.000 -20.525 -0.034 -20.482 -0.032 -20.355 -0.041 -20.325 -0.045 13.167 0.192 2.038 0.037 43.949 42.295
5.400 -20.524 -0.034 -20.481 -0.032 -20.354 -0.041 -20.325 -0.044 13.151 0.191 2.040 0.037 43.948 42.290
5.800 -20.522 -0.034 -20.480 -0.032 -20.354 -0.040 -20.324 -0.044 13.137 0.188 2.042 0.037 43.947 42.285
6.200 -20.521 -0.035 -20.479 -0.033 -20.353 -0.040 -20.323 -0.044 13.126 0.185 2.043 0.036 43.946 42.278
6.600 -20.520 -0.035 -20.478 -0.033 -20.352 -0.040 -20.323 -0.043 13.116 0.182 2.044 0.036 43.945 42.271
7.000 -20.519 -0.035 -20.477 -0.033 -20.351 -0.039 -20.322 -0.043 13.108 0.178 2.045 0.035 43.944 42.262
7.400 -20.518 -0.035 -20.476 -0.033 -20.351 -0.039 -20.321 -0.042 13.101 0.174 2.045 0.034 43.944 42.253
7.800 -20.516 -0.035 -20.475 -0.032 -20.349 -0.038 -20.320 -0.041 13.095 0.170 2.045 0.033 43.943 42.242
8.200 -20.515 -0.035 -20.474 -0.032 -20.348 -0.037 -20.318 -0.041 13.091 0.166 2.045 0.032 43.942 42.231
8.600 -20.513 -0.035 -20.472 -0.032 -20.347 -0.036 -20.317 -0.040 13.089 0.161 2.044 0.031 43.941 42.219
9.000 -20.511 -0.035 -20.471 -0.031 -20.345 -0.035 -20.315 -0.039 13.087 0.157 2.043 0.030 43.940 42.207
9.400 -20.509 -0.034 -20.469 -0.030 -20.343 -0.034 -20.313 -0.038 13.086 0.152 2.041 0.030 43.940 42.195
9.800 -20.507 -0.034 -20.467 -0.030 -20.341 -0.033 -20.311 -0.037 13.085 0.148 2.039 0.029 43.939 42.182
10.200 -20.504 -0.034 -20.465 -0.029 -20.338 -0.033 -20.308 -0.036 13.083 0.144 2.037 0.028 43.938 42.168
10.600 -20.501 -0.033 -20.462 -0.028 -20.335 -0.032 -20.305 -0.035 13.079 0.140 2.035 0.027 43.936 42.155
11.000 -20.497 -0.033 -20.458 -0.028 -20.332 -0.031 -20.302 -0.035 13.072 0.136 2.033 0.026 43.934 42.141
11.400 -20.493 -0.033 -20.455 -0.027 -20.328 -0.031 -20.298 -0.034 13.062 0.133 2.031 0.026 43.932 42.128
11.800 -20.488 -0.033 -20.450 -0.027 -20.324 -0.030 -20.294 -0.034 13.047 0.129 2.030 0.025 43.930 42.115
12.200 -20.483 -0.033 -20.445 -0.027 -20.320 -0.030 -20.289 -0.034 13.028 0.127 2.029 0.024 43.927 42.103
12.600 -20.477 -0.033 -20.439 -0.027 -20.314 -0.030 -20.284 -0.034 13.003 0.124 2.029 0.024 43.923 42.091
13.000 -20.469 -0.034 -20.433 -0.027 -20.309 -0.031 -20.278 -0.035 12.974 0.122 2.028 0.024 43.919 42.082
13.400 -20.462 -0.035 -20.425 -0.029 -20.302 -0.031 -20.272 -0.035 12.941 0.121 2.028 0.024 43.915 42.074
13.800 -20.453 -0.037 -20.417 -0.030 -20.295 -0.032 -20.265 -0.035 12.903 0.120 2.029 0.024 43.910 42.069
14.200 -20.443 -0.038 -20.408 -0.032 -20.288 -0.033 -20.258 -0.036 12.862 0.121 2.029 0.024 43.904 42.065
14.600 -20.433 -0.040 -20.398 -0.033 -20.279 -0.034 -20.250 -0.037 12.817 0.121 2.029 0.024 43.899 42.062
15.000 -20.422 -0.042 -20.388 -0.035 -20.270 -0.035 -20.241 -0.038 12.769 0.122 2.029 0.024 43.892 42.061
15.400 -20.410 -0.044 -20.376 -0.037 -20.261 -0.036 -20.232 -0.039 12.719 0.124 2.029 0.025 43.885 42.061
15.800 -20.397 -0.046 -20.364 -0.039 -20.250 -0.038 -20.222 -0.041 12.666 0.126 2.029 0.025 43.878 42.062
16.200 -20.384 -0.048 -20.351 -0.041 -20.239 -0.039 -20.211 -0.042 12.612 0.129 2.029 0.026 43.870 42.064
16.600 -20.369 -0.049 -20.337 -0.043 -20.227 -0.041 -20.199 -0.044 12.556 0.132 2.028 0.027 43.862 42.066
17.000 -20.354 -0.051 -20.322 -0.045 -20.214 -0.042 -20.187 -0.045 12.499 0.135 2.027 0.028 43.854 42.068
17.400 -20.337 -0.053 -20.306 -0.047 -20.200 -0.044 -20.174 -0.046 12.441 0.138 2.025 0.029 43.845 42.069
17.800 -20.320 -0.055 -20.290 -0.048 -20.186 -0.045 -20.160 -0.048 12.383 0.142 2.023 0.029 43.836 42.070
18.200 -20.303 -0.056 -20.273 -0.050 -20.171 -0.046 -20.145 -0.049 12.323 0.145 2.020 0.030 43.827 42.072
18.600 -20.284 -0.058 -20.255 -0.051 -20.155 -0.048 -20.130 -0.050 12.264 0.149 2.017 0.031 43.817 42.072
19.000 -20.265 -0.059 -20.236 -0.053 -20.139 -0.049 -20.114 -0.051 12.204 0.153 2.013 0.032 43.807 42.073
19.400 -20.245 -0.061 -20.217 -0.054 -20.121 -0.050 -20.098 -0.052 12.145 0.157 2.009 0.033 43.796 42.073
19.800 -20.224 -0.062 -20.197 -0.055 -20.104 -0.051 -20.080 -0.053 12.085 0.161 2.005 0.034 43.786 42.073
20.200 -20.203 -0.063 -20.176 -0.056 -20.085 -0.052 -20.063 -0.054 12.025 0.165 2.000 0.036 43.775 42.073
20.600 -20.181 -0.064 -20.155 -0.057 -20.067 -0.052 -20.045 -0.055 11.965 0.169 1.994 0.037 43.764 42.072
21.000 -20.159 -0.064 -20.133 -0.058 -20.047 -0.053 -20.026 -0.055 11.904 0.173 1.989 0.038 43.753 42.071
21.400 -20.136 -0.065 -20.111 -0.058 -20.028 -0.053 -20.007 -0.056 11.842 0.177 1.983 0.039 43.741 42.069
21.800 -20.113 -0.066 -20.089 -0.059 -20.008 -0.054 -19.988 -0.056 11.780 0.182 1.978 0.040 43.730 42.067
22.200 -20.090 -0.066 -20.066 -0.059 -19.987 -0.054 -19.968 -0.057 11.718 0.186 1.972 0.041 43.718 42.065
22.600 -20.066 -0.066 -20.043 -0.059 -19.967 -0.054 -19.948 -0.057 11.655 0.190 1.967 0.043 43.706 42.062
23.000 -20.042 -0.066 -20.019 -0.059 -19.946 -0.055 -19.928 -0.057 11.591 0.195 1.961 0.044 43.694 42.059
23.400 -20.018 -0.067 -19.995 -0.059 -19.925 -0.055 -19.908 -0.058 11.528 0.199 1.955 0.045 43.682 42.055
23.800 -19.993 -0.067 -19.971 -0.059 -19.904 -0.055 -19.887 -0.058 11.465 0.203 1.949 0.046 43.670 42.051
24.200 -19.968 -0.066 -19.947 -0.059 -19.882 -0.055 -19.866 -0.058 11.402 0.207 1.943 0.048 43.658 42.046
24.600 -19.943 -0.066 -19.923 -0.059 -19.860 -0.055 -19.845 -0.058 11.341 0.212 1.937 0.049 43.646 42.041
25.000 -19.918 -0.066 -19.898 -0.059 -19.839 -0.055 -19.824 -0.058 11.280 0.216 1.930 0.050 43.633 42.036
25.400 -19.893 -0.066 -19.873 -0.058 -19.817 -0.055 -19.803 -0.058 11.219 0.220 1.924 0.052 43.621 42.030
25.800 -19.867 -0.065 -19.849 -0.058 -19.795 -0.054 -19.782 -0.058 11.160 0.224 1.917 0.053 43.609 42.024
26.200 -19.842 -0.065 -19.824 -0.057 -19.773 -0.054 -19.761 -0.058 11.102 0.228 1.911 0.054 43.597 42.018
26.600 -19.817 -0.065 -19.799 -0.057 -19.751 -0.054 -19.740 -0.058 11.045 0.232 1.904 0.055 43.585 42.012
27.000 -19.791 -0.064 -19.775 -0.056 -19.729 -0.054 -19.718 -0.058 10.989 0.236 1.897 0.057 43.573 42.005
27.400 -19.766 -0.063 -19.750 -0.055 -19.707 -0.054 -19.697 -0.058 10.934 0.240 1.890 0.058 43.561 41.998
27.800 -19.742 -0.062 -19.726 -0.055 -19.685 -0.054 -19.676 -0.058 10.880 0.244 1.883 0.060 43.549 41.991
28.200 -19.717 -0.062 -19.702 -0.054 -19.664 -0.054 -19.656 -0.058 10.828 0.248 1.876 0.061 43.538 41.984
28.600 -19.692 -0.061 -19.678 -0.053 -19.643 -0.054 -19.635 -0.058 10.777 0.253 1.869 0.062 43.526 41.977
29.000 -19.668 -0.060 -19.655 -0.052 -19.622 -0.054 -19.615 -0.059 10.727 0.257 1.862 0.064 43.515 41.970
29.400 -19.644 -0.059 -19.631 -0.051 -19.601 -0.054 -19.595 -0.059 10.679 0.262 1.855 0.066 43.504 41.963
29.800 -19.621 -0.058 -19.609 -0.050 -19.581 -0.054 -19.575 -0.059 10.632 0.267 1.849 0.067 43.493 41.957
30.200 -19.598 -0.057 -19.586 -0.049 -19.561 -0.054 -19.556 -0.060 10.586 0.272 1.842 0.069 43.482 41.950
30.600 -19.576 -0.056 -19.564 -0.048 -19.541 -0.054 -19.537 -0.060 10.543 0.277 1.835 0.071 43.472 41.943
31.000 -19.554 -0.055 -19.543 -0.047 -19.522 -0.055 -19.519 -0.061 10.501 0.282 1.828 0.072 43.462 41.937
31.400 -19.532 -0.054 -19.522 -0.046 -19.504 -0.055 -19.501 -0.061 10.461 0.287 1.822 0.074 43.452 41.930
31.800 -19.511 -0.053 -19.502 -0.046 -19.485 -0.055 -19.483 -0.062 10.424 0.292 1.815 0.076 43.443 41.923
32.200 -19.491 -0.053 -19.482 -0.045 -19.468 -0.056 -19.466 -0.063 10.388 0.296 1.809 0.077 43.434 41.916
32.600 -19.471 -0.053 -19.463 -0.045 -19.451 -0.057 -19.449 -0.064 10.354 0.299 1.802 0.078 43.425 41.909
33.000 -19.452 -0.053 -19.444 -0.045 -19.434 -0.058 -19.433 -0.065 10.322 0.301 1.796 0.079 43.416 41.900
33.400 -19.434 -0.053 -19.427 -0.046 -19.418 -0.058 -19.418 -0.066 10.291 0.302 1.790 0.080 43.408 41.891
33.800 -19.417 -0.054 -19.410 -0.046 -19.403 -0.059 -19.403 -0.067 10.261 0.303 1.784 0.080 43.401 41.882
34.200 -19.400 -0.054 -19.394 -0.047 -19.389 -0.061 -19.389 -0.068 10.232 0.302 1.779 0.080 43.393 41.872
34.600 -19.384 -0.055 -19.378 -0.048 -19.375 -0.062 -19.375 -0.069 10.203 0.301 1.774 0.080 43.386 41.862
35.000 -19.368 -0.056 -19.363 -0.049 -19.361 -0.063 -19.362 -0.070 10.175 0.300 1.770 0.080 43.379 41.852
35.400 -19.353 -0.057 -19.349 -0.051 -19.348 -0.064 -19.350 -0.071 10.147 0.298 1.767 0.080 43.372 41.842
35.800 -19.339 -0.059 -19.335 -0.052 -19.336 -0.065 -19.338 -0.072 10.119 0.296 1.763 0.079 43.366 41.832
36.200 -19.325 -0.060 -19.322 -0.054 -19.325 -0.067 -19.327 -0.074 10.091 0.294 1.761 0.079 43.360 41.822
36.600 -19.312 -0.062 -19.310 -0.056 -19.314 -0.068 -19.316 -0.075 10.063 0.291 1.758 0.078 43.354 41.813
37.000 -19.299 -0.064 -19.298 -0.058 -19.303 -0.070 -19.306 -0.076 10.036 0.288 1.756 0.078 43.348 41.803
37.400 -19.287 -0.066 -19.286 -0.060 -19.293 -0.071 -19.296 -0.078 10.008 0.285 1.755 0.077 43.343 41.793
37.800 -19.276 -0.068 -19.275 -0.062 -19.284 -0.072 -19.287 -0.079 9.981 0.282 1.754 0.077 43.338 41.784
38.200 -19.265 -0.070 -19.265 -0.064 -19.275 -0.074 -19.278 -0.080 9.953 0.280 1.754 0.076 43.333 41.775
38.600 -19.254 -0.072 -19.255 -0.066 -19.266 -0.075 -19.270 -0.081 9.925 0.277 1.754 0.076 43.328 41.766
39.000 -19.244 -0.074 -19.245 -0.068 -19.258 -0.076 -19.262 -0.083 9.898 0.274 1.754 0.075 43.323 41.757
39.400 -19.234 -0.076 -19.236 -0.070 -19.250 -0.078 -19.255 -0.084 9.870 0.272 1.755 0.075 43.318 41.749
39.800 -19.225 -0.078 -19.228 -0.072 -19.243 -0.079 -19.248 -0.085 9.843 0.269 1.756 0.075 43.314 41.741
40.200 -19.216 -0.080 -19.219 -0.074 -19.236 -0.080 -19.241 -0.086 9.815 0.267 1.757 0.074 43.310 41.734
40.600 -19.207 -0.082 -19.211 -0.075 -19.230 -0.081 -19.235 -0.086 9.788 0.265 1.759 0.074 43.306 41.726
41.000 -19.199 -0.084 -19.204 -0.077 -19.224 -0.082 -19.229 -0.087 9.761 0.263 1.761 0.074 43.302 41.719
41.400 -19.191 -0.086 -19.197 -0.079 -19.218 -0.083 -19.224 -0.088 9.734 0.261 1.763 0.074 43.298 41.712
41.800 -19.184 -0.087 -19.190 -0.080 -19.213 -0.084 -19.219 -0.089 9.708 0.259 1.765 0.073 43.295 41.705
42.200 -19.177 -0.089 -19.183 -0.081 -19.208 -0.084 -19.214 -0.089 9.681 0.257 1.768 0.073 43.292 41.699
42.600 -19.170 -0.090 -19.177 -0.083 -19.203 -0.085 -19.210 -0.090 9.655 0.255 1.771 0.073 43.288 41.692
43.000 -19.163 -0.092 -19.171 -0.084 -19.199 -0.085 -19.206 -0.090 9.633 0.254 1.773 0.073 43.285 41.687
43.400 -19.157 -0.093 -19.166 -0.085 -19.195 -0.086 -19.202 -0.091 9.603 0.252 1.778 0.073 43.282 41.680
43.800 -19.151 -0.094 -19.160 -0.086 -19.191 -0.086 -19.198 -0.091 9.577 0.251 1.781 0.073 43.279 41.674
44.200 -19.145 -0.095 -19.155 -0.086 -19.187 -0.086 -19.195 -0.091 9.552 0.249 1.785 0.073 43.276 41.668
44.600 -19.140 -0.096 -19.151 -0.087 -19.184 -0.086 -19.192 -0.091 9.530 0.248 1.788 0.073 43.274 41.663
45.000 -19.134 -0.096 -19.146 -0.088 -19.181 -0.086 -19.189 -0.091 9.501 0.247 1.793 0.073 43.271 41.657
