 texplosion  fnickel    Pspin  log(Bfield)      Mns  thetaPB   mejecta    kappa  kappagamma     vejecta  temperature    alpha  cutoff_wavelength  log(nhhost)      A_V         MJD0  kenergy  mnickel            TSD   log(L0)  Peak_mag     Peak_MJD  log(E_rad)  log(Peak_lum)  Rise_Time    E_fold  tau_1  delta_m15     r_peak     frac 
   -6.62081  0.01479  5.41486     14.74866  1.95019  1.21338   8.81374  0.12275     0.38155  3638.44161   5544.00376  4.63415          4405.0032     16.54082    2e-05  55922.90919  0.69601  0.13039   168949.24145  45.86399  18.06527   55961.6825     50.2103       43.34026   31.12744  60.03149   54.0    0.12364  -19.74235  0.98378 
   -5.78854  0.00564  3.56917     14.58043  1.65038   1.3158   17.6926  0.04759     0.05786  3032.53915   7281.31325  3.19943         5042.09635     20.70319  0.28049  55923.74146  0.97058  0.09978   134797.55805  46.25161  17.93835  55959.27457    50.56085       43.75447   24.45727  53.36133   51.5    0.12651  -20.13082  0.99318 
    -4.0392  0.01253  2.72068     14.66322  1.20445  0.75199  18.74794  0.05819     0.45327  3428.65274   5780.21615  4.67608         4595.97062     17.30104  0.00011   55925.4908   1.3147  0.23495     39041.5961  46.88875  17.98148   55961.6825    50.25232       43.39133   28.90405  53.36133   56.5    0.13174  -19.73458  0.98674 
  -10.84876  0.00195  7.84099     14.78307  1.97962  0.84199  61.54988  0.01036      0.1101  2303.28177   6171.45482  4.23269         4765.78873     17.57524  0.00021  55918.68124  1.94782  0.12006   306896.12579  45.28969  18.02478   55961.6825    50.21864       43.37094   28.90405   57.8081   56.0    0.12349  -19.59888  0.96913 
   -5.51003  0.00698  3.52193     14.69669   1.6982  1.42843  20.93712  0.03486     0.09569  2322.08869   7576.26452  3.26504         5109.89953      18.2693  0.00103  55924.01997  0.67344  0.14609    79064.80405  46.50729  18.06786  55964.09043    50.18038       43.29819     40.021   57.8081   57.5    0.10082   -19.7026  0.99143 
   -5.94855  0.02183   5.6464     14.63987  1.59304  1.54062  15.72916  0.03175     0.28348  2394.68612   6688.70159  4.36944         4905.10219     16.51758    2e-05  55923.58145  0.53806  0.34342   247648.67188  45.57369  18.09606  55964.09043      50.244       43.36674   31.12744  60.03149   51.5    0.15206  -19.86309  0.93954 
   -5.01046  0.00632  5.61532     14.62583  1.60353  1.18063   37.5961  0.02001     0.28205  2964.37159   5675.65789  3.79226         4823.45667     18.26444  0.00102  55924.51954  1.97077  0.23747   263019.92957  45.55519  18.03058   55961.6825     50.2074        43.3476   33.35083   57.8081   53.0    0.11921  -19.77147  0.95795 
   -7.19917  0.00528  5.15916     14.94594  1.57334  0.38822   11.3805  0.06885      0.0161  2950.34321    6371.9075  4.69589         4611.21338     20.08438  0.06747  55922.33083  0.59093  0.06003     49879.3841  46.34259  18.04707  55964.09043     50.2099       43.33675   35.57422  60.03149   52.0    0.13163   -19.9129  0.99043 
   -13.9141  0.00549  6.06495     14.49333  1.38311  0.87104  14.61973  0.06018      0.3246  2803.07698   5960.46676  3.61515         4663.60379     16.58056    2e-05   55915.6159  0.68523  0.08032   487143.32478  45.15639  17.92851   55961.6825    50.27025       43.42096   33.35083  53.36133   58.5    0.11721  -19.45176  0.97859 
   -6.96694  0.00637  3.82289      14.8178  1.71717  0.81429  35.83459  0.02191     0.06808  2742.67308   6788.27693  4.19829          4805.5389     20.22542  0.09336  55922.56306  1.60797  0.22843    53926.79398  46.60707  17.92388  55959.27457    50.19489       43.36473   28.90405  53.36133   56.0    0.12349  -19.87991  0.98391 
   -3.03819  0.00376  2.76211     14.75574   1.6806  1.29924  56.97115  0.01303     0.04008  2698.65616    6306.6645  4.47489         4750.48051     19.40272  0.01404  55926.49181  2.47501  0.21413    36667.38875  47.04755   18.1178   55961.6825    50.15345       43.27831   26.68066  64.47827   55.0    0.11973  -19.95432  0.99389 
   -6.79201  0.00453  6.63755     14.49121   1.4795  1.48907  35.24441  0.01525     0.10073  2200.97744   6414.92847  4.56113         4953.80612     17.97645  0.00053  55922.73799  1.01847  0.15952   630271.18879  44.99542  18.06779  55959.27457    50.19187       43.33357   26.68066  59.67801   53.5    0.13132  -19.78474  0.95511 
  -12.78044  0.00104  9.12644     14.50012  1.82604  1.44668   15.7188  0.04148      0.0393  2821.91084   5891.96368  4.87169         4733.46689     16.66186    3e-05  55916.74956  0.74668  0.01631  1411529.24699  44.46006  18.04145   55961.6825    50.17893       43.30666   28.90405  62.25488   52.0    0.14254  -19.71199  0.99335 
   -9.27205   0.0028  7.39805     14.80169  1.67274  0.58857   43.2869  0.01029     0.41089   1773.5922   7112.87374  4.26431         4926.60377     19.19167  0.00864  55920.25795  0.81225  0.12102    211885.8971  45.42794  18.10282  55964.09043    50.18301       43.29871   37.79761   57.8081   55.5    0.12644  -19.67932  0.96439 
  -14.15906  0.00548  6.24362     14.87954  1.47506  0.34459  17.05856  0.03257     0.03329  2343.28196   7117.81486  2.86637         5134.21094     19.49807  0.01749  55915.37094  0.55875  0.09348    92987.72986  45.87836  18.06682   55961.6825    50.16053        43.2981   31.12744   57.8081   54.0    0.13254  -19.65008  0.97607 
   -3.67018  0.00223  2.68318     14.72837  1.60502  1.15467  53.54626  0.01669     0.20376  2736.98961   6224.00739  3.33278         5015.13585     18.21035   0.0009  55925.85982  2.39278  0.11952    37484.26106  47.04318  18.02042  55959.27457    50.19152       43.32076   28.90405  57.45462   56.5    0.12652   -19.7526  0.99638 
    -7.6881  0.00179  6.51061     14.73113  1.59864  0.61615  17.04505  0.03958     0.18082   2669.6215   7018.67041  3.78104         4916.13456     20.06814  0.06499   55921.8419  0.72464  0.03048   217046.37734   45.5088  18.04248  55959.27457    50.22137       43.35071   33.35083   57.8081   52.0    0.13561  -19.82602  0.99236 
  -10.09407  0.00179   7.2345     14.80421  1.94539  0.80241  42.36121  0.01647      0.2036  2431.37108   6502.99538  4.45414         4734.43475     17.27955  0.00011  55919.43593  1.49382  0.07568   232922.35552  45.47182  17.95692   55961.6825    50.20047       43.36375   33.35083  48.91455   55.0     0.1197  -19.61866  0.98276 
  -12.73815  0.00335  6.69587      14.5258  1.63927  1.51903  54.44185  0.01105     0.05179  2418.43188   6281.20656  3.15814         4938.44638     17.25445   0.0001  55916.79185  1.89945  0.18223    606001.0172  45.04941  17.99097  55964.09043    50.22246       43.37548   33.35083  53.36133   56.0    0.13001  -19.57798  0.95525 
   -7.01561  0.01022  5.85894     14.71863  2.02231  1.40664   9.16378  0.12394     0.06404  3721.36875   5680.63961  3.09019         4783.10962      18.1945  0.00087  55922.51439  0.75702  0.09363   235523.86326  45.66702  18.09692   55961.6825    50.25856       43.39735   31.12744   57.8081   52.5    0.12975    -19.737  0.98692 
  -13.48984  0.00136  7.59103     14.40934  1.43146  1.01393   6.94537  0.07757     0.03696  2247.66284   6018.75095  4.99529         4693.94117     16.03143    1e-05  55916.04016  0.20931  0.00943   1162819.4795  44.59851  18.04244  55959.27457    50.28378       43.41234   35.08411  58.29821   54.5    0.13413   -19.6399  0.99616 
   -6.71408  0.00355  3.58846     14.60596  1.46241  1.12207  27.21307  0.03074      0.3978  2472.12108   6194.70514  3.26314          5227.8206     18.18259  0.00085  55922.81592  0.99207  0.09665   107342.64802  46.29333  18.00672   55961.6825    50.18302       43.32735   26.68066   57.8081   57.0    0.10269  -19.74563  0.99212 
   -9.65421  0.00316  7.09893     14.63333  1.70063  0.89603  10.51508  0.08971     0.14805  3244.89532   6550.55509  4.75049          4666.1211     17.15159    8e-05  55919.87579  0.66045   0.0332   430667.84353  45.16293  18.04227   55961.6825    50.17415       43.30264   33.35083  55.58472   54.0    0.13063   -19.7031  0.99099 
   -6.71052  0.00222  6.00486     15.16436  1.69066  0.28654  57.07865  0.01255     0.01998  2298.16287   6319.40848  4.86841         4780.39045     16.25037    1e-05  55922.81948   1.7983   0.1265    26555.62134  46.51574  18.03001  55956.86664    50.56975       43.72504   28.90405  55.02045   57.0    0.11949  -19.66197  0.97582 
   -7.50865  0.00172  4.22091     14.94445  2.11814  0.82267  47.50514  0.01229     0.13289  1908.14022   8106.28539  3.00701         5463.96647     16.57827    2e-05  55922.02135  1.03178  0.08162    45257.71737   46.6883  17.99272   55961.6825    50.27447       43.39974   35.57422   57.8081   56.0    0.10116  -19.80458  0.99489 
   -6.71532   0.0014  5.32663     15.13874  1.88116  0.35715  53.17471  0.01591     0.02692  3109.27312   6407.87586  4.75709         4654.65599     16.39268    1e-05  55922.81468  3.06655  0.07463    26162.24331  46.67269  17.99311   55961.6825    50.30708       43.42789   33.35083   57.8081   51.5    0.14308   -19.9009  0.99044 
   -9.15632  0.00139  8.62047     14.79315  1.71944  0.52263  33.27148  0.01614     0.13339  2503.18499   7192.11359   4.8683         4731.02095     17.91535  0.00046  55920.37368  1.24361  0.04617    307586.9548   45.1452  17.98914  55959.27457    50.18971       43.32853   26.68066  62.25488   51.5    0.14205  -19.78288  0.98187 
  -19.18171  0.00152  7.97563     14.58611  1.76202  0.93864  19.34266  0.03067      0.0218  2330.80945   6363.26917  4.85259         4729.49059     18.67151  0.00261  55910.34829  0.62684  0.02947   700057.46107  44.86619  17.94892   55961.6825    50.19408       43.33291   33.35083  55.58472   55.0    0.13973   -19.5254  0.99042 
   -8.18039  0.00496  8.16654     14.98283  1.64313  0.33753  22.94089  0.02755     0.02205  2805.53967   6734.34729   3.4969         5134.02191     16.26055    1e-05  55921.34961  1.07714  0.11386   110130.25142  45.61853  18.02696   55961.6825    50.18942       43.30716   37.79761  55.58472   51.5    0.14257  -19.75456  0.95828 
   -8.57427  0.00944  7.29912     14.62473  1.75297  1.22235  21.23198  0.03399     0.01142  2684.61024   5786.57357  4.55602         4711.89122      19.4202  0.01462  55920.95573  0.91281  0.20041   488287.50057   45.0974  18.08447  55964.09043    50.20576       43.31678   37.79761   57.8081   56.0     0.1271  -19.68946  0.94761 
   -5.57461  0.00592   3.7545     14.87151  1.60989  0.72802  40.06971  0.01394     0.32023  1926.40724   7744.86703   4.8234         4908.82082     19.22065  0.00923  55923.95539  0.88703  0.23716    38078.94035  46.74585  17.95151   55961.6825    50.19872       43.33661   35.57422  55.23123   57.5    0.12532  -19.77364  0.98288 
  -16.23138  0.00254   6.7861       14.736  1.98548  0.89091  23.16247  0.04315     0.02081  2916.44118   5767.88488  3.73505         4876.21275     19.18317  0.00847  55913.29862  1.17522  0.05883   286365.25959  45.44655  18.03303   55961.6825    50.20373       43.32849   31.12744  60.03149   57.5    0.11229  -19.43654  0.98851 
   -6.87139  0.00107  4.71429     14.58923  1.65317  1.55395  29.28417  0.02945     0.01696  2680.89039   6611.32531  4.15669         4720.83001     20.12173  0.07353  55922.65861   1.2555  0.03145   226207.57761  45.78582  17.97061   55961.6825    50.25959        43.4137   26.68066   57.8081   55.5    0.11553  -19.75352  0.99615 
  -13.05521  0.00217  6.50243     14.40757  1.38363  1.08004  20.28523  0.02603     0.32232  2329.06402   6375.38929  4.12945         4650.45313     16.44501    2e-05  55916.47479   0.6564  0.04394   831456.14595  44.86387  17.96301   55961.6825     50.2094       43.35715   31.12744  55.58472   53.0    0.14101  -19.66958  0.98637 
  -13.61903  0.00415  7.41047     14.83874  1.41413  0.33638  17.41148  0.03947     0.21133  2735.96488   6023.56435  4.10673         4795.44395     17.17616    8e-05  55915.91097  0.77747  0.07221   151537.67149  45.49912  18.03411   55961.6825    50.20096       43.32351   37.79761   57.8081   54.5    0.13114  -19.58709  0.97221 
    -6.5877   0.0019  4.88415      14.5382  1.43056  1.15749  23.16644    0.038     0.12709   2859.0075   6780.01061  4.79168         4742.18593     17.01852    6e-05   55922.9423  1.12958  0.04411   265767.23286  45.62227  18.10696  55964.09043    50.17937       43.30006   31.12744  62.25488   54.5    0.11955  -19.74098  0.99276 
   -9.29782  0.00145  8.12413     14.61421  1.90884  1.26819   32.6348  0.01969     0.09524  2522.81425   6128.01731   4.0067         4865.76997     18.54451  0.00195  55920.23218  1.23902  0.04724   691381.80859  44.89034  18.05666   55961.6825    50.21048       43.34639   28.90405   57.8081   53.5    0.13181   -19.7363  0.98592 
   -4.96739  0.00179  2.52332     14.73406  1.56503  1.08529  63.20042  0.01849     0.02922   3217.8466   6204.62485  3.88022         4732.43467     16.49905    2e-05  55924.56261  3.90371  0.11313    31489.90682  47.16125  18.03314  55964.09043    50.24241       43.36458   35.57422  55.23123   55.0    0.12208  -19.59716  0.99702 
   -6.36347  0.00464  5.77892      14.7448  1.87261  0.99874  17.75108  0.03378     0.02773   2098.6156   6957.16657  3.53286         5195.79824     16.19328    1e-05  55923.16653  0.46636  0.08236   188087.53282  45.74324  18.10549   55961.6825    50.21178       43.33124   28.90405  62.25488   54.5    0.11556  -19.80997  0.98741 
   -5.27744  0.00229  3.39213     14.77973  1.78319  1.18862  62.57508  0.01148     0.47043  2314.79662   6918.43723  4.42478         4919.21446     19.36445  0.01286  55924.25256  2.00011   0.1436    52541.83659  46.73859  18.03725   55961.6825     50.3029       43.44002   33.35083  55.58472   57.0    0.11379  -19.81384  0.99321 
    -2.6319  0.00648   3.3572     14.96553  1.66557  0.60339  29.34945  0.02119     0.01798  2174.71814    8086.8033  3.97826         5045.54177     19.79234  0.03444   55926.8981  0.82801  0.19012    20430.49673  47.12817  17.96155   55961.6825    50.19936       43.32843   37.79761  55.58472   55.0    0.14046  -19.81019  0.99023 
   -9.97074  0.00245   8.3339     14.54749  1.77273  1.41601  26.39859  0.02912     0.05159   3087.1489   6258.40231  4.96595         4742.14396     16.50998    2e-05  55919.55926   1.5008  0.06456   918689.01977  44.71262  17.99774   55961.6825     50.1993       43.32416   31.12744   57.8081   51.5    0.14174  -19.72889  0.97752 
  -12.54054  0.00527  7.07963     14.91593  1.92991  0.61662  43.75592   0.0121     0.40032  1864.18225   6383.52938  4.42211         4895.44444     19.34965  0.01243  55916.98946  0.90707  0.23052   132286.96093  45.73284  17.94325  55964.09043    50.26414       43.39522   35.57422  55.23123   60.0     0.1117  -19.53039  0.95092 
    -3.9208  0.00411  3.03097     15.13012  2.18972  0.69691  87.98807  0.01123     0.01583  3252.18877    5941.3716   3.4604         4896.19468     17.74907  0.00031   55925.6092   5.5514  0.36154    10259.71563  47.63494  18.04938  55964.09043    50.18088       43.31561   35.57422  55.58472   59.0    0.12713  -19.69961   0.9931 
  -10.26631  0.00153  7.06578     14.59627  1.59914   0.8663   7.92402  0.09078     0.02107  2700.01679   6501.95361  4.19959          4824.0432     16.84316    4e-05  55919.26369  0.34459  0.01209   475860.47219  45.09693  18.05981  55959.27457    50.25024       43.37819   28.41395   60.5216   53.0     0.1337  -19.69399   0.9964 
   -2.09027  0.00804  3.24068     14.61026  1.31546  1.02841  25.71285  0.03735     0.12716  3384.58311   6593.82035  4.82576         4720.94936     17.92344  0.00047  55927.43973  1.75706  0.20661    77204.07562  46.47901  18.16106  55959.27457    50.26274       43.32499     40.021  68.92505   53.0    0.12963  -19.83524  0.98463 
   -8.07981  0.00121  7.85342     14.61696  1.74023  1.11377  28.51755  0.02201     0.49809  2361.29326    6805.4851   4.9102         4896.27634      16.7108    3e-05  55921.45019   0.9485  0.03464   581593.50875  44.95471  17.98874   55961.6825    50.16772       43.30078   33.35083  55.58472   53.0    0.13143  -19.70552  0.98895 
   -5.41049    0.005  4.57703      14.5811  1.44474   1.3306  38.01439  0.01395     0.02747  1933.86997   7373.75777  4.41779         4982.32854     19.29474  0.01095  55924.11951  0.84807  0.18998   193451.25459   45.8209  17.88386  55959.27457    50.22108       43.36173   28.90405  59.67801   55.5    0.12047  -19.74905  0.97388 
   -7.56025  0.00155  6.96721     15.03167  2.03536   0.4663   19.9639  0.04883     0.04623  2953.40647   5576.82898  3.99305         4757.49697     16.85046    4e-05  55921.96975  1.03877  0.03094     79293.0478  45.99213  18.02298  55959.27457    50.23397       43.33857   35.57422   57.8081   56.0    0.11486  -19.66519  0.99384 
   -3.74673  0.01704  3.88575     14.92091  2.03034  1.15665  19.85965  0.03686     0.36175   2814.2772   6217.05625  4.51981         4719.38935     16.95589    5e-05  55925.78327  0.93828  0.33831    40975.06066  46.78495  18.03343  55959.27457    50.18615       43.31861   31.12744   57.8081   56.0    0.14515  -19.78111  0.98373 
   -7.37784  0.00123  5.48427      14.6161  1.74022  1.33161  36.40069  0.02509     0.31996  3095.39641   6551.02004  3.50238         4850.95644     18.10822  0.00071  55922.15216  2.08051  0.04485   284749.23286  45.57675  18.03748   55961.6825    50.18632         43.315   33.35083  55.58472   53.0    0.12606   -19.7772  0.99307 
   -7.85426  0.00491  7.82866     14.72119  1.68475  0.65571   5.08576  0.13517     0.09126  2958.88058   7170.67928  4.64241         4760.05516     17.60776  0.00023  55921.67574  0.26561  0.02495   346209.10237  45.16867  17.97448  55959.27457     50.2051       43.35905   24.45727   57.8081   51.0    0.14511  -19.80793  0.99162 
   -7.39088  0.00427  8.07713     14.61939   1.8979  1.24014  32.27873  0.01826     0.21453  2637.71042    6035.9089  3.89603         4786.81474     17.28306  0.00011  55922.13912  1.33967  0.13778   663471.65694  44.91078  17.99604  55959.27457    50.17996       43.32459   31.12744  57.45462   52.5    0.13531  -19.82891  0.96018 
   -7.36612  0.00239  8.53032     14.62143  1.66842  0.85292  28.26231  0.01709     0.01049   2446.9151    6886.3116  4.60489         4807.56671     18.75941  0.00319  55922.16388  1.00942  0.06743   644449.75672  44.82003  17.97654   55961.6825    50.20129        43.3334   35.57422  53.36133   50.0    0.15106   -19.7994  0.97314 
   -3.33373   0.0046  4.47585     14.75709  1.77386  1.17125  51.34765   0.0139     0.02224  2697.15705   6925.37365  4.27665         4838.97058     19.96243  0.05095  55926.19627  2.22823  0.23604   100996.52499  46.21171  18.07619   55961.6825    50.17485       43.30063   28.90405  62.25488   54.5    0.12023  -19.82652   0.9779 
    -5.1649  0.00665  4.22334     15.07288  1.50689  0.30015  35.59708  0.02254     0.03087  2868.08774   6274.31281  3.37866         4983.58014     20.57108  0.20692   55924.3651  1.74673  0.23656    17842.03286  46.94417  17.98912   55961.6825    50.18693       43.33037   26.68066  60.03149   55.0    0.11539  -19.89256  0.97398 
  -12.38696  0.00251  4.76002     14.49138  1.53616  1.04809  17.96394  0.04409      0.0537  2689.99439   7067.74177  4.38271         4707.45497     20.74191  0.30665  55917.14304  0.77541  0.04516   336280.52926  45.57336  17.87225  55964.09043    50.17553       43.32102   35.57422  53.00784   55.5    0.12119  -19.88029  0.99362 
   -4.81136  0.00387  4.38053      14.9582  1.86159  0.62509  39.92005  0.01935     0.02817  2702.15856   6967.82059  3.76924         4934.05349     19.93722  0.04808  55924.71864  1.73876  0.15434    40211.45757  46.65133  17.96247   55961.6825     50.2268       43.37101   33.35083  57.45462   54.0    0.13471     -19.84  0.98699 
   -9.96916  0.00105  5.16709     14.66149  1.40363  0.63203   28.5933  0.02744     0.02548  2512.44226   6679.72701  3.79818          4889.1927     18.98079  0.00532  55919.56084  1.07667  0.02997   165413.67647  45.77103  18.15919  55964.09043    50.19561       43.31597   35.57422  60.03149   56.0    0.11704  -19.65576  0.99426 
