 texplosion  fnickel     Pspin  log(Bfield)      Mns  thetaPB  mejecta    kappa  kappagamma      vejecta  temperature    alpha  cutoff_wavelength  log(nhhost)      A_V         MJD0  kenergy  mnickel            TSD   log(L0)  Peak_mag     Peak_MJD  log(E_rad)  log(Peak_lum)  Rise_Time    E_fold  tau_1  delta_m15     r_peak     frac 
   -4.42858  0.47778  12.72548     14.94359  2.18895  1.11267  2.47624  0.09274      0.2006   8070.38637   9333.83039  2.54715         3877.78437     17.88835  0.00043  59765.00892  0.96208  1.18309   426789.91469  44.76952  19.00794  59789.19509    50.42053       43.77376   16.58528   26.3918   31.5    0.55463  -20.31396  0.58431 
   -5.67757  0.02949    8.8635      14.3094  1.52809  1.02664  3.74329  0.02988     0.37917   6409.49739   3636.50807  3.81596         3869.75037     20.31936   0.1159  59763.75993  0.91734   0.1104  2681455.46371  44.12941  19.03195  59789.19509    50.45315       43.87417   17.04728  25.51869   39.5    0.51862  -20.45148  0.94641 
   -6.88727  0.02716   8.97813     14.29949  1.61436  1.52644  0.75663  0.20494     0.49992   8143.09922   9445.41293  2.06046         3801.80459      17.0465    6e-05  59762.55023  0.29929  0.02055  3042353.88923  44.08726  19.02941  59786.85188    50.56515       43.91151   17.85788  28.27417   32.5    0.52463  -20.31669  0.99018 
   -7.18816  0.44944   9.97939     14.66835   1.8905  0.67503  1.12788   0.1465     0.43808   10057.6331   9583.31692  0.79948         3851.68286     19.47611  0.01663  59762.24934  0.68058  0.50692    805177.2115  44.64132  18.98694  59786.85188    50.35693       43.76702   16.52476  27.01161   30.0    0.53964  -20.35787  0.80835 
   -4.27437  0.35301  10.64968      14.7973  1.86011  0.81133  2.23232  0.07295     0.41167   6708.32609   9466.89989  2.34495         3702.91912     18.93804  0.00482  59765.16313  0.59926  0.78804   498218.57462  44.78629  19.04687  59789.19509    50.39056        43.7226   19.40852  34.49365   31.0    0.55948  -20.23527  0.70139 
    -5.7992  0.44958   9.32884     14.59447  1.90822  1.43242  1.87562  0.12128     0.11445  10363.64333   7824.88157   2.8664         2118.08326     17.68662  0.00027   59763.6383   1.2017  0.84325   998054.74348  44.61066  18.99551  59786.85188    50.37929       43.80188   17.04869   27.0102   33.5    0.54831  -20.32682   0.7481 
    -5.2208  0.00656   8.92242     14.28431  1.60461  1.46035  1.73578  0.07234     0.12925    7024.4152   8240.36531  4.30283         3276.19616     18.50436  0.00177   59764.2167  0.51091  0.01139  3202779.26383  44.06772  19.04857  59789.19509    50.38468       43.76234   18.13057  27.47897   37.5    0.51753  -20.31332  0.99454 
   -8.31616  0.15943   9.73526     14.36822  1.71988  1.43842  1.88309  0.11076     0.49989   9579.95665   9506.35984  1.72831         3911.31226     16.48463    2e-05  59761.12134  1.03092  0.30022  2776898.03995  44.08409  18.99046  59786.85188    50.37347       43.79405   17.04728  26.16018   31.0    0.50636  -20.37642  0.86594 
   -4.26826   0.4877  14.56809     14.89342  1.99242  1.40394  3.12905  0.07538     0.04023   8970.80286   9749.70715  2.77812         3885.77182      18.3804  0.00133  59765.16924  1.50211  1.52604   641447.51515  44.43426  18.97475  59786.85188    50.34388       43.66432   20.20373  33.69845   33.5    0.53886   -20.3469  0.41889 
   -4.94923   0.4351  10.97929     14.60944  1.64128  1.53764  3.55448  0.05497     0.13281    8927.1882   9379.68743  3.27491         3061.41876     20.09457  0.06907  59764.48827  1.68979  1.54655  1109856.09725  44.35761  18.97459  59789.19509    50.45326       43.89818   16.52476  23.00681   38.0    0.53545  -20.35483  0.48251 
   -5.48648  0.47706  11.76428     14.60031   2.1107  1.26408   0.8725  0.21729     0.49757   9601.40095   8743.97532  1.58402         3907.79588     18.45852   0.0016  59763.95102   0.4798  0.41623  1709034.36152  44.21939  19.01064  59789.19509     50.4988       43.98109   14.88881  22.42808   30.5    0.59058  -20.35939  0.81355 
   -6.27655  0.39488  10.17908     14.57403  1.71683  0.76119  1.07839  0.16698     0.45932    9956.2305   8573.32836  1.78103         3618.42278     17.83824  0.00038  59763.16095  0.63767  0.42583  1174637.40827  44.41825  18.99783  59789.19509    50.34687       43.74272   18.13057   26.5459   33.0    0.56432  -20.34575  0.80643 
   -4.94866   0.4475  12.38344     14.49887   1.7545  1.51926  2.48969  0.05709     0.43161   8093.21113   9180.78942  3.20961         3313.92949     17.32295  0.00012  59764.48884  0.97278  1.11415  2511366.94989  43.92741  19.00877  59789.19509    50.43723       43.88321    15.3312  22.86529   42.0    0.51591   -20.2799  0.52625 
   -4.96537  0.36919  12.01944     14.65811  1.97014  0.96429  1.48867  0.11049     0.48026   8743.16323   9469.72671  2.35352          3697.1506     17.15578    8e-05  59764.47213  0.67883   0.5496  1276035.81525  44.29771  19.05658  59789.19509    50.36745       43.71043   18.65308  30.73358   30.0    0.58881  -20.31842  0.74068 
   -5.89055  0.47702  14.73965     14.62036  1.42376  1.27325  3.36599  0.04799     0.29363   6944.90847   9562.18811  3.50015          4025.2671     16.76894    3e-05  59763.54695  0.96844  1.60563  1650110.09413  43.86779  19.00476  59789.19509    50.49033       43.94035   15.03464  23.27611   47.5    0.51144  -20.31121  0.28604 
   -4.42757  0.00183   10.5226     14.45983  1.92238  1.20344  0.98382  0.15184     0.46741   9035.78857   8547.72112   4.0792         3210.20822     19.56235  0.02028  59765.00993  0.47915   0.0018  2378149.09415   44.1322  19.02672  59789.19509    50.44977       43.79426   16.58528  26.95109   32.0    0.59191  -20.34944  0.99908 
   -4.82211  0.20569   9.35332     14.72893   1.6362  0.59166  2.44529   0.1051     0.08185   9035.98404   7885.55424  3.30814         3263.35654     18.07378  0.00066  59764.61539  1.19099  0.50298   463144.65895  44.87503  19.01076  59786.85188    50.36639       43.80316   17.04728  25.51869   31.0    0.53596  -20.34074  0.79671 
   -4.25996  0.00182  11.54693     14.54452  2.11897  1.30329  0.92235  0.08555     0.14336    4578.7513   9644.79353  3.08332         4023.09944     16.02459    1e-05  59765.17754  0.11535  0.00168  2137186.57214  44.14019  19.09138  59786.23426    50.41736       43.75577   16.52476  26.45232   33.5    0.54918  -20.26755  0.99911 
   -4.89715  0.01332  11.61973     14.49243  2.11979  1.52395  1.11398  0.16885     0.49966   9368.95735   8830.60547  2.96515         3682.62021     17.45926  0.00016  59764.54035   0.5833  0.01484  2751936.56632  44.02511  18.96593  59786.85188    50.41173       43.78784   16.58528  26.09965   31.0    0.56041  -20.35986  0.99208 
   -6.06894  0.05666   9.38757     14.43655   1.7093  0.96644   3.9735  0.01859     0.20507   4775.91591   9110.96394  2.67493         4232.86335     20.38823  0.13582  59763.36856  0.54065  0.22514  1873411.54965  44.28392  18.92143  59786.23426    50.33536       43.70933    17.1078  29.76386   39.0    0.51379  -20.42879  0.90179 
   -4.15038  0.46419   7.06266     14.83298  1.48439  0.73768  1.85365  0.21988     0.08554   9405.36898   9205.31505  3.13795          3525.1799     18.11345  0.00072  59765.28712  0.97815  0.86045   148368.67526  45.57111  19.06113  59789.19509    50.45805       43.81551   17.33536  25.64172   27.0    0.49859  -20.28276  0.77973 
   -4.37459  0.27479   7.90641     14.68154  1.29598   0.4289  1.59007  0.03308     0.04332   3343.80856   9200.01304  2.30587         4451.33789      16.7832    3e-05  59765.06291  0.10605  0.43693   326055.12349  45.07219  19.05023  59789.19509    50.44899       43.85839   16.96197  27.79613   39.0    0.56089  -20.25579  0.81631 
   -5.90412  0.18261   8.74609     14.33074  1.35536  0.88474  2.08678  0.09566     0.48239  10173.31595   8993.72927  3.89597         3382.43506     19.22595  0.00935  59763.53338  1.28834  0.38107  2099000.49475  44.19526  19.06543  59789.19509     50.4035       43.74089   17.85788  30.61165   32.0    0.55354  -20.39993  0.81484 
   -5.29263  0.11198   8.08906     14.42264  1.32806  0.67598  1.53331  0.12543      0.3267    8804.6192    8910.4684  2.27535         3586.69793     17.44099  0.00015  59764.14487  0.70905   0.1717  1152269.66834  44.51471  19.06175  59786.85188    50.40169       43.75459   17.85788  29.01379   31.5      0.529  -20.29837   0.9175 
     -5.236  0.00562  10.91531     14.56663  2.09176  0.96259   2.3673  0.04033      0.4787   5287.02964   4343.12503  2.41768         4144.16323     19.18055  0.00842   59764.2015  0.39473   0.0133   1702744.1668  44.28214  19.01671  59789.19509    50.43545        43.9073   17.04728  23.59586   40.0     0.4883  -20.29316  0.99361 
   -5.71905    0.422   9.73002     14.38286  1.35674  1.04129  1.54527  0.10614     0.49672   7837.86463   9604.70128  3.58427          3746.1274     18.14705  0.00078  59763.71845  0.56627   0.6521  2045614.16417  44.11429  19.02187  59786.85188    50.46775       43.78581   17.85788  30.34733   33.0    0.54732  -20.33886   0.6766 
   -4.84138  0.01365  11.67577     14.49018  2.08611  1.51646  4.94972  0.01553     0.02203    4600.7807   9770.74376  3.72894         4003.96002     20.07673  0.06629  59764.59612  0.62499  0.06758  2762860.53034  44.01225  18.97837  59789.19509    50.35271       43.73446   18.65308  28.21858   35.0    0.54493  -20.33669  0.96378 
   -7.00125  0.28908  10.71741     14.79675  2.00729  0.46483  1.22983  0.18713     0.46562  12553.19544   9958.15952  0.85125         3735.60679     17.68579  0.00027  59762.43625  1.15606  0.35552   545896.81839  44.77416  19.02553  59789.19509    50.41134       43.80451    16.1418  26.20101   25.5    0.53521  -20.44219  0.85007 
   -5.88053  0.27283  11.64251     14.73034  1.89553  1.20715  3.81468  0.04407     0.29617   5994.30266   8171.06373  2.55323         4024.30527     17.07267    7e-05  59763.55697  0.81764  1.04077   825947.24952  44.49753  18.97092  59789.19509    50.34465       43.71961   18.73895  28.13272   40.0    0.51307  -20.26459  0.60485 
   -4.19045  0.02646  11.12455     14.55891  1.83171  0.67785  1.51442  0.06159       0.432   7399.24152   9708.96115  4.18851         3797.34533     18.43592  0.00152  59765.24705  0.49459  0.04007  1604777.35594  44.23372  18.95446  59786.85188    50.40188         43.758   17.85788  27.34111   35.0     0.5709  -20.32508  0.97578 
   -5.16356  0.14683   10.7862     14.82976  1.98746  0.47036  3.39883  0.04844      0.4983   9137.22239   8953.74129   4.3962         2601.51016     18.59407  0.00218  59764.27394  1.69272  0.49905   470246.34305  44.82908  19.01123  59786.85188    50.28797       43.71403    16.1418  29.01379   35.5    0.48491  -20.28579  0.79772 
   -4.26351   0.4238   9.82168     14.46711  1.52795  1.34379  2.60789  0.06041     0.47339  10093.07428   8688.14484  3.43294         2456.60231     17.17408    8e-05  59765.17399  1.58476  1.10522  1592482.27223  44.26651  19.02675  59786.85188    50.42221       43.81631   16.52476  26.45232   37.5    0.53177  -20.28188  0.59318 
   -7.01909  0.07991  10.67248     14.79624  2.11548  0.54544  1.18779  0.15133      0.1074   6871.91265   9832.57319  3.26255         3362.70342     17.09807    7e-05  59762.41841   0.3346  0.09492   571839.78266  44.78045  19.04401  59789.19509    50.35367       43.72278   19.18096   27.6907   31.5     0.4813  -20.27024  0.95881 
   -5.43254  0.01448   9.29492     14.43498  1.46453  0.66572  2.71554   0.0457     0.37905   7542.61657   9359.66312  4.13094         3759.66969     17.40484  0.00014  59764.00496  0.92157  0.03933  1585049.19138  44.29801  19.06257  59789.19509    50.38818       43.73237   18.73895  28.13272   34.0    0.54481  -20.31286  0.97684 
   -4.91316  0.47489  12.53337     14.61214  2.08819  0.75304  0.57072  0.23556     0.48495   8615.97776   8886.86238  3.87561         3640.91519     17.44693  0.00016  59764.52434  0.25273  0.27103  1817399.21905  44.13303  19.01909  59786.33472     50.4139       43.70704    17.1078  31.09741   38.0    0.52517  -20.31015  0.85096 
   -4.57136   0.4516  10.33764     14.56684  1.51282  1.16822  2.27678  0.09262     0.40994   7621.91751   9205.70633  4.42019         3447.76282     19.16677  0.00816  59764.86614    0.789  1.02819  1103465.70566  44.37703  19.00342  59789.19509    50.42739       43.81997   17.85788  27.26254   34.0    0.52735  -20.32502  0.58301 
   -5.04202  0.42518   8.97505     14.72712  1.93298  1.31439  2.76873   0.0818     0.49533   9409.32256   7202.62973  1.69625         2558.73237     18.52145  0.00185  59764.39548  1.46226  1.17722   508016.85664  44.94312  18.97072  59785.30387     50.3822       43.81105   15.03464  26.63924   40.5    0.52872  -20.26452  0.70217 
   -4.61977  0.00341  11.35688     14.50003  2.11978  1.33845    3.005  0.04051     0.46708   6618.83486   8801.68769  4.67549         3270.13063     18.03899  0.00061  59764.81773   0.7853  0.01026  2538459.04046  44.08005  18.95173  59786.85188    50.33478       43.70162   18.65308  29.81644   35.5    0.52909  -20.25583  0.99477 
   -5.29112  0.39826  10.72277     14.52492  1.58077   0.7138  1.00211  0.18088     0.44994   9926.46241    8983.2447  3.95446         3779.24984      18.6546  0.00251  59764.14638  0.58902   0.3991  1504700.49308  44.22965  19.03496  59789.19509     50.3899       43.75198   17.85788  29.01379   32.5    0.57925  -20.39555  0.77847 
   -3.53594  0.28677   9.63032     14.49244  1.73802  1.36918  1.25323   0.0571     0.12989   4140.87848   8471.49456   2.2259         4291.98977     16.30503    1e-05  59765.90156  0.12819  0.35939  1549786.02048  44.35135  19.03397  59789.19509    50.48885        43.9133   15.41132  22.89942   38.0    0.56368  -20.26101  0.84976 
   -6.82967  0.39407   9.59664     14.60206  1.62313  0.55333  1.06844  0.17136     0.42583  10993.79883   8103.22924  1.12938         4031.17099     18.16913  0.00082  59762.60783  0.77032  0.42104   867539.72867  44.57667  18.94029  59786.23426    50.51579       43.94682   15.03464  23.27611   35.5    0.54742  -20.39323  0.81265 
   -3.77273  0.28212  14.66146     14.59188   2.0938  1.10061  2.42788  0.05039     0.43058    7961.3863   8310.76861   4.2803         3718.20238     17.55153   0.0002  59765.66477  0.91798  0.68495  2737380.13478  43.82009  19.04341  59786.85188    50.48367       43.95138   14.36841  22.73516   41.0    0.56604  -20.30354  0.62461 
   -5.17911  0.27949   9.35439     14.53228  1.74954  1.22678  2.37882  0.10595     0.48689  10708.33915   8710.34955  1.91968         3048.67615     17.38662  0.00014  59764.25839  1.62717  0.66485  1225199.30054  44.48153  19.01844  59789.19509    50.42644       43.78743   17.33536  26.20101   29.0    0.56126  -20.41105  0.76631 
   -5.06869  0.44587  11.42847     14.80697  1.86232  0.82592  2.10703  0.12495     0.20487   8947.09033    9289.8002    2.393         3725.28946     16.61333    2e-05  59764.36881  1.00615  0.93947   549422.30774  44.68302  18.96003  59786.85188    50.44352       43.88914   15.41132  24.69618   30.0    0.52539  -20.31413  0.63137 
   -3.74699  0.40899   8.48507     14.83567  1.34587  0.56558  2.62286  0.12092     0.49273    9236.3144   7982.98426  3.88091         3594.62012     18.06892  0.00065  59765.69051  1.33475  1.07273   191775.30372  45.25774  18.98039  59786.33472    50.39584       43.68861   17.85788  32.42049   32.0    0.55621  -20.36149  0.62705 
   -4.11338  0.43995  10.13731     14.69136  1.98671  0.77052  1.08061  0.11153     0.48898   5769.72981   8419.29075  3.05454         3469.78427     20.40992  0.14277  59765.32412  0.21459  0.47541   785382.04795  44.66005  18.97656  59789.19509    50.38226       43.75878   17.85788  29.01379   37.5    0.51196  -20.34862  0.82491 
   -6.37913  0.17517   9.26641     14.60482  1.50326  0.61721  2.30663  0.09546     0.49597   8380.47829   9704.60081  3.56514         3487.93442     17.98103  0.00053  59763.05837  0.96637  0.40404   739648.79522  44.64303  18.91224  59786.85188     50.2813       43.67974   18.21643  28.13272   29.5    0.53156  -20.32721  0.81326 
   -4.85437  0.19586   9.28131      14.6012  1.33736  1.46976  6.59132  0.02168     0.01054   4993.09767   9085.89261  3.11779          4021.2898     19.15177  0.00788  59764.58313  0.98026  1.29096   671249.67836  44.63299  18.94911  59789.19509    50.32899       43.70846   18.21643  28.13272   41.5    0.47974  -20.22988  0.53627 
   -3.66469  0.14797  10.68899     14.43698  1.71763  1.41246  3.09143  0.04337      0.4357   7170.94854   7173.04512  4.99143         3130.70576     18.56726  0.00205  59765.77281  0.94829  0.45743  2435919.01699  44.05924  18.99708  59789.19509    50.36353        43.7053   17.46488  29.49025   40.5    0.54075  -20.23597   0.7787 
   -5.16852  0.47093  12.80894     14.67548  1.87787  0.91786  1.72478  0.10458     0.36903   8290.49234   7573.17738  3.66491         3558.87143     18.49985  0.00176  59764.26898  0.70717  0.81225  1275095.06588  44.22194  18.97362  59786.85188    50.38913       43.68993   17.85788  32.42049   38.0    0.56988  -20.30778  0.61277 
   -3.31014  0.33606   4.75782     14.26734  1.10989  1.24041  1.58429   0.0366     0.03239   3435.14331   7907.85639  1.35552         4757.36533     16.35955    1e-05  59766.12736  0.11152  0.53242   681140.19372  45.12607  19.00549  59786.85188     50.4245       43.77063   16.58528  28.01262   40.5    0.55313  -20.22289  0.88969 
   -4.82261  0.00393  12.27376     14.47984  2.07233  1.29664  3.68118  0.02732     0.34876   6577.10235    8929.1088  4.11108         3974.80181     17.63127  0.00024  59764.61489  0.94991  0.01446  3180903.86208   43.9048  18.98192  59789.19509    50.39641       43.78438   17.85788  28.04202   34.5    0.56265  -20.33084  0.99105 
   -4.74151  0.48961   9.58162     14.37461  1.37241  1.10758  1.32483  0.13799     0.49054   8971.74309   8593.75859   2.8218         3733.68098     19.34936  0.01242  59764.69599  0.63612  0.64865  2084321.52749  44.12449  19.02635  59786.85188    50.48572       43.96185   13.70192  22.06432   33.5     0.5637  -20.35206  0.68834 
   -5.05587  0.30786  10.07958     14.78549  1.58493  0.37103  1.32659  0.12302       0.474   9458.89928   9746.19798  3.57678         3298.37809       17.782  0.00034  59764.38163  0.70802  0.40841   401548.44472  44.85823  19.05428  59789.19509    50.40211        43.8114   17.85788  26.20101   31.5    0.54785  -20.32179  0.79654 
   -6.71437  0.46013  12.07223     14.53607  1.77337  0.88791  1.42909  0.10167     0.08507   7875.16182   9192.52384  3.11906         3910.75662     19.03452  0.00602  59762.72313  0.52869  0.65757  2032596.96059  44.04602  18.99405  59789.19509    50.42094       43.84903   17.04728  26.16018   37.0    0.52291  -20.32241  0.66649 
   -4.81049  0.28221   9.64793     14.61147  1.61557  1.01099  3.23394  0.05955     0.40736   8569.80292    9377.3967  1.35848         4058.84528     16.65389    3e-05  59764.62701  1.41678  0.91266   835753.48432  44.58623  18.99677  59786.85188    50.59144       44.02645   15.41132  23.67627   30.5    0.55977  -20.31991  0.66639 
   -4.83456  0.02291  11.48231     14.43819   2.0159  1.32873  3.66845  0.03522     0.49931   7852.17566   8881.92917  3.67622         3576.09662     19.10847  0.00713  59764.60294  1.34924  0.08403  3280664.80371  43.93729  19.03021  59786.85188    50.39284       43.76219   17.33536  26.20101   36.5     0.5208   -20.2914  0.95432 
   -4.17381  0.08114   8.29266     14.16269  1.28362  1.35841  1.88593  0.08873     0.11309    9678.4907   9598.77143  3.92181         3443.98462     19.41918  0.01459  59765.26369  1.05382  0.15303  3874959.02862  43.95163  19.00198  59789.19509     50.4611       43.87162   17.04728  23.59586   31.0    0.53458  -20.35284  0.91804 
