 log(Bfield)      Mns    Pspin  cutoff_power  cutoff_wavelength  fnickel    kappa  kappagamma   mejecta  log(nhhost)  temperature  texplosion  thetaPB     vejecta      A_V        MJD_0   log(KE)      M_Ni  Peak_mag     Peak_MJD 
    13.20541   1.3055   3.5246       1.50991         2602.83054  0.07014  0.01562     0.03792  79.38525       17.145   9735.34532   -52.81757  1.53117  1347.78118    8e-05  56565.78243  51.02012   6.77962  21.64457      56786.4 
    13.51104  1.74526  4.05044       4.93067         2921.67304  0.00548  0.01218     0.15465   92.8973     16.23186   7487.44863   -64.88703  1.24555  1099.49016    1e-05  56553.71297  50.85336   0.54262  21.65839  56777.31429 
     13.8879  1.72494  3.82633       1.03085         3256.46683  0.00613   0.0133      0.0314  98.60599     16.65377   9621.46659   -75.62405  0.39645  1128.38244    3e-05  56542.97595  50.87966   0.61211  21.75483      56786.4 
    13.85486  1.76055    4.027       1.59365         3411.87436  0.00388  0.01093      0.0678  96.77111     19.22992   4530.28053   -59.93975  0.45178    1092.242  0.00943  56558.66025   50.8502     0.386  21.57425  56781.85714 
    13.80668  1.85248  4.18604        0.2341         2794.31021  0.01427  0.01058     0.45115   91.4074       16.988   6176.72236   -58.26365  0.54787  1190.60498    5e-05  56560.33635  50.92148    1.4081  21.73756  56800.02857 
    14.08015  1.69908  4.25241       0.49097         2758.52726  0.06668  0.01459     0.24249   97.9276     17.08061   8978.05555   -66.99286   0.1578  1225.89802    7e-05  56551.60714  50.95122   6.64814  21.62893      56775.3 
    13.95178  1.76202  4.43506       3.01834          2633.5588  0.07318  0.01622     0.21631  99.48088     18.83447   8281.71899   -69.98524  0.21477  1232.93461  0.00379  56548.61476  50.95718   7.31204  21.57366  56781.85714 
    13.40834  1.56566  3.81526       2.38788         3123.75826   0.0125  0.01067     0.07084  81.66946      16.9411   5387.06598   -47.02912  1.16422   1187.3482    5e-05  56571.57088  50.91188   1.21351  21.64836  56790.94286 
    12.89161  1.60868  3.69172       4.48729         2814.77614   0.1013  0.01419     0.16525  93.38007     17.75187   7701.92987   -58.40693  1.47633  1120.31661  0.00031  56560.19307  50.86999  10.02975  21.58413      56774.3 
    13.71731  1.97044  5.17393       3.91397         3274.99326  0.05937  0.01034     0.01099  83.18726     18.20233   4923.41535   -36.03372  0.54016   1210.6881  0.00089  56582.56628  50.92997   5.77924  21.69153  56781.85714 
     13.3094   1.9666   5.2988        1.9478         3139.99124  0.10801  0.01528     0.03287  86.27672     16.70405   7029.23329   -46.00543  1.36674  1207.62667    3e-05  56572.59457  50.93012  10.57087  21.69605  56777.31429 
    13.44878  1.87858  4.94867       2.83634         2304.23077   0.0545  0.01061     0.03625  97.20394     16.94178   6261.11409   -46.70024  1.11236   1167.9368    5e-05  56571.89976  50.90868   5.42736  21.60733      56786.4 
    14.09719  2.14231  4.79988        1.3804          2849.2051  0.03576  0.01144     0.03573  96.01191     16.91377   3852.38048   -65.76126  0.28942   1288.7488    5e-05  56552.83874   50.9934   3.55523  21.66693      56775.3 
    13.48414  1.69829  4.02921       3.30422         3133.64727   0.0158  0.01252     0.01863  88.66065      16.0371   7480.53729   -47.19598  1.27689  1155.58367    1e-05  56571.40402   50.8936   1.55298  21.62594      56774.3 
     13.1594  1.64483  4.14217       4.29334         2751.70558   0.0809  0.01073     0.01355  86.28985     19.20411   5275.58944   -44.59046  1.32552  1199.55202  0.00889  56574.00954   50.9243   7.91782  21.66367  56781.85714 
    13.26283  1.79959  4.64218       3.99205         2256.40244  0.10904   0.0135     0.09623  92.68792     16.69119   4143.22852   -56.40178  1.03472   1249.6216    3e-05  56562.19822  50.96439  10.78465  21.71494  56795.48571 
    14.00763  2.19811  5.60231       1.56417         2812.14017    0.047  0.01202     0.04429  94.92034     16.35765   5727.82637    -63.6769  0.42401  1114.34219    1e-05   56554.9231  50.86638    4.6645  21.64188  56777.31429 
    14.07057  2.06271  4.65314       3.25434         2938.74806  0.00673  0.01359     0.02221  88.90432     18.13238   3719.91569   -46.81228  0.34319  1108.01381  0.00075  56571.78772  50.85727     0.662  21.67787  56790.94286 
    13.53804  1.73522   4.2773       0.82315         2804.70556  0.03775  0.01068     0.02803  97.03924     17.62131   8019.32302   -73.08096  0.80773  1251.49607  0.00023  56545.51904  50.96859   3.75873  21.73565      56786.4 
    13.95445  1.74482  3.87793       3.76318         2421.55589   0.0023  0.01095     0.12473  97.16185     19.45852   8996.15349   -43.74906   0.3438  1180.61887  0.01597  56574.85094  50.91803   0.22864  21.69741  56804.57143 
    13.80294   1.5989    4.043       4.84721         2862.76283  0.05855  0.01161     0.15915  75.83678     18.09894   7806.94486    -39.7462  0.25734   1261.5412   0.0007   56578.8538   50.9597   5.62034  21.70341      56774.3 
    14.46164  1.73678  3.97951       3.33277         2926.88832  0.00329  0.01051     0.13235  95.54638     18.88543   5995.05554   -40.89758  0.11293  1159.34264  0.00427  56577.70242  50.90118   0.32687  21.70399  56777.31429 
    13.54621  1.86424  4.60839       3.92585          2592.5611  0.06891  0.01387     0.44089  79.69541     18.97511   8974.63971   -42.71407  0.63437  1322.20493  0.00525  56575.88593  51.00373   6.66504  21.72561      56786.4 
    13.39585  1.61738  4.68737       4.24358         2952.28902  0.08147  0.01125     0.01328   90.9597     19.42407   8833.78269   -36.81717  0.79284  1136.77641  0.01475  56581.78283  50.88098    8.0358  21.72916  56781.85714 
    13.32811  1.82561  5.01591       1.89789         3045.87093  0.08613  0.01363     0.02541  83.71635     17.77177   6500.21633   -36.72249  1.53277  1235.46541  0.00033  56581.87751  50.94798   8.39202  21.73412  56777.31429 
    14.45346  1.98073  4.08521       3.59451         2182.55845  0.00106  0.01419     0.19451  98.48455      18.2343   5174.15357   -56.26792  0.12721   1188.6836  0.00095  56562.33208   50.9248   0.10554  21.70402  56777.31429 
    13.55508  1.78323   3.7947       2.76991          2489.9011  0.00119  0.01035     0.01731  99.52627      19.9032   4609.05447   -51.23914  0.90811  1329.67067  0.04446  56567.36086  51.02282   0.11915  21.81848  56790.94286 
    13.48783  1.92464  4.79385         4.371         3231.23286  0.07056  0.01254     0.01047  84.80583     19.31556   5164.93793   -37.35467  0.70591  1218.81063  0.01149  56581.24533  50.93702   6.88762  21.70914  56800.02857 
    12.93748  1.62685  3.65805       4.36217         3398.61555  0.08985  0.01161     0.02295  90.73326     18.60669   9545.05257   -38.50605  1.38401  1152.13736  0.00225  56580.09395  50.89248    8.8586  21.75607  56768.22857 
    13.77655  1.66457  3.69913       1.07576         3482.07589  0.01809   0.0221     0.37549  87.76603     17.23852   5702.70166   -71.65205  0.41906  1230.19124   0.0001  56546.94795   50.9473    1.7744  21.66215  56777.31429 
    13.71245  2.02688  4.61306       4.11666         2966.76998  0.02223  0.01102     0.07494  91.62123     16.64893    7021.2662   -53.42988  0.83514  1166.93128    2e-05  56565.17012  50.90419    2.1944  21.73524      56774.3 
    13.26932  1.64901  4.62396       4.36257         2857.62639  0.07285  0.01148     0.03244    91.846     19.32358   4578.34478   -55.70192  1.50627  1119.23633   0.0117  56562.89808   50.8681   7.19577  21.66528  56772.77143 
    13.47503  1.80646  4.70507       3.32102         2853.21949  0.06576  0.01293     0.02013  83.68859     19.71991   4676.44723   -36.08972   1.3451  1249.08251  0.02915  56582.51028  50.95748   6.40675  21.74822  56781.85714 
    14.28526  2.06689   4.3743       1.31492         3400.53377  0.00151   0.0102     0.05052  92.87632     18.97656   6470.51425   -51.49296  0.22459  1157.82238  0.00526  56567.10704  50.89824   0.14977  21.75856  56795.48571 
    13.46185  1.60975  3.76598       4.77342         2824.45712   0.0071  0.01672     0.12363  85.73994     18.26041   9538.95048   -58.24213  1.25963  1215.29616  0.00101  56560.35787  50.93522   0.69391  21.60753  56777.31429 
    13.53258  1.64938  3.85418       4.10686         2825.67487  0.01057  0.01836     0.03495  96.01597     17.02588   4790.03574   -59.19685  1.23142  1100.64267    6e-05  56559.40315  50.85636   1.05089  21.56463  56759.14286 
    14.02437  1.88151  4.14662       4.41263         3079.06083  0.00114   0.0104     0.01021  97.97042     19.82079   4513.53917   -36.79866  0.37231  1166.78506  0.03677  56581.80134  50.90832   0.11385  21.75438  56781.85714 
    13.05361   1.6274  4.13028       2.70385         2771.86768  0.12753   0.0127     0.38815  79.75701     19.43566   7545.43443   -30.96781  1.52729  1309.22322  0.01515  56587.63219  50.99521  12.33539  21.61313  56790.94286 
    13.81047   1.6642  4.21341       3.31491         3003.14816  0.01853  0.01019      0.0218  99.04885     16.74261   6249.30112    -58.5581  0.42678  1050.17417    3e-05   56560.0419  50.81755   1.85013  21.80054      56786.4 
    13.42603   1.8409  4.88613       2.36536         3085.69731  0.08079  0.01155     0.04011  95.85601     18.91762   6227.99328   -53.69572  0.77428  1115.93627   0.0046  56564.90428  50.86824   8.02913  21.64549  56768.22857 
     13.3241   2.0243  5.24914       0.61985         3500.13458  0.09384  0.01055     0.27045  94.07177     19.61621   4887.80319   -44.33624  1.11137  1152.85449  0.02296  56574.26376  50.89532   9.30062  21.73296  56777.31429 
     13.1756  1.66415  4.69044       4.64431         3159.98833  0.08299  0.01113     0.06343  96.02528      20.1746   5578.69491   -23.33564   1.2849   1066.6311  0.08305  56595.26436   50.8291   8.24989  21.56024  56790.94286 
    13.54589  1.80347  4.16119       4.25046         3068.93215  0.00601  0.01029     0.11842  97.36603     17.65208    9003.2191   -51.79964  1.00712  1090.49059  0.00025  56566.80036  50.84919   0.59838  21.69345      56794.2 
    13.71115  1.68952  4.73401       2.16245         3197.50903  0.09427   0.0102     0.16906  94.54255     16.10669   3510.74199    -33.8202  0.24523  1095.24457    1e-05   56584.7798  50.85111   9.35024  21.63416      56786.4 
    13.49932  1.65478  3.93839       4.42771         3201.41877  0.00167  0.01039     0.16847  96.54035     19.21566   9287.66444   -35.46727  1.32062   1103.6761  0.00913  56583.13273  50.85909   0.16662  21.88689      56786.4 
    13.47153  1.62566  3.67703       4.94623         2667.68452  0.00707   0.0182     0.02842  89.70715     16.65307   4787.61141   -65.34341  1.04959  1205.44335    2e-05  56553.25659  50.93104   0.69582  21.86373      56786.4 
    13.81329   1.6776  3.88345       4.63434         2352.85554  0.00101  0.01263     0.14906  86.33469     16.92489   8601.48829   -51.10274  0.46247  1158.57365    5e-05  56567.49726  50.89415   0.09857  21.69878      56786.4 
     13.4751  1.50617  3.60234       4.30636         2978.82053  0.00288  0.01134     0.01397  95.63885     16.31585   3131.94698    -46.2114  1.01473  1126.49798    1e-05   56572.3886  50.87628   0.28611  21.70277  56768.22857 
    13.66145   2.0069  4.41282       2.38754         3095.53052   0.0024  0.01163     0.15587  77.19799     16.15979   7782.26878   -31.47813  1.11643  1315.64905    1e-05  56587.12187  50.99734   0.23131  21.72646  56795.48571 
    13.34007  1.58852  4.33079        3.8937         2849.25045   0.0555  0.01221     0.01607  89.15832     17.11616   6943.26637    -48.7604  1.40597   1149.5555    7e-05   56569.8396  50.88942   5.45816  21.70687  56800.02857 
     13.3714  2.02797  4.38004       4.28886         2274.42381   0.0998  0.01469     0.39558  94.59903     17.70707   4972.90312   -64.94055  0.48248  1114.44596  0.00028  56553.65945  50.86624   9.89989  21.69621  56795.48571 
    13.16015  1.67736  4.09253         2.845         3002.57874  0.06108  0.01398     0.02579  98.22022     18.44214   9435.91003   -61.25639   1.2452  1101.70693  0.00154  56557.34361  50.85863   6.09202  21.67886  56790.94286 
    13.42519  1.63602   3.7744       4.64206         3190.19096  0.00452  0.01169     0.01564  90.65904     17.01776   4107.77564   -40.42962  1.45041  1156.40467    6e-05  56578.17038  50.89564   0.44587  21.77081  56781.85714 
     13.5861  1.84421  4.36617       4.30225         2876.44499  0.02438  0.01165     0.42096  91.01837     18.79513   8540.85195   -52.71981  0.67887  1316.92456  0.00347  56565.88019   51.0088   2.40481  21.78739  56763.68571 
    14.17302  1.64909  3.99163       2.81994         3232.02945  0.01258   0.0149     0.03841  90.10815     17.41029   6137.63208   -56.54754  0.18693  1091.34643  0.00014  56562.05246  50.84496   1.23859  21.76706  56759.14286 
    13.44775  1.74349  4.15602       2.52129         3126.57608  0.00927  0.01028     0.46239  86.20401     16.67775   4714.38138   -74.01547  1.09181  1215.68733    3e-05  56544.58453  50.93585    0.9067  21.76032      56775.3 
    13.36832    1.803  4.85265       3.87889         2683.19799  0.07481  0.01204     0.04941  93.08355     16.94218   7099.66252    -40.6784  1.15157  1220.60895    5e-05   56577.9216  50.94426   7.40389   21.6286      56786.4 
    13.34056  1.73335  4.71741       3.08884         2954.38327  0.07012  0.01334     0.42233  91.24265     17.25731   3107.52026   -54.64739  1.29861  1144.54139   0.0001  56563.95261   50.8871   6.91858  21.76971  56790.94286 
    13.45601  1.45556  3.61789        1.1123           2433.544  0.10272  0.01166      0.0319  99.55824     16.12335   9592.70526   -55.61216  0.28256  1149.99436    1e-05  56562.98784  50.89674  10.26497  21.77739  56795.48571 
    13.39534  2.00611  5.10119       2.58838         2759.85945  0.08458  0.01314      0.0193  94.17585     19.92524   7027.49673   -49.76712  1.52983  1195.50354  0.04677  56568.83288  50.92694   8.38427  21.69278  56781.85714 
    13.47274  2.03414  5.51352       4.52342         2996.55112  0.08256  0.01037     0.27394  95.02936     19.02262   8568.13297   -31.11838  0.82708  1136.97716  0.00585  56587.48162  50.88392   8.19528  21.68352  56804.57143 
    13.30521   1.4152  3.75035       3.56355         2086.14514   0.1039  0.01025     0.08004  93.75593     16.54973   5290.23772   -40.88718  0.49009   1210.5708    2e-05  56577.71282  50.93754  10.29308  21.66386      56774.3 
    13.33883  1.46854  4.26675       4.84327         3042.26636  0.06538  0.01071      0.1844  97.64533     18.85254   3362.74258   -39.81183  0.87956  1090.43024  0.00396  56578.78817  50.84932   6.51525  21.79469      56794.2 
    13.31569   1.7436  4.84032       2.38402         3023.46986  0.06725  0.01035     0.01234  97.51225     16.14977   3459.85887   -46.67528  1.43787   1091.9329    1e-05  56571.92472  50.85043    6.7004  21.71266      56774.3 
    13.55645  2.00343  4.88558       4.70398         3040.14402  0.02746  0.01303     0.05956  79.04274     16.62451   5374.97616   -41.46047  1.38164  1214.78771    2e-05  56577.13953   50.9296   2.65217  21.62692      56786.4 
    13.62518  1.97086  4.50626       4.36905         2846.43121  0.00571   0.0103     0.25889  87.62139     16.05733   7218.39392   -54.44926  1.00261  1178.45011    1e-05  56564.15074  50.90987   0.55982  21.63068  56768.22857 
    12.94585  1.52343  3.55394       1.02886         3540.46304  0.09676  0.01046     0.07824  97.18029     16.22154   8188.96095   -39.98066  0.87867  1096.45273    1e-05  56578.61934  50.85381   9.63639  21.68308      56774.3 
    13.28972  1.60465   4.2207       4.15392         2909.62974  0.08063  0.01285     0.23237   70.0892     18.18981   4946.81725   -32.68429  1.13627  1386.44725  0.00086  56585.91571  51.03652   7.64834  21.66744  56781.85714 
    13.63616  1.55709  4.22616       3.33501         2922.23626  0.09037  0.01384     0.40057  75.64421     16.51917   4258.25368   -40.03169  0.38026  1332.46262    2e-05  56578.56831  51.00704   8.67219  21.62519  56781.85714 
    13.88523  1.64342  4.14027       3.56935         2958.24785  0.03717  0.01263     0.16325  82.06096     16.93409   6188.31847   -43.09248  0.34956  1325.58657    5e-05  56575.50752  51.00784   3.61104  21.67546  56777.31429 
    13.72357  1.72515  4.97183       3.06022         2611.77527  0.11517   0.0121     0.04607  90.57149     18.58939   8526.63729   -48.38516  0.31375  1214.61628  0.00216  56570.21484  50.93824   11.3521  21.69021  56777.31429 
    13.13776  1.65972   4.4737       4.71183         2420.41077  0.11153  0.01306     0.06523  91.00321     17.61996   8754.09912   -45.35657   1.4327  1225.15337  0.00023  56573.24343  50.94605  11.00096  21.75179      56775.3 
    13.28501  1.52856  4.31377       2.32669         2598.37993  0.07677  0.01218     0.07402  97.60931     19.84268   3316.11066   -56.19967  1.20104   1203.3712  0.03867  56562.40033   50.9349   7.65048  21.69695  56777.31429 
    13.65336  1.77314  3.47586        3.2347         2407.64956  0.00104  0.01787     0.02822  96.82345     20.29879    6070.3502    -74.3067  0.73807  1248.44868  0.11054   56544.2933  50.96634   0.10309  21.76839  56772.77143 
    13.37813   1.4699  3.44265       2.53985         3503.99919  0.00645  0.01594     0.04968  97.03421     18.79786   3133.69007   -60.68278  1.43695  1166.43773  0.00349  56557.91722  50.90746    0.6419  21.66244      56786.4 
    13.50065  1.65384  3.99098       3.47608         3006.83705  0.01508  0.01059     0.12858  98.54621     19.59893   9769.04151   -63.62791  0.93535  1090.10581  0.02206  56554.97209  50.84964   1.50487   21.7299  56781.85714 
    13.56897  1.65539  3.87919       1.69937         2760.66189  0.01083  0.01141     0.04682  68.18653     17.66959   5791.34494   -51.59322  0.69638  1385.95666  0.00026  56567.00678  51.03438   1.02289  21.71455  56772.77143 
    13.27038  1.86231  4.63863        1.6245         2668.43173  0.12321  0.02013     0.01329  97.16791      17.5679   4795.97907   -67.97035  0.73977  1161.43073  0.00021  56550.62965  50.90381  12.26988  21.64219  56777.31429 
    13.72522  1.91111   4.2627       2.94128         2377.45473  0.01707  0.01026     0.39718   86.2913     18.61133   3481.31124   -47.69546  0.62024  1276.39432  0.00227  56570.90454  50.97824   1.67036  21.74205  56781.85714 
    13.86276  1.55735  3.62344       4.84927         2720.99567  0.00111  0.01341     0.06403   76.3695     17.90068   9755.76727   -44.81509  0.33593  1247.85053  0.00044  56573.78491  50.95068   0.10652  21.63858  56781.85714 
    13.24101  1.75761  4.72117        3.4058         3159.42135  0.07476  0.01101     0.09968   92.2959     17.00137    5888.3307   -38.23106  1.12283  1070.94392    6e-05  56580.36894   50.8301   7.38917  21.69479  56790.94286 
    13.45079   1.6767   4.2723       3.37681         2635.03863  0.04163   0.0118     0.39112  95.15048     16.10334    7350.0388   -57.25835  1.08688  1154.84217    1e-05  56561.34165  50.89754   4.13291  21.74752  56795.48571 
    14.12284  1.63593  3.91665       3.15046         2889.09063  0.00948  0.01045     0.10835  99.76492     17.72625   8850.42598   -56.11104  0.21555  1073.28617   0.0003  56562.48896  50.83691   0.94753  21.70932      56774.3 
    13.30222  1.30138    3.653       4.18263         2912.58848  0.04474   0.0105     0.28363  93.49246     18.60014   8080.12464   -48.18125  0.91476  1133.81831  0.00221  56570.41875  50.88047    4.4304  21.63209  56781.85714 
    13.18363  1.48006   4.1431        3.1495         2536.08436  0.08583  0.01666     0.30882  85.77996     16.55426   8407.21966   -60.30613  1.14788  1182.31036    2e-05  56558.29387  50.91135   8.39257  21.49804      56775.3 
    12.76205  1.39236  3.11496       2.31072         2831.95783   0.1012  0.01542     0.38192  97.87793     16.10127     7376.287   -48.70696  1.42797  1157.69162    1e-05  56569.89304  50.90146  10.08821  21.78172      56807.1 
