 texplosion  fnickel    Pspin  log(Bfield)      Mns  thetaPB   mejecta    kappa  kappagamma     vejecta  temperature    alpha  cutoff_wavelength  log(nhhost)      A_V         MJD0   kenergy   mnickel               TSD   log(L0)  Peak_mag     Peak_MJD  log(E_rad)  log(Peak_lum)  Rise_Time     E_fold  tau_1  delta_m15     r_peak     frac 
  -21.62801  0.34891  1.29125     12.38611  1.71261  0.48836  27.25518  0.31271     0.02612  8260.98041   9257.95836  1.23224         3788.63541     16.68385    3e-05  56596.97199  11.09531   9.50964   447990921.78598  43.62921  21.51474      56794.2    51.05646       43.75558  128.78381  137.78929  130.0    0.01718  -20.54941  0.40527 
  -51.53535  0.10487  3.18133     13.20417  1.68452  1.27457  11.04437  0.32134     0.01364  3785.34426   9447.86497  3.40553         3330.94245     18.63239  0.00238  56567.06465   0.94401   1.15825    61825657.34692  43.69894  21.57072      56774.3    51.05872       43.73445  115.70462  153.13835  148.0    0.01812  -20.44871  0.91003 
  -46.89922  0.12154  2.73099     13.03598  1.69274  1.56472  11.73098   0.3022     0.01007  4054.39595   9920.70393  3.87595         3488.16677     18.27171  0.00104  56571.70078   1.15031   1.42581    99331565.71293  43.62771  21.53378  56788.70684    51.04557       43.73301  134.44557  148.35373  140.0    0.02224  -20.50107  0.90601 
  -32.36805  0.34613  3.14093     13.20454  1.74727  0.72549  16.64838  0.28654     0.01252  4911.06394   9957.39838    3.946         3436.01016     16.02852    1e-05  56586.23195   2.39525   5.76243    62404591.11545  43.72187  21.49014  56792.23372    51.04935       43.74601  129.80951  139.08162  134.0    0.02149  -20.51735  0.61205 
  -26.00707  0.49784  2.29156     12.61411   2.0207  1.20497  16.55287  0.31311     0.02148  5386.36581   9552.74365  1.09369         3929.38625     18.07306  0.00066  56592.59293   2.86479   8.24066   582584820.83736  43.08873  21.52462      56775.3    51.02344       43.72428  130.27003  150.21125  140.0    0.01713  -20.47316   0.4483 
  -28.28676   0.4921  3.21203      12.9332  1.61945  1.12294  14.90015  0.27832     0.02394  5185.10804   9752.74047   2.8056          3602.8682      18.3559  0.00126  56590.31324   2.38964   7.33238     211033398.919   43.1403  21.52569  56771.07245    51.03472       43.73025  125.17346  156.57413  138.0    0.01602  -20.51154  0.42902 
  -29.24285  0.38431  1.39677     12.19474  1.35625  1.33623  25.14543   0.3215     0.01496  6794.14408   9747.78095  4.34544         3423.02656     17.66951  0.00026  56589.35715   6.92398   9.66376  1002143264.44745  43.11001  21.50888      56774.3     51.0449        43.7379  134.24883  153.13835  130.0    0.01944  -20.58737  0.44967 
  -30.60613  0.28188   1.5391     12.37729  1.97807  0.92554  33.34016  0.24057     0.01165  6672.44574   9829.09216  1.29439         3935.95202      16.6093    2e-05  56587.99387   8.85452   9.39793   765632196.86696  43.30653  21.48017      56775.3    51.02418       43.72667  123.31594  147.89322  134.0    0.01953  -20.50087  0.47925 
  -36.62769  0.40621  3.54636     13.07855   1.8783  1.46509   14.3305  0.31313     0.01582  4548.88484   9991.80127  3.33274         3524.76142     17.02369    6e-05  56581.97231   1.76888   5.82125   152774206.48593    43.259  21.50386      56775.3    51.02951       43.72025  125.63397   154.8473  140.0    0.01914  -20.41475  0.56078 
  -29.43124   0.4236  2.81951     13.07808  2.08431   0.5822   20.3508  0.33105     0.01657  6128.98373   9867.22154  3.91647         3434.94702     17.63079  0.00024  56589.16876   4.56022    8.6206   107391853.68314  43.65649  21.51349  56785.17997    51.03444       43.72928  132.12754  152.98978  132.0    0.01774  -20.55631  0.46942 
  -33.43095  0.41412  2.77249     12.88539  1.22332  1.34932   16.6738  0.23585     0.01012  3887.19201   9659.77378  3.06494         3612.32929     17.04205    6e-05  56585.16905   1.50291   6.90489   148015467.17782  43.30034  21.47364  56778.12621    51.03993       43.73652  129.80951  148.35373  136.0    0.01911  -20.55258  0.50866 
  -30.54933   0.4811  3.11568     12.94143  2.17725  1.11467   17.0396  0.31555     0.01764  5316.58606   9676.19666  3.12571         3446.76583     18.47163  0.00165  56588.05067   2.87311   8.19781   257023763.63419  43.20968   21.5296  56785.17997    51.02003       43.70716  134.44557  155.30781  136.0    0.01846  -20.54339  0.46456 
  -28.57759  0.42399  2.24513     12.68034   1.9379  0.79284  19.28906  0.30427     0.02101  5513.08168   9843.57056  2.77372         3643.75709     18.26848  0.00103  56590.02241   3.49725   8.17842   395326345.21498  43.25674  21.54027  56785.17997    51.02786        43.7251  132.12754  150.67176  142.0    0.01682  -20.45007  0.41676 
  -36.67539  0.49478  3.78748     13.16683  1.70944  0.90422   16.0929  0.22106     0.01007    3378.951   9919.61866  2.49503         3656.25939     17.51488  0.00018  56581.92461   1.09604   7.96243   105612333.83668  43.32128  21.58185   56795.7606    51.02501       43.69465  141.39965  148.35373  140.0    0.01479  -20.47645  0.40788 
  -35.91346  0.28438  1.43985     12.28829  1.79798  1.33987  30.88062  0.33176     0.01273  7891.75334   9891.43518  4.51914         3334.12761     17.91852  0.00046  56582.68654  11.47256   8.78191   917598020.60947  43.24434    21.497  56778.12621    51.04254       43.72407  129.80951  148.35373  136.0    0.01793  -20.49198  0.55244 
  -49.65898  0.02879  2.98556     13.31797  1.51776  0.76133  13.71991  0.33264     0.02012  5169.29335   9969.71999  4.54371          3399.4483     16.36747    1e-05  56568.94102   2.18696   0.39505    29049599.91645  44.03686  21.54518  56781.65309    51.01999       43.70976  127.49149  149.62005  144.0    0.01769  -20.46945  0.96806 
  -25.03236   0.3647  2.11929     12.45558  1.86521  0.99391  23.50054  0.22119     0.02616  5931.66858   9982.25909  4.28782         3342.87292     17.02507    6e-05  56593.56764   4.93241   8.57057   954461900.75353  42.90743  21.57493      56775.3    51.02501       43.70381  125.63397  164.11941  140.0    0.01455   -20.4565  0.30875 
   -34.4456  0.48213  1.32595     12.09168  1.30127  0.93755  18.61257  0.32545      0.0274  5678.28923   9908.84328  4.51584         3301.53277     17.19552    9e-05   56584.1544   3.57988    8.9736  1392744356.13416  42.99429   21.4859  56788.70684     51.0851       43.76997  127.49149    144.984  140.0    0.01423  -20.44218  0.32955 
  -42.15799  0.12585  3.21188     13.21194  1.67319  1.44704  11.75945  0.26723      0.0113  3579.51138   9931.62804  2.51643         3702.17457     16.83308    4e-05  56576.44201    0.8988   1.47987    60396333.77422  43.69786  21.55405  56785.17997     51.0418       43.71309  127.49149  152.98978  142.0    0.02069  -20.53343  0.88831 
  -29.30489  0.35157  1.09382     12.18653   1.3226  0.59949  22.05214  0.32452     0.02542  7305.90772   9922.18028  3.04459         3445.79815     17.43415  0.00015  56589.29511   7.02144    7.7528    622418700.7827   43.5183  21.54364  56788.70684    51.03706       43.71487  127.49149  148.35373  136.0    0.01903  -20.44009  0.48091 
  -37.59992  0.09814  3.26896     13.24695  1.98776  1.23086  13.83662  0.30427     0.01538  5048.24677   9329.42461  1.43425         3677.26269     17.97514  0.00052  56581.00008   2.10348   1.35786    63255151.48206  43.73729  21.49055  56778.12621    51.02796       43.72048  122.85543  148.35373  140.0    0.02056  -20.55999  0.90887 
   -33.3106  0.38481  1.90857     12.17825  1.90754  1.04556   30.4395  0.18363     0.02131  4570.50497   9645.13332  1.19122         4033.08667     17.54448  0.00019   56585.2894   3.79309  11.71345  2839260691.00461   42.5347  21.57764  56771.07245    51.04665       43.72074  115.90135  157.62584  146.0    0.01367  -20.49498  0.13478 
  -34.91262  0.11083  2.46507     13.00806  2.05953  0.88584  23.13448  0.22879     0.01016  6392.80611   9911.75689   3.6565         3389.86401      18.1361  0.00076  56583.68738   5.63988   2.56404    111976710.0752  43.74983   21.5141  56781.65309    51.04677       43.73667  127.49149  141.39965  142.0    0.02219  -20.47657  0.85697 
  -32.48628  0.49205  2.81995     12.95922  1.46027  0.79259  18.00594  0.27406     0.01122  4206.66665   9759.90686  4.90989          3348.5845     18.58891  0.00216  56586.11372   1.90072   8.85984    130101545.6256  43.41851  21.48787  56792.23372    51.04033       43.73132  132.12754  142.66597  136.0    0.01816  -20.56389  0.41887 
  -26.00836  0.23188  3.88197     13.33947  1.63599  1.13771  14.05976  0.24972     0.02504  5085.50076   9561.88082  4.33072         3371.72508     19.13516  0.00758  56592.59164   2.16906   3.26015    47946889.42406  43.62376  21.57675  56785.17997    51.01321       43.69323  134.44557  150.67176  142.0    0.01571   -20.5369   0.7092 
  -43.36861  0.03153  2.62239       13.267   1.3477  0.62097  14.71405  0.20736     0.01146  4154.31814   9776.29356   2.0291         3766.73021      16.9535    5e-05  56575.23139   1.51481   0.46389    25165304.47633  44.16024  21.54331  56788.70684    51.02419       43.70597  129.80951  148.35373  144.0    0.02028  -20.51027  0.96396 
  -34.21429  0.12498  2.43413     13.04125  1.28758  0.94948  12.95759  0.30748     0.01362  4742.10471   9830.74624  2.54017          3628.1646     18.84801  0.00392  56584.38571   1.73818   1.61938    58584271.65765  43.83815  21.53789  56792.23372    51.02817       43.70388  136.76359  148.35373  136.0    0.02349  -20.53341  0.88709 
  -27.52794  0.49989  1.14501     12.19944  1.89899  0.47931  18.48438  0.24958     0.01945   4582.8234   9956.31875  2.23568         3598.77029     19.69334  0.02742  56591.07206   2.31579   9.24025   922745934.75014  43.46467  21.45023  56781.65309    51.04651       43.75293  122.85543  139.23556  140.0    0.01751  -20.45137  0.32399 
  -22.84876  0.38015  2.07157      12.9102  1.15271  0.49995  16.92035  0.28367      0.0158  5406.54826   9928.35523  4.76342         3300.23374     17.09159    7e-05  56595.75124   2.95037   6.43233    69459586.06689  43.85624   21.5281  56788.70684    51.03527       43.72698  139.08162  148.35373  134.0    0.02206   -20.4925  0.55592 
   -33.5104   0.3325  2.11465     12.79154  1.37527  1.00123  18.84983  0.33685     0.01022  5495.70805   9723.15994  3.07382         3500.18146      16.7824    3e-05   56585.0896   3.39611   6.26762   149145392.60968  43.58315  21.56913  56788.70684    51.02723       43.70062  132.12754  150.67176  136.0    0.02091  -20.52846  0.65657 
  -37.62297  0.26718  2.33978     12.85705  1.64939  1.26663  16.03259  0.28261     0.01223  5355.81186   9754.16875  4.10644         3311.32251     20.21235  0.09059  56580.97703   2.74335   4.28359   161951263.33314  43.53843  21.50752  56781.65309    51.02341       43.72173  132.12754  150.67176  138.0    0.02174  -20.60191  0.75844 
  -38.27184  0.14115  3.01667      13.1702  1.38117  1.16534  12.92235  0.28885     0.02543  5297.24747   9941.34218  3.08362         3537.35412     17.41644  0.00014  56580.32816   2.16306   1.82399    53299595.58684  43.72331  21.54033  56792.23372    51.05054       43.74124  143.71768  148.35373  142.0    0.01791   -20.5388  0.84861 
  -32.21149  0.32789  1.79364     12.74731  1.75022  0.57184  23.59841  0.28343     0.01119  6033.51636   9998.31463  2.77422          3622.6573     19.29297  0.01091  56586.38851   5.12449   7.73757   167404579.14515   43.7807  21.50951  56781.65309    51.06559       43.72522  127.49149  152.98978  136.0    0.01869  -20.52645  0.57952 
  -25.37284  0.33561  1.97991     12.33908  2.03489  1.54564  26.28364  0.15898     0.01292  4652.75095   9906.37105  2.67674         3536.11236     18.17523  0.00083  56593.22716   3.39416   8.82115   1554134370.6173   42.7926  21.52278  56785.17997    51.02754        43.7174  136.76359  150.67176  136.0    0.01779  -20.47121  0.32445 
  -27.88806    0.392  2.33013     12.93476   1.9595  0.64187  18.33074  0.30194     0.01365  5791.50962   9872.61666  2.32481         3618.38999     16.59292    2e-05  56590.71194   3.66767   7.18567   133411480.92559  43.70104  21.49496  56788.70684    51.05173       43.73906  127.49149  143.66951  132.0    0.02417  -20.53489  0.58325 
  -44.78439  0.44588  1.81703      12.4725  1.88729  1.26027  21.28271  0.30491     0.01102  5096.43213   9792.83533  1.61923          3820.6436     20.05993  0.06378  56573.81561   3.29751   9.48963   656703909.43599  43.20859  21.49631  56788.70684    51.05586       43.74229  129.80951  143.66951  138.0    0.02071  -20.52171  0.49324 
  -24.56267  0.42424  1.94672     12.58261  1.72762   0.7527  20.48895  0.25701     0.01258   4780.3013   9742.95191  2.64086         3623.56733     18.38622  0.00135  56594.03733   2.79291   8.69227   415569022.12826  43.30904  21.45615  56781.65309    51.06233       43.77128  122.85543  139.08162  136.0    0.01725  -20.48183  0.41351 
  -27.98409  0.49457  2.65828     12.79448  1.54354  1.36318  15.88022  0.32655     0.01693  5197.27757   9997.72968  1.62398         3908.13131     18.97717  0.00527  56590.61591    2.5588   7.85389   260957543.24888  43.19159  21.45461      56774.3    51.04482       43.76284  113.38659  136.96033  132.0    0.02035  -20.50265  0.48393 
  -32.96128  0.31267  1.55001     12.37663  1.65743   1.0212  29.77012   0.3224     0.01258  7152.99417   9996.61274  4.38358         3396.32916      16.5619    2e-05  56585.63872   9.08623   9.30809   652628879.97858  43.29294  21.49748  56788.70684     51.0467       43.72799  134.44557  150.67176  134.0    0.02201  -20.50036  0.49643 
  -35.06858  0.11649  3.02066     13.10914  1.74461   1.4804  21.52394   0.1935      0.0105  5319.08991   9646.48649  1.82841         3883.41866     17.63397  0.00024  56583.53142   3.63265   2.50726     89421711.2176   43.5989  21.56787  56788.70684    51.05013       43.71964  139.08162  155.30781  136.0    0.02204    -20.572  0.82925 
  -33.26009  0.20615  3.59258      13.4302   1.6523  0.57676  20.20034  0.17002     0.01117  4342.71471    9944.2628  3.45496         3552.32817     18.46606  0.00162  56585.33991   2.27252   4.16428    27309974.33421   43.9398  21.51918  56785.17997    51.04011       43.73067  132.12754  148.35373  142.0    0.01921  -20.47658  0.65662 
  -30.86791  0.46015  3.30403     13.02184  2.08976  1.07625  14.84196   0.2782     0.01443  4409.91814   9967.14054  4.61084         3294.17329     18.30495  0.00112  56587.73209   1.72179   6.82954   191564073.49417  43.26854  21.50166  56792.23372    51.02829       43.72197  134.44557  142.66597  138.0    0.01979  -20.46619  0.51452 
  -29.62068  0.21717  3.35988     13.22559  1.71097  1.11697    9.8226  0.32393     0.02456  4780.32944   9932.59132   2.3381         3681.81681     18.15514  0.00079  56588.97932   1.33897   2.13315    63463544.14405  43.64692  21.49413  56781.65309    51.03744       43.73056  127.49149  143.71768  144.0    0.01989   -20.4821  0.82625 
  -36.16602  0.44885  2.09763     12.48874  2.03249  1.29464  23.09095  0.31154     0.01429  5420.96042   9473.23135  1.80043         3695.02286     16.23896    1e-05  56582.43398   4.04782  10.36428   874631166.89849  42.99159  21.55012  56778.12621    51.05133       43.73857  129.80951  152.98978  136.0    0.01677  -20.51078  0.36436 
  -32.95445  0.23937  2.38235     12.82784  1.75865  1.15651  25.17424  0.24289     0.01028  5871.44572   9947.51252  3.64316         3450.39602     19.81597  0.03637  56585.64555   5.17695   6.02605    204801754.0291  43.44868  21.48578  56785.17997     51.0291       43.72514  127.49149  143.71768  140.0    0.02025  -20.53209  0.65584 
  -34.03272  0.28701  2.12501      12.8079  1.39974   0.8211  18.82967  0.30117     0.01619  6104.00986   9877.81196  3.11056         3498.52814     19.06593  0.00647  56584.56728   4.18505   5.40422   142161914.12558  43.60739  21.59862  56778.12621    51.04746       43.71151  129.80951  159.94387  140.0    0.02178    -20.486  0.65946 
  -33.60749  0.32279  1.66152       12.571  1.71407  0.43401  28.43683  0.25124     0.02427  6795.46829   9997.77447  4.86195         3325.61984     17.34905  0.00012  56584.99251   7.83334   9.17907   316844616.12197  43.56102   21.5501  56788.70684    51.02075       43.70446  127.49149  148.35373  136.0    0.01606  -20.47684  0.32475 
   -27.0747  0.42216  1.92636     12.63801  1.53142  0.85027  22.09472  0.32999      0.0138  6123.04277   9680.54833  1.09934         3977.99651     17.78975  0.00034   56591.5253    4.9414    9.3275   279487271.36798   43.4381  21.48991  56781.65309    51.04039       43.73269  125.17346  143.71768  132.0    0.01981  -20.53256  0.49018 
   -33.2145  0.41269  6.25571     13.74904  2.06478  0.73131  16.12347  0.18088     0.01858  3288.83122   9781.63883  1.68918         3651.31491     18.80477  0.00354   56585.3855   1.04032   6.65398    23831908.91473  43.61401  21.48163  56781.65309    51.01648       43.72433  129.80951  143.71768  152.0    0.01533  -20.39733  0.39248 
  -33.70542  0.27042  2.87082     12.97303  1.82024  1.46915  17.64825  0.25193     0.01089  5092.25735   9726.09069  2.25388         3645.72233     17.32914  0.00012  56584.89458   2.72992   4.77251   157722677.81593  43.41507  21.53169      56775.3    51.05704       43.75329  125.63397  150.21125  134.0    0.02152  -20.49981  0.69208 
  -29.54274  0.16553  2.08868     12.92383  1.35517  0.72271  10.10135  0.30793     0.02218    5714.575   9739.15588  2.32937         3556.73899     17.26875   0.0001  56589.05726   1.96777   1.67205    77962035.75263  43.86921  21.54931  56785.17997    51.04473       43.73596  129.80951  148.35373  140.0    0.02549  -20.49424  0.88819 
  -28.84772  0.37547  2.13919     12.68273   1.5296  1.19864  18.49572  0.31082     0.01247  5374.52651   9964.06024   2.7649         3651.20588     16.65457    3e-05  56589.75228   3.18698   6.94458   280177351.62958  43.34549  21.42996  56778.12621    51.03933       43.75424  122.85543  143.71768  138.0    0.01998  -20.51912  0.59037 
  -27.91786   0.4702  1.90638     12.40815  1.28469  1.48221  19.17004  0.22904     0.01106  4310.30808   9961.43777  2.66254          3588.0089     19.40787  0.01421  56590.68214   2.12455    9.0137    661809698.8602  42.99649  21.48437  56788.70684    51.03994       43.74019  129.80951  141.39965  132.0    0.01932  -20.52725  0.39712 
  -36.00505  0.32637  1.44721     12.30723  1.27252  1.08437  23.03767  0.31984     0.01474  6534.29106   9955.25091  4.93377         3327.05406     17.23286    9e-05  56582.59495   5.86763   7.51876   601278009.96348  43.27337  21.50838  56778.12621    51.03684       43.73348  127.49149  151.93808  136.0    0.01787  -20.45828  0.54634 
  -35.48546  0.10571  2.51737     13.14701  1.24896  0.70306  16.53755  0.23827     0.01274  4969.71422   9860.86485  3.90879         3436.00796     16.69496    3e-05  56583.11454   2.43647   1.74819     37346020.2641  43.99126   21.4848  56785.17997      51.031       43.71807  129.80951  143.71768  136.0    0.02299  -20.50099  0.86699 
  -36.15475  0.31298   3.4783     13.20078  1.75603  1.06334  15.62417  0.24934     0.01008  3920.00954   9819.48564  4.38138         3458.60614     19.51062    0.018  56582.44525   1.43218   4.88998    78257041.96485  43.53712  21.49636  56785.17997    51.02718       43.73852  127.49149  141.39965  140.0    0.01612   -20.5061  0.64167 
  -31.74865  0.36343  2.32644     12.85227  1.97385  0.80423  20.54679  0.33524      0.0119  5986.98213   9810.58305  3.97729         3432.31238     16.33104    1e-05  56586.85135   4.39326   7.46726   195872824.10327   43.5388  21.50346  56785.17997    51.04749       43.74391  129.80951  141.39965  134.0    0.01941  -20.49394    0.574 
