 log(Bfield)      Mns    Pspin  cutoff_power  cutoff_wavelength  fnickel    kappa  kappagamma  mejecta  log(nhhost)  temperature  texplosion  thetaPB      vejecta      A_V        MJD_0   log(KE)     M_Ni  Peak_mag     Peak_MJD 
    14.59709  1.45328   7.1352       0.08128         3782.34594  0.05112  0.11454      0.4933  1.72684     17.33429    5114.2277    -2.20428  0.83132  10344.43743  0.00012  58335.16572    52.421  2.11119  17.96447     58357.24 
    14.51505   1.4906  6.75499       0.05202         3020.50184  0.03838  0.06728     0.30306  2.79936     17.69234   4158.61218    -2.06631  1.30456   9862.46826  0.00027  58335.30369  52.44743  1.85329  17.91471  58355.41016 
     14.4953  1.43743  7.41176       0.29592         3446.53009  0.01655  0.17258     0.47547  1.02225     17.71594   4384.28936    -2.26022  1.05243   9645.05194  0.00029  58335.10978   52.2721  0.55791  17.97474  58356.25263 
    14.65466   1.8013  8.94707       1.18569         2650.85433  0.03293  0.09294     0.34571  2.00468     18.56089   4603.91818    -2.26469  1.05972   9375.23463  0.00202  58335.10531  52.35766  1.43094  17.99775  58355.41016 
    14.79921  2.18884  9.94443       0.27714         2702.44181  0.00458  0.09475     0.34056  1.79238     17.47558   5948.09461    -2.15894  0.95445   9984.49537  0.00017  58335.21106  52.39586  0.19158  17.92945  58356.25263 
    14.66762  1.83463  8.26535       0.01099         2722.09825  0.00262  0.10155     0.48653  1.70183     16.69899   3542.33771    -1.96495   1.0356  10257.45682    3e-05  58335.40505  52.41144  0.10773  17.99468  58356.25263 
    14.53241  1.66397  8.18564       0.00751         3325.87371  0.00775  0.11462     0.33404  1.63087     16.83555   5023.05053    -2.53612  1.35739  10282.28842    4e-05  58334.83388  52.40698  0.31386   17.9533  58356.25263 
    14.57913  1.76897  8.27658       0.18516         2674.23011   0.0044  0.15059     0.42684  1.10467     17.23846   4364.65533    -2.19342  1.40731  10175.20573   0.0001  58335.17658  52.33279  0.15331  17.97182  58356.25263 
    14.55869  1.48658  7.52699       1.18429         2036.28387  0.02546   0.1148     0.41151  1.50834     17.96805   3928.01121    -1.95559  0.92631  10222.32749  0.00052  58335.41441  52.38961  1.00187  17.97821  58356.25263 
    14.48398  1.53849  7.40701       0.06771          3451.4297  0.00316  0.06286     0.41926   2.6542     16.90119   4906.76768    -1.93552  1.47035  10246.41533    4e-05  58335.43448  52.47362  0.15004   17.9723  58356.25263 
    14.68719  1.74128  7.94964       0.13029         4053.39441  0.00912  0.08174     0.47449  2.07376     19.28962   4625.70642    -2.31949  0.86308   9535.09583  0.01082  58335.05051  52.37722  0.40081  17.98229  58356.25263 
    14.59216  1.60743  7.86122       0.06601         2375.46834  0.00105  0.11908     0.33534  1.63175     16.15237   3751.78193    -2.19928   0.9463  10675.03254    1e-05  58335.17072  52.43962  0.04234  17.99604  58356.25263 
    14.63456  1.61646  7.23284       0.04394         2880.66844  0.00348  0.09227     0.34118  1.74544     17.81504   4462.14419    -2.10567  0.87856   9747.76126  0.00036  58335.26433  52.37102  0.14414  17.95027  58356.25263 
    14.58035  1.76164  8.10829       0.36572         2863.30747  0.00332  0.11819     0.49142  1.41651     16.02516   3800.94694    -2.09804  1.41202   9551.84115    1e-05  58335.27196  52.32054   0.1277  17.97609  58356.25263 
    14.49135  1.43145     7.33       0.60694         2247.16789  0.01778  0.08148     0.28881  2.25327     16.04297    4480.3942    -1.97559  1.09288  10486.53394    1e-05  58335.39441  52.47154  0.80292  17.99406  58356.25263 
    14.61998  1.73436   8.5315        0.6093          3181.1008  0.01424  0.09377     0.34705  1.91578     19.09638   4441.30691    -2.08319  1.05313  10040.46743  0.00694  58335.28681   52.4106  0.60963  17.99826  58355.41016 
    14.56603  1.55587   7.8017       1.56892         2098.04929  0.00525  0.06063     0.45474  3.00056     16.01035   3315.07569    -2.11741  0.98662   10428.2576    1e-05  58335.25259  52.50482   0.2586  17.95917  58356.25263 
    14.62533  1.70804  8.40678       0.11767         3478.95047  0.00595   0.0931     0.49333   1.9602     16.10959   3513.08694    -2.23813  0.97648   10424.1895    1e-05  58335.13187  52.44653  0.25653  18.01785     58357.24 
    14.60663  1.68048  8.30791       0.74825         2036.68974  0.00184  0.09624     0.38459  1.96521     16.16492   4047.51771    -2.26346  0.97353  10320.42207    1e-05  58335.10654  52.43821  0.07943  17.98801  58356.25263 
    14.63817  1.63539  7.85261       0.07275         2422.68549  0.01496  0.09183      0.4852  1.94913     16.26545   3821.87476    -2.34518   0.8808   10136.7721    1e-05  58335.02482  52.42142  0.64413  18.02677     58357.24 
    14.35743  1.20502  6.09287       0.13711         2554.02457   0.0068  0.06606     0.39912   2.6691     17.03732   4535.93307    -2.22308  1.18939  10457.09101    6e-05  58335.14692  52.49204   0.3237  17.99517  58356.25263 
    14.46272  1.42602  7.00516       0.05869          2468.0047  0.02628  0.05901     0.17483  3.04532     17.21465   4105.17669    -2.10873  1.27109  10485.06905    9e-05  58335.26127  52.51142  1.30123  17.98752  58356.25263 
    14.59196  1.82859  8.57022       0.09764         3734.00585  0.00339   0.0866      0.2849  1.95683     17.66869   3763.02739    -2.17489  1.41569  10493.52325  0.00026  58335.19511  52.45204  0.14596  17.99117  58356.25263 
    14.52734   1.5172  7.70938       0.46663         3174.88866  0.04543  0.14435     0.43312  1.15291     16.88982   4288.79021    -2.10175  1.14589    9970.0667    4e-05  58335.26825  52.32274  1.61101  17.99802     58357.24 
    14.76697  2.13155  9.46026       0.83817         2072.39785  0.05754  0.17831     0.47354  1.07461     16.21363   4313.36003     -2.2003  1.03019  10106.84207    1e-05   58335.1697  52.32193  1.98183   17.9899  58356.25263 
     14.6649  1.99271  9.41673       0.95963         2382.73435  0.00745  0.05989     0.42043  2.98839     17.87793   3008.45506     -2.0372  1.29832    10112.574  0.00042   58335.3328   52.4776  0.36682  17.97555  58356.25263 
    14.64494  1.70939  8.54012       0.36612         3858.27848  0.01074  0.13115     0.36923  1.26252     17.31176   5238.05261    -2.30255  0.92391   9623.68497  0.00011  58335.06745  52.30782  0.39502  17.97011  58355.41016 
    14.49849  1.47857  7.31566       0.18542         2670.34084  0.01206  0.12135      0.4905  1.48837     18.72382   3757.38377    -2.39843  1.08884  10281.00484  0.00294  58334.97157  52.39244  0.47203  17.96976     58357.24 
    14.54429  1.56979  8.17328       0.58247         3296.11708  0.08438  0.14631       0.467  1.34903     18.28232   4497.72966    -1.97568  1.24143  10221.02888  0.00106  58335.39432   52.3713   3.1837  18.01402     58357.24 
    14.65906  1.82938  8.28957        0.1976         3390.58757  0.04063  0.10489     0.44372  1.59525     16.82239   4671.75129    -2.05215  1.14953   9486.20996    4e-05  58335.31785  52.33354  1.63164  17.98383  58356.25263 
    14.54367  1.62907  7.76126        0.1749         3614.07914  0.01038  0.09975     0.35197  1.83507     18.17464   4554.07246    -2.14336  1.24865  10386.07012  0.00083  58335.22664  52.43363  0.43791  17.99642  58356.25263 
    14.77653  2.18042  9.97904       0.25942          2391.5594  0.00163  0.13217     0.44205  1.38472     16.89339   4253.85638    -2.21912   0.9926  10293.12129    4e-05  58335.15088  52.38173  0.06225  17.98218  58356.25263 
    14.48905  1.53035  7.70709       0.97005         2147.37134  0.02586  0.06933      0.2115  2.87055     16.41041   4739.99942    -2.48181  1.43065   10199.8377    1e-05  58334.88819   52.4799  1.25815  17.99824  58356.25263 
    14.57336  1.63369   8.3598       0.30293         3786.85915  0.01307  0.09858     0.42309  1.75171      18.3638   5496.04746    -2.19961  1.06888   9896.66528  0.00128  58335.17039  52.38473  0.54234  17.97198  58355.41016 
    14.47335  1.32959  6.77449       0.09561         2116.97916  0.03303  0.15408     0.48122  1.20353     16.06882   3177.41475    -2.20182  0.96256  10862.40402    1e-05  58335.16818  52.40474  1.19172  17.94022  58355.41016 
    14.59145  1.75893  8.25815       0.18979         3478.97362  0.03017   0.1456     0.45997  1.15115     16.68794   3875.33315    -1.92584  1.31946   9890.82329    3e-05  58335.44416  52.31553  1.06899  17.98083  58356.25263 
    14.45581  1.50478  8.01048       1.66592         2163.55328  0.00401  0.13811     0.47588  1.44937     18.50206   4509.40741    -2.36536  1.34989  10734.37085  0.00177  58335.00464  52.42565  0.15535  17.95871  58356.25263 
    14.47457  1.36399  7.10689       0.07664         2340.49973  0.00306  0.11772     0.46579  1.46954     16.59123   3954.00448    -2.51913  0.96605  10500.39093    2e-05  58334.85087  52.40874  0.11933  17.99029  58356.25263 
    14.69867  1.87436  8.66835       0.08568          2076.7136  0.03317   0.0837      0.3585  2.48108     19.78417   3484.51992    -2.26778  0.97662  10805.81681   0.0338  58335.10222  52.51078  1.54396  17.98278  58356.25263 
    14.58831  1.48696  7.13079       0.21482         2215.62025  0.04617  0.10885     0.46542  1.61488     18.60876   5714.97658    -2.27969  0.88506  10354.72321  0.00226  58335.09031  52.41154  1.86199  17.92325  58355.41016 
    14.55105  1.51709  7.58833       0.68304         2425.73414  0.00786  0.11004     0.45689  1.68099     17.00156   3984.59516    -2.06382  0.99904  10173.55347    6e-05  58335.30618  52.40242  0.32173  17.97598  58356.25263 
    14.70646  1.93748  9.34308       2.94097         2001.47466  0.03988  0.10281     0.38852  1.75064       18.531   4754.28183     -1.8669  1.05158   9954.09869  0.00189   58335.5031  52.38966  1.65515  17.94946  58356.25263 
    14.65244  1.55961  7.91466       0.61002         3525.77865  0.01454   0.1365     0.48408  1.17324     18.33519   3875.84732    -1.99528  0.75826    9686.1086   0.0012  58335.37472  52.30072  0.51926  17.98728  58356.25263 
    14.81649  1.79206  7.70317       0.75826         2799.54534   0.0934  0.09907      0.2716  2.04244     18.04336   4353.29983     -1.8131  0.76178   8893.33107  0.00061   58335.5569  52.31452  4.08437  17.94676  58355.41016 
    14.65581  1.84661  8.91488       0.87391         2854.40809  0.00425  0.15686     0.48612  1.11251     17.88865   4052.31798     -1.7667  1.08893   9954.87066  0.00043   58335.6033  52.31505  0.14839  18.01053  58356.25263 
    14.75522  2.10344  9.26702       0.13231          3016.4312  0.00421   0.0988     0.39349   1.7967     17.96611   3924.45677    -1.97441  1.00849  10341.28811  0.00051  58335.39559  52.42672  0.17612  17.97612  58355.41016 
    14.65935  1.69612  8.26806       0.35174         3400.44453   0.0523  0.09052     0.30377  2.09818     16.12507   4527.53414    -2.42208  0.93451   9978.84231    1e-05  58334.94792   52.4184  2.30738   17.9674  58356.25263 
     14.7205  2.06819  8.38779        0.1719         2391.22933  0.05589  0.11015     0.37959  1.62292     16.60727   4630.37212    -2.21697  1.37605   9471.07327    2e-05  58335.15303  52.33484  2.25811   17.9727  58356.25263 
    14.60449  1.59543   7.6221       0.52353         2250.92219  0.01073  0.15032     0.48681  1.17549     17.00953   5142.70215    -2.02131  0.90964  10702.60187    6e-05  58335.34869  52.38774  0.38341   17.9586  58356.25263 
    14.55409  1.73402  8.77411       1.53427         2076.54295  0.00231  0.09223     0.44091  2.19332     17.56171   4151.92806    -2.45776   1.3349  11093.27636   0.0002  58334.91224  52.51662  0.10343  17.97103  58356.25263 
    14.67778  1.88087  8.77555        0.7728         2230.66889  0.00219  0.16013     0.46813  0.98416     17.33125   3817.13166    -1.72029  1.03843  10282.54604  0.00012  58335.64971  52.32056  0.07268  18.02018     58357.24 
    14.67674  1.40747  5.75408       0.35582         3924.28397  0.07247  0.05087     0.13612  5.05453     16.84993   4483.79196     -2.4325  0.92932   8473.47392    4e-05   58334.9375  52.38635  4.11855  17.96743  58356.25263 
    14.62929  1.91205  8.98395       0.59808         3245.59081  0.00891  0.11533     0.40564  1.42613      16.9918   5422.16585    -1.96866  1.44355   9399.03886    5e-05  58335.40134  52.30763  0.34317  17.99666  58356.25263 
     14.6164    1.716  8.09588       0.33562         3472.83464  0.05224  0.09578     0.33035   2.0001     17.58886   3447.43193    -2.33345  1.18923   9712.71837  0.00022  58335.03655  52.38805  2.26864  17.95721  58356.25263 
    14.46164  1.51789  7.83164       0.33616         2506.12596  0.00273  0.10045      0.4809  2.00836     16.07016   5286.19963     -2.5248  1.43738  10620.24413    1e-05   58334.8452  52.46623  0.11851  17.96088  58356.25263 
    14.64627  2.01965  9.90983       2.30092         2100.15364  0.00263   0.0652     0.25226  2.99561     18.12155   4735.30135    -2.22711  1.43194  10496.16943  0.00073  58335.14289  52.51024  0.12943  17.97189  58355.41016 
    14.42866  1.32702  6.46189       0.03357         3282.50393   0.0056  0.07445     0.34667  2.42856     18.60824   3475.11233    -2.23495  1.13227  10249.59041  0.00225  58335.13505  52.46198  0.25884  17.96223  58356.25263 
    14.61329   1.6531  7.51192       0.57695          3115.3095  0.08496  0.11718     0.37464  1.62026     18.93249   5163.42422       -2.07  1.15744   9030.59196  0.00476      58335.3  52.29322  3.43055  17.99542  58356.25263 
    14.50364   1.4842  7.34319       0.28643         3976.05922  0.00203  0.10557     0.36345  1.56198     18.86431   4204.28516    -1.90436  1.13969   9983.30589  0.00406  58335.46564   52.3746  0.08083  18.02488     58357.24 
    14.60885  1.66373  7.86609       0.36304         2846.85495  0.00227  0.08585     0.39244  1.94634     18.59352   3719.31197    -2.13826  1.00631    9832.4448  0.00218  58335.23174  52.39473   0.0975  17.96593  58356.25263 
    14.58261  1.76488   8.8163       0.67023         3148.81228  0.01108   0.0822     0.43791  2.02327     18.02586   5094.36512     -1.9944  1.37375   9633.11313  0.00059   58335.3756  52.38256  0.48301  17.97196  58356.25263 
    14.56037   1.6986   7.8017       0.33949         2314.26483  0.00538  0.10905     0.44013  1.52005     16.40806   4106.18326    -1.96676  1.40041  10058.99063    1e-05  58335.40324  52.37685  0.21215  17.99057  58356.25263 
    14.59209  1.73975  8.00615       0.09945         3436.63034  0.00114  0.07419     0.44349   2.2143     18.04469   3241.76267    -2.07641  1.24475   9929.37352  0.00062  58335.29359  52.42168  0.05113  17.94253  58356.25263 
    14.41005  1.23549  6.48779       0.04481         2862.27048  0.00876  0.09356     0.40894  1.88897     16.07927   4174.67196    -2.61852  0.97515  10268.46782    1e-05  58334.75148  52.42803  0.37311  17.99543  58355.41016 
    14.61346  1.65197   8.2683       0.61976         2540.90559  0.00199  0.12501     0.41438   1.5458     17.44892   4519.31221    -2.33078  0.93023  10430.27729  0.00016  58335.03922    52.411  0.07902  17.97584     58357.24 
    14.60311  1.79705  8.68795       0.51919         3446.05484  0.01395   0.0922     0.46841  1.76747     17.55655   6673.61637    -1.96317   1.3384   9304.95748   0.0002  58335.40683  52.33253  0.58067  17.97134  58356.25263 
     14.4655  1.43141  6.84926       0.03911         3252.55268  0.00641  0.06578     0.41297  2.68257     17.51408   5711.97194    -2.47706  1.19135  10102.78806  0.00018  58334.89294  52.46276  0.30547  18.01307  58356.25263 
    14.68874  2.10224  9.29633       0.45569         2420.31948   0.0029  0.09133      0.4451  1.82857     17.09347   6787.11101    -2.12053   1.4493   9770.69211    7e-05  58335.24947  52.38005  0.12216  17.96246  58356.25263 
    14.80467  1.84041  7.90189        0.2605         4414.80438  0.05055  0.04826     0.21497  3.99796     16.53223   4771.75803    -2.44809  0.83004   8406.44428    2e-05  58334.92191  52.35273  2.70155  17.94259  58355.41016 
    14.48613  1.52765  7.04543       0.18933         3802.18935  0.01253  0.10368     0.41771  1.70147     18.00243   5960.86807    -1.78893  1.49531  10485.57027  0.00056  58335.58107  52.43051  0.51493  17.99952  58356.25263 
     14.6633  1.92883  8.58621       0.62286         3013.52942  0.04087  0.07328      0.2636  2.39508     19.30555   5038.41959    -1.88132  1.43869   8985.56932  0.01123  58335.48868  52.34577  1.88121  17.97909  58356.25263 
    14.80264  1.95675  9.29125       0.23572         3123.98957  0.01044  0.07989     0.38146  2.27114     16.40406   3894.70454    -2.17068  0.74779  10535.69231    1e-05  58335.19932   52.4767  0.47235  17.97377  58356.25263 
    14.69514  1.84931  8.28769       0.04209         2079.34622  0.01335  0.09985     0.44269  1.65606     17.00982   3918.92901    -2.00824  0.96316  10339.66656    6e-05  58335.36176  52.41418  0.54322  17.96872  58355.41016 
    14.60707  1.49646  7.45224       0.33031          3822.8382  0.03561  0.11317     0.40403  1.49025     17.97196   5275.26462    -2.25686   0.8299   9263.38098  0.00052  58335.11314  52.30212  1.39472   17.9705  58356.25263 
     14.6715  1.83493  8.97757       0.38619          3486.0522  0.00837  0.10385     0.47048  1.58968     17.40244   4578.41594    -1.98214   0.9965   9587.52571  0.00014  58335.38786  52.34222  0.33551  17.99345  58356.25263 
    14.61844  1.90969  9.12833       0.12273         3150.42111  0.00285  0.08192     0.35147  2.21106     16.68092   3620.93778    -2.35314  1.39061  10569.70376    3e-05  58335.01686  52.47576  0.12781   17.9866  58356.25263 
    14.73918  1.86619  9.08257       0.27823         3458.13949  0.00522  0.10497     0.43382  1.77044     16.07373    3767.3342    -2.17201   0.8092  10317.46512    1e-05  58335.19799   52.4225  0.21742  17.94559  58356.25263 
    14.70027  1.51085  6.63926       0.25407         4186.78715  0.05931  0.04883     0.18686  4.43922     16.64205   4664.60685    -2.49844   0.8417   8710.26777    2e-05  58334.87156   52.3957  3.25949  17.96118  58356.25263 
    14.65932  1.80365  8.68684        0.5836         2076.15458  0.00121  0.10597     0.38702  1.66079     17.44922    3217.3142    -2.38324  0.96121  10115.12223  0.00016  58334.98676  52.39555   0.0492  17.94738  58356.25263 
    14.65743  1.95721   9.6189       1.22043         2208.42744  0.02329  0.06838     0.27596  2.88717     16.44895   5069.76378    -2.37629  1.26922  10274.41233    2e-05  58334.99371  52.48697  1.13491  17.96485  58355.41016 
    14.51243  1.36365  7.17614       0.27384         4076.61493  0.00105  0.12059      0.3979  1.29666     19.18892   5106.62095    -2.07746  0.87083   9669.26786  0.00858  58335.29254  52.31646  0.03889  17.95529  58356.25263 
    14.57468  1.69913  8.22281       0.00904         2713.75594  0.00607  0.13282     0.43927  1.40436     16.81297    6527.6617     -2.6753   1.1321  10224.84647    4e-05   58334.6947  52.37826  0.23251  17.96274  58356.25263 
    14.62882  1.75729  8.25201       0.09733         3196.63458  0.00458  0.16024     0.46256  1.06348     18.12662    5045.9487    -1.96962  1.05038  10036.58166  0.00074  58335.40038  52.31397  0.15705  17.97402  58355.41016 
    14.53275   1.3653  6.66488       0.08878         2543.67787  0.00283  0.08812     0.49195  1.92315     18.43279   3271.14036    -2.37459  0.82716  10062.46736   0.0015  58334.99541  52.41306  0.12128  17.96762  58356.25263 
    14.60322  1.65094  8.55808       0.55245         3340.01225  0.00679  0.18193     0.44772  0.90041     16.51795   4876.53007    -2.08768  0.96243   9909.39456    2e-05  58335.28232  52.27128   0.2164  17.95543  58356.25263 
     14.6971  1.68077  7.69706       0.01079         2882.64624  0.02554  0.09942     0.40782  1.85639     17.98201   4041.83541    -2.13133  0.79586  10193.59492  0.00053  58335.23867   52.4191  1.08135  17.99813  58356.25263 
