 log(Bfield)      Mns    Pspin  cutoff_power  cutoff_wavelength  fnickel    kappa  kappagamma   mejecta  log(nhhost)  temperature  texplosion  thetaPB     vejecta      A_V        MJD_0   log(KE)     M_Ni  Peak_mag     Peak_MJD 
    14.23936   1.3982  0.85427        4.7191         4058.16618  0.02975  0.02891     0.12396  20.97765     19.79147   4211.92128    -0.82504  1.46427  2351.62774  0.03437  59108.73979  51.40719  2.30321  18.34459  59139.46954 
    14.49158  1.69722  0.79368       3.42486         4286.53884  0.00607  0.01856      0.0788  27.95298     19.53882   3866.06507    -0.77126  0.79834  2026.36265  0.01921  59108.79357  51.30057  0.49504  18.39452  59139.46954 
    14.34653  1.66119  1.26656       4.77879         3632.36624  0.02952  0.04241     0.08435  20.94593     18.60696   5762.13625    -4.56612  1.09909  3545.53996  0.00225  59104.99871  51.76369  2.28456  18.30544  59141.58554 
    14.49667  1.86963  1.20639       4.27303         4157.92196  0.00107  0.01679      0.0225  30.11701     19.10134     5810.407    -2.27968  0.89831  1989.53677  0.00702  59107.28514  51.29034  0.08852  18.33194  59139.46271 
    14.47174  1.73985   1.2672       3.87566         4113.18155  0.04801  0.03843     0.01387  15.24489     18.15191   6307.96935     -1.7073   0.8598  2585.03398  0.00079  59107.85753  51.46268  3.49528   18.3049  59141.58554 
    14.45105  2.03193  1.20109       2.72961         4051.38357  0.02825  0.02147     0.01365   24.5518     20.39289    3950.1873    -3.43914  1.02293  2611.78975  0.13728  59106.12569  51.51091  2.25149  18.31337  59139.46954 
    14.33611  1.57902  1.78267       4.96759         4003.65447  0.00194  0.03138     0.01328  22.53112     16.33617   5347.18026    -7.49568  0.81496  2653.16198    1e-05  59102.06915  51.51773  0.15192  18.30826  59139.46954 
    14.62693  2.02569  0.96161       3.48318         4236.81783  0.02921  0.01506     0.01691  28.79737     18.12349   7123.19518    -0.97747  0.82188  1945.20318  0.00074  59108.58736  51.26735  2.39529  18.29299  59141.58554 
    14.25555  1.38419   1.1337       4.56564         4007.94631  0.00598  0.03057     0.01682  22.91026     18.64278   4086.40977    -5.13045  0.94917  2529.58043  0.00244  59104.43438  51.47764  0.47095  18.32221  59139.46271 
    14.59041  2.00432  1.06975       3.60881         4173.47962   0.0011  0.02364     0.43117  23.45732     18.85076   3227.13826    -2.38671  0.78348  2105.79871  0.00394  59107.17812  51.32025  0.08704   18.4743  59150.32589 
    14.29908  1.55714  1.18631        4.9932         3985.56745  0.04208   0.0278     0.02466  20.26608     18.77632   5478.52599    -1.68005  1.44617  2439.04678  0.00332  59107.88477  51.43608  3.23629  18.31893  59139.46954 
    14.40963  1.76679  1.12858       3.70905         4183.35522  0.01382  0.02669     0.07065  20.64585     19.22591   5119.12141    -2.14414   1.0575  2213.98636  0.00935  59107.42069   51.3535    1.067  18.35545  59139.46954 
    14.55266  2.05584  1.38468       4.20329         4007.94498  0.04677    0.031     0.13205  17.58114     17.19941    6332.0634    -1.19143  0.97313  2412.42628    9e-05  59108.37339  51.41479  3.50104  18.35848  59139.46954 
    14.38942  1.80401  1.72858       3.96255         4002.58374  0.01044  0.02147     0.37099  24.55347     17.50952   8736.47315    -7.97572  0.90898  2164.61912  0.00018  59101.58911   51.3478  0.83172   18.3677  59139.46954 
    14.61602  1.85659  0.84443       4.92099         3992.18264  0.04516  0.03141     0.21519  20.64091      16.9857   5530.68445    -0.81469  0.78138  2502.04331    5e-05  59108.75013  51.45972  3.48557  18.37652  59139.46954 
    14.56234  1.89449  0.79125       4.72205         3929.70905  0.06338  0.04109     0.07786  16.59786     18.29804   7171.38197     -1.4837  0.98679   2673.8946   0.0011  59108.08113  51.49931  4.69156  18.34264  59139.46954 
    14.49406  1.92545  1.44802       4.98757         4053.48414  0.01064  0.01764     0.02317  33.06929     19.11643   9466.31916    -2.02343  0.96868  2324.58446  0.00726  59107.54139  51.43258  0.89348  18.29618  59139.46954 
    14.38242  1.80747  1.32499       4.89671         4028.01034  0.02128  0.01919     0.01865  29.43876     19.62484   9433.21116    -1.31392  1.46264  2466.88516  0.02342   59108.2509   51.4754  1.75127  18.33366  59139.46271 
    14.41933  1.61886  0.78656        4.2337         3980.63755  0.03896  0.04138     0.13171  17.52911     20.09216    7486.2737    -1.09604  0.92675  2800.76932  0.06869  59108.46878  51.54418  2.91468  18.31265  59139.46954 
    14.38086  1.65994  1.89135       0.05236         5997.31176  0.02648  0.05611     0.15546  36.35801     19.93973   9110.45362   -17.98913  0.50144  8506.71833  0.04836  59091.57569  52.56645  2.26056   18.2614  59141.58554 
    14.53556  1.95984  1.63416       4.87884         3933.58932  0.02739  0.02344     0.01656  25.15544     16.32073   9522.97411    -3.29847  0.86096  2544.93018    1e-05  59106.26635  51.49029  2.19199  18.34673  59139.46954 
    14.57223  1.66649  0.97389       4.81932          4137.5329  0.00626  0.03342     0.07554  20.46749     18.22978   4467.32845    -2.33592  0.62709  2313.20693  0.00094  59107.22891  51.39088  0.48242  18.35823  59139.46954 
    14.30809  1.32596  1.13103       4.21193         3908.66335  0.01072   0.0239     0.18055  27.44145     17.58957   5081.98573    -2.89267  0.74917   2653.3471  0.00022  59106.67215   51.5333  0.87175  18.36419  59139.46271 
    14.45308  1.81471  1.23075       4.03469         3999.02361  0.04656  0.02843     0.01388  19.76874     16.41964    3133.3115    -2.84672  1.00935  2451.73583    1e-05  59106.71811  51.43855  3.56437  18.32906  59139.46954 
    14.35164  1.57256  0.81122       4.76112         3990.32803  0.02134  0.02776     0.09442  22.33319     19.75129   8366.38451    -1.13603  1.22197  2318.14233  0.03133   59108.4288  51.39978  1.67121  18.35856  59139.46271 
    14.45898  2.00339  1.19717        4.7845         3937.47563  0.00519  0.03511     0.10322  21.65436     19.71994   6000.42209    -1.55387  1.27299  2718.46739  0.02915  59108.01096  51.53567  0.40421  18.41238  59143.08832 
    14.32922  1.99021  1.96757       4.84099          3821.2111  0.01413  0.02044     0.07867  27.53281     20.11529   5648.38583    -7.26817  1.54458  2405.46945  0.07245  59102.29666  51.44837  1.14977  18.34742  59139.46954 
    14.53623  1.72156  0.81017       4.57038         3992.05372  0.03046  0.05299     0.01484  14.40905     16.84166   8232.31344     -0.7287  0.79673  2782.80986    4e-05  59108.83613  51.52182   2.1927  18.34956  59139.46954 
    14.56461  1.98811  1.16052       4.65852         3903.00727  0.02738   0.0337     0.03645  21.69531     17.80224   9077.34078    -1.55839  0.89285  2844.33962  0.00035  59108.00644  51.57513  2.13266  18.36251  59139.46954 
    14.34486  1.58794  0.92321       4.64303         4002.93717  0.05244   0.0374     0.26367  17.44964     16.82509   3037.42469     -0.9662  1.36096  2796.92509    4e-05  59108.59863  51.54261  3.92015  18.42131  59139.46954 
    14.58534  1.90831  1.50148       4.71593         4006.52223  0.01209  0.04086     0.01321  18.03969     17.34765   6087.92131    -4.91184   0.6734  2656.27499  0.00012  59104.65298  51.50058  0.90978  18.32009  59139.46954 
    14.42765  1.85763  1.02673       4.86023         3904.63905  0.03118  0.03822     0.30374  17.45135     18.48037    4597.0394     -1.2095  1.44861    2575.055  0.00168  59108.35533  51.47083  2.33062  18.36047  59141.58554 
    14.49719  2.02218  1.66049       4.91924         4012.08832  0.02265  0.02773     0.25974  21.72076     17.80402   9972.87259    -2.72781   1.0232  2445.81571  0.00035  59106.83701  51.44411  1.76509  18.34474  59141.58554 
    14.29927  1.51521  1.64401       4.64418         3911.85077  0.04289  0.02151     0.01076  25.87813     16.99911   5342.86375    -4.05961  1.02639  2775.37812    6e-05  59105.50522   51.5678  3.45017  18.34102  59139.46954 
    14.37644   1.6225  1.07339       4.96304         3981.97294  0.01133  0.02404     0.01188  23.48023     18.62573   7160.48061    -1.40563   1.0484  2235.91803  0.00235  59108.15919  51.37241  0.89551  18.38643  59139.46954 
    14.39769  1.80833  0.91692       4.28755         3852.25541  0.08234  0.05016     0.04884  13.67238     20.26846    5607.9018    -1.80116  1.38604  2884.66439  0.10308  59107.76366  51.54844  5.86421  18.28406  59139.46271 
    14.53278   1.4819  0.77054       4.87181         4081.71635  0.01459  0.03209     0.11623  22.91516       17.816   6303.60661    -1.04824  0.60837  2601.65004  0.00036  59108.51659  51.50206  1.14802   18.3119  59141.58554 
    14.51547  2.04135  1.07482       3.95838         4019.43171   0.0331  0.03029     0.32154  23.72454     20.18388   6537.01133    -1.34639  1.04448  2974.38412  0.08484  59108.21844  51.62111  2.62152  18.30375  59139.46954 
    14.42076  2.04059  1.91315       4.32996         3982.75823  0.03148  0.04411     0.08126  14.85394     17.19963   3080.46049    -4.86866  1.23534  2714.21706    9e-05  59104.69616  51.50279  2.27959  18.32817  59139.46954 
    14.41066  1.47713  0.70674       4.92078         3999.71445  0.00768  0.02649     0.04336  28.05797     16.31766   4757.97703    -0.97747  0.86828  2498.83429    1e-05  59108.58736   51.4829  0.62654  18.38698  59147.43027 
     14.2913  1.61407  1.29062       4.40126           4092.704  0.00739  0.01647     0.06913  32.19352     19.06172   4639.08687    -2.99428  1.34961  2114.42206   0.0064  59106.57055  51.34826  0.61778  18.33986  59139.46271 
    14.54796  1.75111  0.71595       4.88414         4025.39252  0.03062  0.02967     0.26685  21.67017     17.08678   7025.99623    -0.69788  0.86377  2345.79551    7e-05  59108.86695  51.40766  2.38459  18.29555  59141.58554 
    14.41874  1.70926  0.70847       4.94941          3984.4675  0.04922  0.03696      0.0165  18.24122     16.38521   9205.43223     -0.4604   1.5158   2589.0291    1e-05  59109.10443  51.47923  3.71071  18.34298  59139.46954 
      14.507  1.89928  0.70582       4.78856         4107.19864  0.00803  0.01822     0.08034  32.44033     19.05196   6571.90681      -0.621  1.19609  2125.86015  0.00626  59108.94382  51.35352   0.6723  18.33884  59141.58554 
    14.52458  1.79857  0.86493       4.67368         4032.33922   0.0239  0.02856     0.03349  23.23338     17.09716    7394.2261    -1.09708  0.91315  2431.12354    7e-05  59108.46774  51.44427  1.88539  18.37031  59139.46954 
    14.21405  1.53932  1.28923        3.3785         4240.14135  0.00115   0.0154     0.01923   30.5066      18.2411   8835.70939     -5.0234  1.51304  1943.81652  0.00097  59104.54143  51.27113  0.09529  18.37166  59139.46954 
    14.25195  1.37024  1.12415       4.56567         3905.67997  0.00354  0.05968     0.32856  12.70995     17.43896   6946.82003    -3.17993  0.94387  2862.37735  0.00015  59106.38489  51.53522  0.24825  18.37502  59139.46954 
     14.6249  1.86089  1.23667       4.75605         4027.50497  0.03526    0.027     0.37683  23.11112     18.87709    7024.2999    -2.32278   0.6614  2596.48989  0.00419  59107.24205  51.50101  2.77906  18.38266  59139.46271 
    14.48997  1.85262  0.91491       3.64666         4156.37239  0.04358  0.03197     0.01371  18.68032     19.33636   7385.71462    -1.09445   1.0487  2513.28402  0.01205  59108.47037  51.45542  3.30034  18.35259  59143.08832 
    14.45033  1.87406  0.70193         4.073         4150.10874  0.00695  0.01251     0.01706  39.33109      18.4655   4774.08258     -2.3708  1.38622   1750.3234  0.00162  59107.19403   51.1989  0.60129  18.34228  59139.46954 
    14.55545  1.92529  1.23864       3.99263            4042.37   0.0014  0.02862     0.01225  28.55233     16.11776   6730.00903    -4.11831  0.76325  2836.13871    1e-05  59105.44652  51.59422  0.11425  18.38064  59141.58554 
    14.16906  1.39216  1.24143       4.62289         4042.15473  0.00481  0.02391     0.12585  22.81278     20.08197    8693.3404    -3.77979  1.27415  2164.44806   0.0671  59105.78504   51.3419  0.37802  18.32536  59139.46271 
    14.32898  1.41749  1.06061       4.50618         4075.64458  0.02321  0.01431     0.02204  36.98703     18.67123   3856.41019    -0.99798  0.95363   2352.3327  0.00261  59108.56685  51.45118  1.98703  18.38498  59141.58554 
    14.43944  1.79942  1.00527        4.8242         3986.56124  0.03111  0.02368     0.12559  25.47839     17.28198    3268.3599    -1.92673  1.26662  2369.87422  0.00011  59107.63809  51.42939  2.49571  18.35347  59143.08832 
    14.49024  1.87042  0.86358       4.46512         3997.42513  0.02729  0.01911     0.13564  35.61037       19.402   7698.51735    -1.68653  1.19243  2631.55064  0.01402  59107.87829  51.54581   2.3213  18.39356  59143.08832 
    14.43201    1.735  1.32574       4.57763         4021.60607  0.01847  0.01985      0.2799   33.4162     16.46724   7297.01446    -1.19026  0.97661  2745.78672    2e-05  59108.37457    51.578  1.55407  18.35568  59141.58554 
     14.5591  1.98708  0.70468       4.81419         4055.49415  0.00722  0.02947      0.0584  23.80209     16.21781    5957.5456    -0.56491   1.0628  2409.06422    1e-05  59108.99992  51.43828  0.57244  18.28326  59139.46271 
     14.6005  2.14522  0.74516       4.40607         4117.58858  0.01128   0.0234     0.35762  25.88938     17.93045   6160.52987    -0.65842  1.09094  2053.14758  0.00047  59108.90641  51.30603  0.90724  18.34164  59139.46954 
    14.38293  1.60462  0.87024       4.89523         4118.22304  0.01939  0.01983     0.01989  27.66311     17.44747   3477.49816    -0.93099  1.18373  2083.78758  0.00016  59108.63384  51.32404  1.57871  18.35114  59139.46954 
    14.47628  2.02027  1.37426       4.49348         4071.61423  0.01745  0.02088     0.16584  26.52219      18.4306   8891.48897    -1.95276  1.24007  2254.12927   0.0015  59107.61207  51.38903  1.41002  18.35679  59139.46954 
     14.5034   2.0594  1.05248       4.91559         4062.96319  0.01052  0.02089     0.17284    26.185     19.44834   5181.01705    -1.02713  1.31721  2001.89018   0.0156  59108.53769  51.28496  0.84802  18.32662  59139.46954 
    14.38606  1.86689  1.62445       3.75479         4122.44494  0.01064  0.01492     0.02035  41.69337     16.25153    3090.0768    -5.34669  1.15467  2658.59508    1e-05  59104.21814  51.56619  0.92907  18.34508  59139.46954 
    14.14854   1.5905   1.8902       2.81891         4192.10644  0.00839  0.03101     0.29804  18.74699     18.96227   9120.07578    -11.1452  1.38677   2672.3133  0.00509  59098.41963  51.50901  0.63605  18.35135  59143.08832 
    14.49485  1.97535  1.40362       3.43427         4169.69429  0.01974  0.02558     0.11494  21.10391     17.52744   7266.62496    -3.10581  0.94616  2368.05492  0.00019  59106.45901  51.41372  1.52974  18.30119  59139.46271 
    14.51511  1.87077  0.82047       4.91264           4012.601  0.01838  0.02599     0.18797  26.80145     18.12678   8936.72016    -1.28769  1.07294   2517.3285  0.00074  59108.27714  51.48576  1.48825  18.37515  59139.46954 
    14.42439  1.92321  1.42334       4.17542         4032.24762  0.00204  0.01854     0.01707  33.74426     17.52164   5764.68091    -4.29149  1.13175  2434.54013  0.00018  59105.27333  51.47423  0.17164   18.3625  59141.58554 
    14.35482   1.6559  0.81089       3.64411         4224.95421  0.01486  0.01996     0.04193  31.04316     18.70304   9375.94084    -2.88467  1.32763  2265.35998   0.0028  59106.68016  51.40541  1.23466  18.33482  59143.08832 
    14.43739  1.75274  0.75954       4.44873         4023.40575  0.02317  0.02078     0.01306  32.70634     20.33729   3268.72027    -2.56101  1.06635   2549.0828  0.12079  59107.00381  51.51183   1.9429  18.34602  59141.58554 
    14.46923  2.00668  1.06305       4.69806         3892.43998  0.00347  0.02066      0.0285  36.54743     16.71765    8907.7182    -2.14475  1.34465  2693.25487    3e-05  59107.42008  51.56786   0.2961  18.36832  59139.46954 
    14.49163  1.83008  0.96172       4.85421          3974.3367  0.02936  0.02535     0.42624  25.16668     19.66395   5976.01424    -1.20025  1.00078   2429.4447  0.02563  59108.36458  51.44999  2.34985  18.33423  59139.46954 
    14.30916  1.71026  1.39346       4.73171         4012.04155  0.01379  0.02624     0.17453  20.58893     20.18141   9308.99153    -3.42853   1.2461  2265.32231  0.08436  59106.13629  51.37319  1.06365  18.29359  59139.46954 
    14.38319  1.60267  0.97644       4.71548         4090.24546  0.00825  0.01671     0.08557  34.43418     20.15286   3407.01542     -0.9804   0.9662  2246.43556  0.07899  59108.58442  51.40589  0.69772  18.32805  59139.46954 
    14.34944  1.48566  0.96054       4.31288           3989.832  0.02906  0.03262      0.0732  18.77022     17.38936   8886.53886    -1.51297   0.9692   2545.6454  0.00014  59108.05186  51.46693  2.20267  18.34174  59141.58554 
    14.30277  1.67281  1.38337       4.25968         4056.48312  0.01089  0.03868     0.23144  17.42801     19.36522   4246.50574    -5.37264  1.18839  2556.33949  0.01288  59104.19218  51.46438  0.81384  18.35485  59141.58554 
    14.29902  1.35503   0.9961       4.47073         4134.81728  0.00809  0.03158     0.22179  19.18963     18.82334    3400.3054    -1.83849  0.88203  2340.43531   0.0037  59107.72633  51.39575  0.61596  18.30826  59139.46954 
    14.27922  1.56773  0.84662       3.71416         4070.23303   0.0073  0.02908     0.03251  22.01154     20.57344     4592.437    -1.55621  1.12679  2562.95296  0.20805  59108.00862  51.48582  0.57039  18.31364  59141.58554 
    14.23285  1.44961  1.19521       4.42729         4108.98941  0.00566  0.02246      0.0171    29.482     18.29169   9101.42714    -4.06729  1.22509  2335.30547  0.00109  59105.49754  51.42791  0.46642  18.33331  59139.46271 
     14.3681  1.86282  1.39193       3.94111         4156.04595  0.01553  0.01253     0.14857  38.36396     19.85869   3208.47487    -1.94163  1.53708  2181.55351  0.04012   59107.6232  51.38839  1.33796  18.34561  59141.58554 
    14.43345  1.72142  1.55232       4.71702         3990.30321  0.00311  0.03534     0.14126  19.61398     19.14967   4459.76399    -7.72281  0.76616  2493.76324  0.00784  59101.84201  51.45267  0.23754  18.37828  59143.08832 
     14.2836  1.62015  1.29152       4.83704         4060.15371  0.00796  0.02707     0.02958  24.57262     18.77377   5406.16319    -4.71274  1.54196  2406.44491   0.0033  59104.85208  51.43985  0.63403  18.32342  59139.46954 
    14.38676  1.58891   0.7087       4.85255         3892.73993  0.02449  0.03071     0.03658  23.43785     19.14602   4213.84693    -1.66022  1.10288  2607.13448  0.00778   59107.9046  51.50568  1.93506  18.38148  59139.46954 
     14.5917  2.02582   0.8024       4.20549         4063.16821  0.04023  0.03292       0.029  18.70938     19.82638    8864.8258    -0.54354  0.96427   2457.4938  0.03725  59109.02128  51.43605  3.04788  18.38328  59141.58554 
    14.37562   1.6099  0.76041       4.74785         3996.12921  0.03266  0.02037     0.11857  29.93881     17.76732   4905.92884    -0.97498  1.52061  2436.84594  0.00033  59108.58985  51.46605  2.69669  18.33032  59141.58554 
     14.3129  1.51036  1.24193       4.50435         3948.15648  0.00788  0.06709     0.05134   12.8749     18.76189   6406.93204    -2.06032  0.96139  3069.83303  0.00321   59107.5045  51.59715  0.55447  18.36315  59139.46954 
    14.22178  1.32447  0.75462       4.83059          3985.2171  0.00208  0.02653     0.06458  24.50529       19.662   3043.52499    -1.21539  1.13611  2270.98871  0.02551  59108.34944  51.38931  0.16591  18.35596  59141.58554 
    14.43723  1.89622  1.08472       4.82533         4027.41401  0.00394  0.01607     0.11493  40.16292      19.5225    3493.4011    -0.90966  1.30126  2355.53526   0.0185  59108.65517  51.45836  0.34189  18.27823  59139.46954 
