 texplosion  fnickel    Pspin  log(Bfield)      Mns  thetaPB   mejecta    kappa  kappagamma      vejecta  temperature    alpha  cutoff_wavelength  log(nhhost)      A_V         MJD0  kenergy  mnickel           TSD   log(L0)  Peak_mag     Peak_MJD  log(E_rad)  log(Peak_lum)  Rise_Time    E_fold  tau_1  delta_m15     r_peak     frac 
   -2.06097  0.05197  5.53998     14.73008   1.4999  1.25082  12.16889  0.01346     0.27103   7990.00338   3996.85331  1.48053         4738.49548     19.41271  0.01437  58241.12403  4.63417  0.63236  148162.60592  45.78715  17.19853  58258.13672    50.44638       44.00297     9.3765  17.14893   22.5    0.83594  -20.49823  0.89129 
   -1.92184  0.08855   5.9753     14.81839  1.46239  0.85668   7.18628  0.02222     0.27374   8155.64034   4006.01844  1.67951         4473.26814     17.54662   0.0002  58241.26316  2.85133  0.63634  111899.10368  45.83236  17.20702   58257.2387    50.43007       43.99389     9.3765  16.46147   22.0    0.86627  -20.46489  0.86962 
    -2.0794  0.07235   6.3186     15.01822   1.8114  0.74282   9.57533  0.01735     0.32535   9027.12834   3792.09441  1.42871         4286.89619     17.66704  0.00026   58241.1056  4.65458  0.69275   61750.35231  46.13498  17.16342   58257.2387    50.43845       44.01498     9.3765   15.6093   22.5    0.88745  -20.45578  0.88509 
   -2.25961  0.09324  6.79233      14.7561  1.72105  1.46722   6.39273  0.02545      0.4987   9208.48574   3787.47065  1.39409         4322.53461     19.97391  0.05232  58240.92539  3.23363  0.59605  226692.61871  45.48516  17.19514   58257.2387    50.42835        43.9835   10.19371  16.16896   22.0    0.91478  -20.49468  0.87433 
   -2.10378  0.06104  7.89257     14.78809  1.74085  1.24105   9.68553  0.01342     0.25344    7890.2841   4011.97529  1.63571         4598.07441     16.65625    3e-05  58241.08122  3.59696  0.59121  267204.64565  45.28833  17.16688   58257.2387    50.41093       43.95766   10.19371   16.3521   22.5    0.87634  -20.48236  0.83978 
   -2.00177  0.11452  7.93692     15.00278  2.01639  0.89752   6.27066  0.02349     0.44028   9693.53431   3671.08665  1.44677         4333.49644     18.15161  0.00079  58241.18323  3.51483  0.71809  116448.02982  45.70798  17.17702   58257.2387    50.44754       44.01113     9.3765   15.6093   22.0    0.94405  -20.51623  0.84343 
   -1.61116  0.10507  6.83306     14.84641  1.82291  1.42049   5.77606  0.02552     0.39762   8175.53773   3973.94094  1.74284         4648.19878     16.31844    1e-05  58241.57384  2.30299  0.60692  160321.69687  45.65539  17.14294   58257.2387    50.43199       44.00435     9.3765  16.46147   21.0     0.9341  -20.58041    0.882 
   -2.15687  0.09947  6.31201     14.80629  1.68936  1.27067   7.10267  0.02247     0.36413   9485.35128   3753.42599  1.28541         4441.02714     16.42052    1e-05  58241.02813  3.81202  0.70651  152505.08212  45.71295  17.16558   58257.2387    50.40835       43.95773   10.19371   16.3521   22.5    0.92736  -20.48978  0.87049 
   -2.07406  0.08255  7.11314     14.86455  1.65833  0.91522   7.71732  0.02038     0.31918   8847.20327   3845.36974  1.56995         4487.23048     16.17782    1e-05  58241.11094  3.60335   0.6371  145384.93011  45.62187  17.16582   58257.2387    50.39363       43.93713   10.19371  16.83505   22.5    0.88377  -20.48372  0.84885 
   -2.13126   0.0944  7.29433     14.95777  1.75392  0.82244   7.68074  0.02206     0.45424   9173.09312   3773.33013  1.48824         4413.11459     17.57649  0.00021  58241.05374  3.85533  0.72507  105259.31333  45.76462  17.16234   58257.9175    50.41833       43.96023   10.19371  17.09532   23.0    0.88509  -20.43969  0.83699 
   -1.83022   0.0643  8.03548     14.87184  1.86792  1.23216    9.1681  0.01528     0.46313   8130.42177   3989.70889  1.79402         4434.41682     17.08681    7e-05  58241.35478   3.6152  0.58952  202073.48462  45.42467  17.22373  58258.13672    50.43555       43.98455     9.3765  16.98617   22.0    0.91047  -20.46911  0.85022 
   -2.04689  0.09345  4.76461     14.57933  1.11702  1.08242     6.666  0.02373     0.41101   7994.05757   3972.68946  1.68584          4538.5276     16.72162    3e-05  58241.13811  2.54113  0.62296  163407.49314  45.74758  17.18601   58257.2387    50.41992       43.97115     9.3765  16.98617   22.0     0.8466  -20.48149  0.87781 
   -2.11668  0.09161  6.99257      14.7251  1.52014  1.03986   6.53623  0.02088     0.31131   9279.90918   3765.81215  1.45664         4327.03052     18.45427  0.00158  58241.06832   3.3577  0.59877  244777.91115  45.37268  17.19782   58257.9175    50.43969       43.99197     9.3765  16.98617   22.5    0.95576   -20.5043  0.84316 
   -2.14009  0.12967  8.57824     15.08911  1.92365  0.61775   4.86677  0.03093     0.47945   8822.61927   3982.23669  1.68091         4228.37033     17.47878  0.00017  58241.04491  2.25976  0.63109   87199.95196  45.74566  17.17466   58257.9175     50.4267       43.99245     9.3765  16.59018   23.0    0.88221  -20.42499  0.82875 
   -2.19084  0.08234  8.46636     14.84425  1.89964  1.42476   7.88879  0.01964     0.36008   8724.64336   3903.89223  1.57694         4518.20774      18.3407  0.00122  58240.99416  3.58206  0.64956  259049.06138  45.27874  17.25262   58257.9175    50.41982       43.96283   10.19371  16.34868   23.0     0.8853  -20.46039  0.82564 
   -1.85987  0.09625   6.2354      14.8362  1.65855  1.22262   7.27539  0.02444     0.48893   9236.42624   3776.07852  1.58989         4309.26657     17.80303  0.00035  58241.32513  3.70247  0.70026  127310.22131  45.79398  17.19957   58257.9175    50.42532       43.97296     9.3765  17.65225   22.0    0.91556  -20.45667  0.87249 
   -2.29728  0.09144  6.70725     14.85884  1.73289  1.09124   7.59119  0.02333     0.49805   9002.96712   3810.68415  1.40691         4656.10497     18.12045  0.00073  58240.88772  3.67036  0.69412  138671.25471  45.71254  17.19157   58257.9175    50.42166       43.97015   10.19371   16.3521   22.5    0.86579  -20.48195  0.86241 
   -2.02305   0.0901   7.3264     14.80303   1.5806  0.95896   6.78627   0.0222     0.46572   8637.03572   3916.28242  1.67474          4707.6283     18.22221  0.00093  58241.16195  3.01987  0.61145  195143.46518  45.44753  17.23711   58257.2387     50.4275       43.97647     9.3765  16.59018   21.5    0.89356   -20.5478  0.83601 
   -2.19653  0.11203  7.32415     14.98667  1.72521  0.66722   6.00999  0.02356     0.39902   8978.77924   3836.36297  1.48824         4495.56873     16.35147    1e-05  58240.98847  2.89025   0.6733   91375.10131  45.81535  17.12727   58257.2387     50.4379       44.00304     9.3765  16.59018   22.5    0.90794  -20.51426  0.84147 
    -2.0915  0.09342  8.51069      15.0017  1.85807  0.74111   6.81181   0.0227     0.34148   8694.21176   3870.83142  1.71175         4481.71246     16.20962    1e-05   58241.0935   3.0715  0.63638  123995.57694  45.58457  17.20611   58257.9175    50.42504        43.9745     9.3765  16.98617   23.0    0.90626  -20.47084  0.82222 
   -2.04476  0.10723  6.59188     14.80084  1.63842  1.28603   6.65483  0.02594     0.39967   9447.65396   3797.68464  1.45621         4350.32722     17.22158    9e-05  58241.14024  3.54333  0.71361  165415.61874  45.62668  17.16246   58257.2387     50.4166       43.98563   10.19371  16.16896   22.5    0.87186  -20.45387  0.85308 
   -2.11636  0.09256  6.08941     14.74279  1.52809   1.2885   7.42116   0.0242     0.43299   9196.25902       3828.3  1.45519         4318.90925      17.8618   0.0004  58241.06864  3.74387  0.68692  171998.90702  45.64832  17.16486   58257.2387    50.42678       43.98787     9.3765  16.98617   23.0    0.85932  -20.44257  0.86423 
   -2.29231  0.06636   7.3983     14.98005  1.74341  0.70583   9.37634  0.01723     0.30458   8384.58953   3788.66956  1.57832         4587.47065     16.81574    4e-05  58240.89269   3.9321  0.62225   97136.64795   45.7846  17.16918   58257.2387    50.46663       44.05896     9.3765  15.32336   22.5    0.86204   -20.4579  0.85129 
   -1.97286  0.10094  6.64331     14.78401  1.65559  1.34485   6.50125  0.02376     0.44908   8622.92455   3826.76003  1.55009         4599.99904     16.46062    2e-05  58241.21214  2.88359  0.65623  183450.42903  45.57951  17.16564   58257.9175    50.41574       43.95679   10.19371  16.83505   22.0    0.88676   -20.5082  0.86276 
   -1.61543  0.11438  4.26196     14.84639  1.22221  0.71522   6.43247  0.02787     0.41953   8232.32349   4005.20138  1.73932         4372.66174     16.99689    6e-05  58241.56957  2.60046  0.73577   41821.14615  46.47538  17.17075   58257.2387    50.44036       43.97996     9.3765  16.98617   22.5    0.85075  -20.41367  0.90507 
    -2.0699  0.09859  7.04915     14.86163   1.7235  1.06986   7.18246  0.02266       0.492   9213.20718   3827.47835  1.55212         4320.74014     17.93639  0.00048   58241.1151  3.63682  0.70808  150396.74131  45.63175   17.1492   58257.2387    50.42726       43.99079     9.3765  16.59018   22.5    0.89337  -20.47264  0.84584 
    -2.1993  0.11193  7.68827      15.0432  1.73982  0.58553   6.07043   0.0253     0.26358   9290.86798   3770.58618  1.41835         4571.04761     18.45534  0.00159   58240.9857  3.12579  0.67949   78266.14912  45.84412  17.15517   58257.2387    50.44031       44.02367     9.3765  15.57079   23.0    0.89888  -20.48848  0.82824 
   -1.90949  0.11299  6.37146     14.91301  1.55692  0.76905   6.55161   0.0236     0.41944   9115.12245    3870.2355  1.57373         4334.01609     16.43785    2e-05  58241.27551  3.24714  0.74029   87605.37601   45.9101  17.16521   58257.2387    50.44859       44.01288     9.3765  15.60387   22.5    0.92264  -20.47421  0.84746 
   -1.83669  0.12033  8.41015     14.90862  1.87911  1.04042   5.18181  0.02895     0.36187   8548.33425    3937.1732   1.8686         4363.99996     16.48026    2e-05  58241.34831  2.25877  0.62352  187987.60652  45.41906  17.22916   58257.9175    50.40016       43.93467   10.19371  17.47164   22.0    0.88691  -20.48513  0.83124 
   -1.93538  0.10232  6.00351     14.77962  1.20092  0.58744    5.3848  0.02423     0.42639   8490.28672   3853.03198  1.81382         4283.76132     16.58482    2e-05  58241.24962  2.31548  0.55095   110893.1957  45.74665  17.20337   58257.2387    50.43025        43.9966     9.3765  16.46147   21.5    0.93154  -20.50482  0.84777 
    -2.2386   0.0912  7.00821     14.68631  1.50551  1.33506   6.76967  0.02234     0.34381   8857.35267   3886.44198  1.55697         4405.21503     18.05696  0.00063   58240.9464  3.16813  0.61739  291133.74132  45.29122  17.24074   58257.9175    50.44714        44.0132     9.3765  16.46147   23.0    0.91552  -20.46624  0.83673 
   -2.10288  0.09791  6.40811     14.61531  1.33154  1.18327   5.92495  0.02378     0.34423   8724.39361   3815.46082  1.63486         4375.81183     16.99245    5e-05  58241.08212  2.69019  0.58012  298537.76885  45.30474  17.17773   58257.2387    50.46197       44.04273     9.3765  15.32336   22.0     0.9142  -20.50127  0.84419 
   -2.09443  0.09933   6.9887     14.94468  1.99201  1.20377   6.07381  0.02834     0.38986   7968.53917   3914.89319  1.59589          4683.5986     17.55625   0.0002  58241.09057  2.30063  0.60333  116559.45122   45.8128  17.20732   58257.2387    50.43257       44.00238     9.3765  16.46147   22.0    0.84084  -20.45952  0.89258 
   -1.59471  0.10423  7.54059     15.06984  1.95718  0.75414   6.45648  0.02641     0.41924   8978.01777    3833.3242  1.68869         4616.96145      17.7151  0.00029  58241.59029  3.10444  0.67294   74914.91243   45.9311  17.24477  58258.14062    50.40732       43.94656     9.3765   18.2034   21.5    0.92596  -20.54179  0.86021 
   -2.07888  0.08067  7.78698     14.72358  1.65068  1.46105   7.53801  0.01711     0.39914   8472.27404   3888.17551  1.59568         4466.01484      16.5189    2e-05  58241.10612  3.22763   0.6081  331936.76249  45.18272  17.15867   58257.2387    50.42582       43.99706   10.19371  15.64426   23.0    0.91548  -20.48908  0.82829 
   -2.11552  0.07328  8.39319     14.82261  1.86728  1.32307   8.32125   0.0174     0.39991   8937.97863   3814.40396  1.64788         4370.16352      17.4164  0.00014  58241.06948  3.96547  0.60979  276476.87792  45.25054  17.13612   58257.2387    50.43164       44.02767     9.3765  15.32336   22.0    0.91641  -20.50209  0.83304 
   -1.75547  0.09296  6.75265     14.77565   1.6297  1.43178   7.27327   0.0222     0.31377   9168.09633   3809.88486  1.59695         4300.92871     18.49813  0.00175  58241.42953  3.64683   0.6761  193898.29274  45.53443  17.28008  58258.37825    50.45843       43.98732     9.3765  16.98617   22.5     0.9348  -20.46859  0.85213 
   -1.89037  0.08296  6.67216     14.89012  1.56795  0.84146   8.13835  0.02163     0.37523   8651.97867   3798.80403  1.69191          4472.0877     16.84006    4e-05  58241.29463  3.63408  0.67517  107508.81063   45.7842  17.15052   58257.2387    50.44768       44.02024     9.3765  16.46147   23.0    0.83717  -20.43163  0.84828 
   -2.14552   0.0792   7.5978     14.90662  1.71364  0.80115   7.18636    0.022     0.29001   8804.38055    3880.1153  1.49377          4654.5918     16.19138    1e-05  58241.03948  3.32303  0.56916  141208.67359  45.59153  17.11402  58256.36782    50.43411       44.02076     9.3765  15.30317   22.0    0.90079  -20.48439   0.8519 
    -1.8604  0.10162  6.57209     14.95127  1.73247  0.87431   7.11983  0.02483     0.41644    9287.3499   3777.25248  1.54656          4345.3552     18.25752  0.00101   58241.3246  3.66337  0.72351   86964.16313  45.93276  17.23729   58257.9175    50.41448        43.9589   10.19371   16.6448   22.5    0.90278  -20.45486  0.86374 
   -1.86944  0.06135  6.58833     14.84854  1.68492  1.08753  10.70172  0.01445     0.27423   8251.33657   4003.64408  1.59753         4608.83839     18.06749  0.00065  58241.31556   4.3464  0.65657  136414.25131  45.72301  17.22093   58257.2387    50.44786       44.01954     9.3765  16.46147   22.5    0.89929  -20.48667  0.86835 
   -1.61051  0.08918  6.79466     14.86088  1.76934  1.29215   7.34109  0.02275     0.48185   8469.88259   3913.07551  1.60552         4807.36463     18.50451  0.00178  58241.57449  3.14154  0.65471  143945.85951  45.69412  17.11287  58256.36782    50.45697       44.04959     9.3765  14.57981   21.5    0.88377   -20.5199  0.87066 
   -1.94185  0.10739  4.95212     14.79669  1.15286  0.63621   6.51845  0.02689     0.36571   8823.83038   3915.06598  1.76779         4432.64571     17.95081   0.0005  58241.24315  3.02751      0.7    66955.3502  46.11525  17.18843   58257.9175    50.44107       43.99274     9.3765  17.16931   22.0    0.86252  -20.49086  0.86191 
   -1.86372  0.09717  6.95169     14.80812  1.66553  1.19759   6.88846  0.02185     0.24812   8782.48231   3855.34527  1.55131         4439.51898     16.59537    2e-05  58241.32128  3.16945  0.66938  180842.15872  45.54892  17.22459   58257.9175    50.42111       43.96923   10.19371   16.6448   22.5    0.88967  -20.47164  0.84978 
   -2.15444  0.07131  8.27039     14.94607  1.82534  0.85254   9.22213   0.0172     0.31441   8579.63441   3969.01369  1.71859          4355.3742     18.29695   0.0011  58241.03056  4.04945  0.65767  148620.43482  45.52306  17.11205  58256.36782    50.42933       44.02167     9.3765  15.32336   23.0    0.86419  -20.43102  0.82208 
   -2.17002  0.10587  6.27162     14.69401  1.49797  1.40184   5.62486  0.02707     0.49965   8608.43442   3906.77167  1.61635         4373.74615      17.2165    9e-05  58241.01498  2.48649  0.59551  223899.49024  45.49954  17.19725   58257.2387    50.40893        43.9685   10.19371   16.3521   21.5    0.91276  -20.49319  0.86927 
   -1.94907  0.06722  7.04522     14.73843  1.60045  1.29788   8.76678  0.01581     0.33268   8167.02893   3977.93729  1.59012          4572.1272     16.38361    1e-05  58241.23593  3.48815  0.58928  246024.62222  45.38632  17.20328   58257.2387    50.42437       43.97993     9.3765  16.46147   22.5    0.91974  -20.48213  0.85387 
   -2.21714  0.10734   7.0136     14.84956  1.71997  1.01925   5.75831  0.02887      0.4025   8757.48358   3794.40057  1.57346         4536.65346     18.45572  0.00159  58240.96786   2.6344  0.61812  157069.90594  45.61639  17.15023   58257.2387    50.41769       43.99037   10.19371  15.77298   22.0    0.90167  -20.50636  0.86303 
   -2.08726  0.12058  6.25065     14.83415  1.55061  0.90432    5.4535  0.03065      0.4998   9666.86381   3754.30041  1.59331         4130.04279     16.31943    1e-05  58241.09774     3.04  0.65756  120747.10622  45.78562  17.21535   58257.9175    50.41683       43.96899   10.19371  16.16896   21.5    0.91188  -20.49633  0.86542 
   -2.11451  0.05935  6.49947     14.79063  1.35126   0.7163   9.61766  0.01519     0.23401   8028.77208   3976.15648  1.69635         4598.75778     16.34517    1e-05  58241.07049  3.69824  0.57084  139013.11208  45.63077  17.17204   58257.2387    50.40233       43.96239   10.19371  16.20148   22.5    0.88269  -20.47636  0.84571 
   -2.15446  0.09693  6.45862     14.78155  1.40719  0.78794   6.17661  0.02388     0.34872   8533.60301   3884.28095  1.63527         4424.69284     16.77118    3e-05  58241.03054  2.68313  0.59868   149054.9386  45.62357   17.1901   58257.9175    50.42757       43.97765     9.3765  16.98617   22.5    0.88377  -20.48975  0.84926 
   -2.10125  0.09117  7.36582     14.83333  1.86169  1.52637   7.07399  0.02289     0.32098   8842.69873   3835.85273  1.48648         4521.58293     18.21556  0.00091  58241.08375   3.2996  0.64492   202070.6029  45.49881  17.19263   58257.9175    50.47399       44.04704    8.49625  16.20361   22.0    0.90022  -20.49621  0.86058 
   -1.78218  0.09438  7.31692     14.85462  1.83265  1.26346   6.32988  0.02571     0.29132   8230.69148    3929.1532  1.66688         4742.03242     16.15872    1e-05  58241.40282  2.55797   0.5974  177955.43373  45.55296  17.21364   58257.9175    50.43461       43.99913   10.19371  15.77298   21.5    0.86518  -20.52701  0.86856 
   -1.84972  0.10196  5.68545     14.84059  1.48148  0.89747   7.11977  0.02524      0.4084   9527.70148   3787.93986  1.45634         4418.49842     17.15257    8e-05  58241.33528   3.8554  0.72591   92654.54703  45.96315  17.17931   58257.2387    50.43092       43.99459     9.3765  16.46147   22.0     0.9158  -20.47494  0.87023 
   -2.19917  0.08364  8.34577     14.81058  1.73792  1.05797   7.58489  0.01756     0.48622   8909.88818   3830.89792  1.44521         4697.62974      16.9307    5e-05  58240.98583  3.59187  0.63439  268918.45869  45.23632  17.21819   58257.2387    50.41265       43.95825     9.3765  17.16931   23.0    0.91011   -20.5082   0.8128 
   -1.94417  0.08577  6.39973     14.85793  1.52415  0.84503   7.87438  0.02189     0.48246   9321.78904   3774.37947  1.65143         4335.87497     17.94272  0.00049  58241.24083  4.08171  0.67542  111509.35401  45.79224  17.19672   58257.2387    50.41115       43.96841   10.19371  16.16896   22.0    0.88855  -20.48386  0.85331 
   -1.69884  0.10659  5.38127      14.7487  1.46634   1.4051   6.86949  0.02455     0.47513   9162.41446   3771.20174   1.5372         4440.41075     18.42758  0.00149  58241.48616   3.4401  0.73222  125437.86028  45.87488  17.20102   58257.9175    50.41388       43.96493     9.3765  17.38589   22.0    0.91196  -20.49296  0.88144 
   -2.02113  0.11879  7.42963     14.69366  1.54397  1.28147   4.94047  0.02605     0.48128   8768.88134   3846.21688  1.73605         4243.38318     16.66524    3e-05  58241.16387  2.26613  0.58689  324385.45079  45.20449  17.15159   58257.2387    50.43929       44.00802     9.3765  16.46147   22.0    0.92796  -20.50483  0.83236 
   -1.57135  0.07305  6.37921     14.85621  1.72727  1.25672   9.46833  0.01642     0.49274   8481.82667   3897.29232  1.75481         4417.87867     16.39887    1e-05  58241.61365   4.0633  0.69166  126557.44636  45.79438  17.19743   58257.9175    50.44086       43.99492     9.3765  16.47233   22.0    0.91463    -20.518  0.87563 
