 log(Bfield)      Mns    Pspin  cutoff_power  cutoff_wavelength  fnickel    kappa  kappagamma   mejecta  log(nhhost)  temperature  texplosion  thetaPB      vejecta      A_V        MJD_0   log(KE)     M_Ni  Peak_mag     Peak_MJD 
    14.83169  2.15219  9.86973       1.13315         4409.27655  0.04456  0.01484     0.48538   9.88282     18.74647   6814.27741    -2.43785  1.48584   9072.61735   0.0031  58240.74715  52.51411  2.96452  17.19223   58257.2387 
     14.7229  1.57352  7.23996        1.2276         4193.06147   0.0401   0.0125     0.22142   15.3072     16.55643   4015.71052    -2.06685  1.35933   9544.67373    2e-05  58241.11815  52.59762  2.92136  17.21451   58257.9175 
    14.87187  1.50856  6.00516       1.34516         4350.05958  0.04127  0.01259     0.38497    15.506     18.56191   3056.33479     -1.5958  0.84538   8738.48265  0.00203   58241.5892  52.52208  3.01435  17.17619   58257.2387 
    14.78474  1.71456  8.61578       1.55211         3972.65436   0.0441  0.01671     0.38946    9.4717     18.97051   3069.52294    -2.32361   0.9398   8988.53194  0.00519  58240.86139  52.50199  2.90712   17.2329   58257.9175 
    14.68098  1.54254  6.99886       1.10182         4536.26233  0.07279  0.02492      0.3343   7.16101     17.85326   7880.61441    -2.70707  1.57041   8395.19234   0.0004  58240.47793  52.41517  4.50359  17.20319   58257.9175 
    14.75355  1.76722  8.17645       1.19165         4588.75279  0.04104  0.01425     0.24139  10.93665     19.58182   4969.95643     -2.4348  1.19469   8496.51387  0.02121   58240.7502  52.46658  2.79023  17.24299  58258.13672 
    14.90533  1.80531   8.8139       1.57784         4673.13255  0.05519  0.01829     0.31229   7.50715     16.19023   6311.03169    -2.33375  0.77492   7125.26062    1e-05  58240.85125  52.27748  3.45226  17.12399   58257.2387 
    15.00281  2.10245  8.48354       1.36548         4582.35933  0.05272  0.01675     0.30863  10.40924     17.70246    3266.5449    -1.78348  0.97206   8191.04943  0.00028  58241.40152  52.43019  3.54705  17.21784   58257.9175 
     14.7318  1.60364  7.48347       1.35684         4448.83793  0.04492  0.01418       0.319  10.53414     18.44208   4844.24177    -2.27083  1.12424   8256.29792  0.00154  58240.91417   52.4382  3.02988  17.21782   58257.9175 
    14.77801  1.65252  7.73339       1.04861         4472.02596  0.06384  0.02164     0.34508   7.92076     17.06723   6637.92956    -2.31106  0.98422   9299.56635    6e-05  58240.87394  52.51415  4.04276  17.21769     58258.26 
    14.78664  1.59951  5.22458       1.09639         4752.24296  0.04446  0.01515     0.22572  13.30211     16.93676   9621.91182    -1.78415  1.56104   8340.97412    5e-05  58241.40085  52.46826  3.14905   17.1978   58257.9175 
    14.76701  1.40179  6.38696       1.38547         4382.56725  0.05809  0.01759     0.42656   8.92495     16.27822   3655.87051    -1.76813  0.81856   8262.46638    1e-05  58241.41687  52.42313  3.77892    17.156   58257.9175 
    14.80858  1.83124   7.5791       1.17481         4624.71192  0.04031  0.01316     0.21167  12.53519     16.91367   3214.22077    -1.97744  1.38064   8028.29367    5e-05  58241.20756  52.42977  2.82054  17.20749   58257.2387 
    14.82877  1.89818  7.99686       1.30336         4365.69863  0.05703  0.01682     0.49622   9.42653     18.00153   3545.70969    -1.91463  1.41065   8448.59547  0.00056  58241.27037  52.44772  3.75542  17.24451  58258.13672 
    14.69686  1.58071  7.79393       1.27285         4615.86926  0.07662  0.02846     0.43917   4.98329     18.43695   5741.23088    -1.98676  1.05727   8618.09783  0.00152  58241.19824  52.39948  4.33903  17.25671  58258.13672 
    14.73216  1.42814  6.77435       1.20394          4266.2075  0.04399  0.01392     0.29013  12.42747     16.05771   4010.52471     -1.9279  0.89545   9390.37994    1e-05   58241.2571  52.56512  3.07256  17.22793   58257.9175 
    15.05964  2.05024  7.80732       0.89125         4644.36201  0.03325  0.01064     0.31523  16.57454     17.85409   3687.40328    -1.93596  0.72333   9344.63992   0.0004  58241.24904  52.58603  2.46074  17.22314  58258.13672 
    14.77567  1.81843  7.90562       1.15728         4569.33156  0.06252   0.0183     0.48701    8.1513     19.38022   4204.60094    -2.16851  1.54906   8543.14775  0.01333  58241.01649   52.4433  3.98519  17.23406     58258.26 
    14.84306   1.6749  7.60042       1.28537         4629.07588  0.05339  0.01771     0.37263     9.297      16.6243   4989.97201    -1.88736  0.89213   8425.37299    2e-05  58241.29764  52.44401  3.50453  17.20236   58257.2387 
    14.76679  1.76988  8.03229       1.30365         4562.27682  0.04082  0.01327     0.29537  12.35582     18.28242    3432.7557    -2.13025  1.47114   8417.17926  0.00106  58241.05475  52.46956  2.84732  17.18707   58257.2387 
    14.86845  1.83864   7.1649       1.37133         4697.85889  0.06091  0.01747     0.21808   8.82116     16.79374   3384.33335    -1.54245  1.22238   7685.68437    3e-05  58241.64255  52.35914  3.95231  17.16127   58257.2387 
    14.66781  1.68955  9.23314       1.55713         4420.93393   0.0402  0.01535     0.25796   7.87083     17.13028   7260.90719    -2.47478  1.24828   7378.64742    7e-05  58240.71022  52.31256  2.54214  17.24071   58257.9175 
    14.82035  1.82939  8.25415       1.29291         4309.47136  0.05489  0.01838     0.49051   8.91213       17.139   6435.63451    -2.31072  1.10717   8369.33193    8e-05  58240.87428  52.43415  3.56953  17.17472   58257.2387 
    14.71248   1.6047  7.45457       1.35466          4273.5424  0.06829  0.02241     0.49876   7.71002     18.28534   3966.13512    -1.85643  1.46209   9051.30519  0.00107  58241.32857  52.48797  4.29788  17.20221   58257.9175 
    14.79906  1.78786  7.60432       1.19689         4290.78647  0.06231  0.02121     0.47874   8.45968     17.77666   4295.71872    -1.95985   1.3261   8901.92533  0.00033  58241.22515  52.48268  4.00509  17.21357  58258.13672 
    14.86459  2.00784  8.38446       1.38812         4475.24648  0.04877  0.01615      0.4763  10.37765     16.13863   5498.06922    -1.94523   1.4376   8218.72596    1e-05  58241.23977  52.43284  3.27892  17.22535   58257.2387 
    15.07063  2.10923  7.05641       1.18722         4392.11349  0.03174  0.01059     0.45224  20.74831     16.82251   4305.51278    -1.54336  0.96174   9263.47486    4e-05  58241.64164   52.5971  2.45201  17.18748   58257.9175 
    14.87953   1.5939  6.37914       1.21655         4585.96788  0.04255  0.01364     0.49294  13.52537     16.17573   3812.19327    -1.92097  0.81674   8509.94671    1e-05  58241.26403  52.48715   3.0241  17.23753  58258.37825 
    14.95964  1.68795  7.11121        1.3561         4492.61688  0.03223  0.01061     0.46198  17.14726     17.32093   6917.47281    -1.76972  0.68976   8387.16516  0.00012  58241.41528  52.49501  2.40099  17.19536   58257.9175 
     14.9553  1.84307  8.49874       1.32948          4471.3774  0.09988  0.02997      0.3895   5.01781     16.12618    4101.1105    -2.06468  0.74121   8369.22413    1e-05  58241.12032  52.37479  5.66614   17.1683   58257.9175 
     14.9256  2.00001  9.08289       1.41571         4411.83065  0.05248  0.01727     0.34149   9.15204     16.33371   5164.97461    -2.00733  0.94064   8899.52534    1e-05  58241.17767  52.49006  3.43327  17.21237   58258.2025 
    14.76866  1.62333  6.61353       1.40861         4601.29142  0.03977   0.0111     0.34324  14.29409     18.97191   4544.19212    -1.59547  1.36208   7808.23073  0.00521  58241.58953  52.41726  2.85843  17.25973   58257.9175 
    14.88491   1.7621  6.86546       1.31057         4666.19039   0.0791  0.02263     0.46758   7.11929     18.10948   8821.59836    -1.54159  0.99133   8196.85149  0.00071  58241.64341  52.39381  4.88726  17.16684   58257.9175 
    14.80482  1.98122  8.98158       1.37012         4151.64523  0.05211    0.017     0.43269   8.61099     16.25296   3719.31312    -2.23889  1.51168   8585.39879    1e-05  58240.94611  52.45296    3.363  17.18927   58257.2387 
    14.53972  1.31408   6.8341       1.49809         4436.99253   0.0329   0.0105     0.24371  13.18972     16.15362   4187.05158    -2.19602  1.52262   8187.85646    1e-05  58240.98898  52.45141   2.3262  17.23423   58257.9175 
    14.69752  1.77875  8.10879       1.19948             3933.3  0.02945  0.01129     0.24962  13.35157       19.659   3010.96644     -2.2879   1.5702   9555.66294  0.02534   58240.8971  52.58667  2.08715  17.25368   58257.9175 
    14.72237  1.78494  8.55699       1.21444         4359.95185  0.04159  0.01451     0.35328  10.15534     19.23806   5995.50895    -1.94683  1.56447   9157.03199  0.00961  58241.23817  52.52471  2.78309   17.2134   58257.9175 
    14.76599  1.77958  8.26322       1.38212         4346.28884  0.03767  0.01153     0.43734  11.68545     16.27661   4694.53067    -1.99561  1.22906   8197.71677    1e-05  58241.18939  52.44156   2.5974  17.19978   58257.9175 
    14.91499  2.08005  8.11607       1.41527         4238.12428   0.0351  0.01213     0.30482  14.99881     16.82198   4966.44146    -1.68718  1.55191   8631.31652    4e-05  58241.49782  52.50849  2.54677  17.15999   58257.2387 
    14.70413   1.5855  7.73843       1.38143          4583.1643  0.03333  0.01053     0.29411  12.20683     17.81403   6300.81204    -2.03793   1.1589   7532.99052  0.00036  58241.14707  52.37207  2.31945  17.21039   58257.9175 
    14.66704   1.6097  7.24386       0.93004         4348.55061  0.07446  0.02653     0.45438   6.07564     19.86665   3807.62041    -2.17624  1.32351  10008.26234  0.04087  58241.00876  52.55081  4.42995  17.17549   58257.9175 
    14.76285   1.7438  7.70437       1.44876         4552.57929   0.0659  0.02107     0.43162   7.04389      19.5111   4165.02417    -1.77722  1.37233   8126.61333  0.01802  58241.40778  52.38525  4.06148  17.22198   58257.9175 
    14.90237   1.6414  7.39294       1.24831         4393.93591  0.04232  0.01296     0.30182  12.20334     18.23375   3156.97849    -2.29552  0.69791   8543.16255  0.00095  58240.88948  52.48135  2.94492  17.21255   58257.2387 
    14.59121  1.36645  6.68131       1.21924         4567.45259  0.04873  0.01732     0.36628   9.93047      16.5372   4473.85773    -2.18699  1.40489   9000.83195    2e-05  58240.99801  52.50766  3.24521  17.23207   58257.9175 
     15.1366  2.00285  6.75263       1.13983         4482.25108  0.06367  0.02051     0.22368   9.32138     17.11187   3771.33823    -1.67397  0.64114   8814.43683    7e-05  58241.51103  52.48347  4.18197  17.20949   58257.9175 
    14.91569  1.83565    7.414       1.45143         4570.93808    0.061  0.01888     0.44812   8.19731     16.42322   5502.04009    -1.45569  0.92357   8055.40425    1e-05  58241.72931  52.39279  3.89362   17.2636   58257.9175 
    14.68824  1.50141  6.21363       1.36736         4564.98025  0.04785  0.01552     0.32617   9.70449      20.1291   4640.89207    -2.30881  1.11265   7108.96321  0.07479  58240.87619  52.30053  3.17055  17.21228   58257.9175 
    14.70516  1.65155  7.55938        1.3003         4500.57314  0.02939  0.01039     0.19208  15.18488     17.18988   3235.43685    -2.48724  1.39426   8211.53199    9e-05  58240.69776  52.46625  2.13818   17.2295     58258.26 
    14.80458  1.61432  7.46542       1.37597         4526.56275  0.04971  0.01375     0.31209  10.03325     17.82885   7565.40062    -1.79451  0.91989   8001.20027  0.00037  58241.39049  52.40638  3.31806  17.19904   58257.9175 
    14.85038  2.05562  8.74732       1.41063         3571.79998  0.05984  0.02257     0.36007   8.30163     19.27121   3215.88231    -2.19097  1.31451  10023.03023  0.01037  58240.99403  52.58386  3.83016  17.17371   58257.2387 
    14.77701  1.68416   7.0504       1.22228         4131.30549  0.03414  0.01136     0.21193  15.97875     17.66367   3326.99753    -2.08102  1.22137   9103.82368  0.00026  58241.10398  52.56023  2.50833  17.24345   58258.2025 
    14.70785  1.74935  8.52968       1.35714         4475.03232  0.04919   0.0185     0.37228   6.79101     17.18168   8579.49195    -2.34649  1.23428   8038.28495    8e-05  58240.83851  52.37202  3.00578  17.19789   58257.9175 
    14.84595  1.80112  8.37251       1.41945         4382.88095  0.08806  0.02567     0.45407   5.44674     19.93579   4863.31622    -2.25253  0.88401   7694.50073  0.04792  58240.93247  52.31077  5.09994  17.23185   58257.2387 
    14.88592  1.79937  7.75346        1.3914         4510.64615  0.05095  0.01808     0.28748   9.87584     16.23024   5707.28151    -2.04057  0.93585   8255.41437    1e-05  58241.14443  52.43205  3.38914  17.21013   58257.9175 
    14.87797   1.4154   5.7772       1.47132         4517.31758  0.09399  0.02704     0.33822   6.17122     18.61656   5213.58322    -1.42052  0.70443   7606.71789   0.0023  58241.76448  52.31414  5.61315  17.15077   58257.2387 
    14.67589      1.5  7.16938       1.30491         4486.12274  0.06595  0.01964     0.47922   7.55141      17.6003   8729.14713    -1.76442  1.29138    8553.5815  0.00022  58241.42058  52.43676  4.13109  17.20716  58258.13672 
    14.85596   1.8621  8.56788       1.43005         4390.16529  0.05409  0.01833      0.2988   8.81364     18.30234   3894.67224    -2.08006  1.02195   8457.19882  0.00111  58241.10494  52.44215  3.50886  17.22532   58257.9175 
    14.73321  1.72573  7.19601       1.15142         4380.59519  0.04712  0.01387     0.42114   9.91368     20.03213   5786.84139    -2.04135  1.22105   8280.40644  0.05982  58241.14365  52.43504  3.13689  17.23485  58258.13672 
    14.84252  1.81858  8.05648       1.32886         4341.02129  0.04253  0.01394     0.26249  12.62629     19.53688   5400.94111    -2.11502  1.07865   8758.95661  0.01913  58241.06998  52.50608  2.98006  17.18766   58257.9175 
    14.79381  1.66538  6.63448        1.2723         4365.45638  0.04591  0.01456     0.38843  12.16894     17.28413   4331.51055    -1.54449  1.25391   8623.28393  0.00011  58241.64051   52.4892  3.19271  17.21676  58258.13672 
    14.92826  1.96573  7.61802       1.43181         4568.95671  0.03995  0.01177     0.33915  14.08486     19.06703   4114.79868    -1.41666  1.20493   7953.07567  0.00648  58241.76834  52.43193  2.86261  17.25958   58257.9175 
    14.66874  1.45162  6.73057       1.30477         4597.34534  0.06168   0.0187     0.26478   8.57825     16.69601   5135.53652    -2.04949  1.32229   8306.16357    3e-05  58241.13551  52.42387  3.97709   17.2065   58257.9175 
    14.78284   1.4409  5.91583       1.49957         4400.55895  0.06447  0.02198     0.34453   7.96698     18.54161   6540.58441    -1.75178  0.88316   7849.61626  0.00193  58241.43322   52.3675  4.08795  17.18716   58257.9175 
    14.78177  1.67552  7.33204       1.33873         4602.29061  0.03378  0.01095     0.47733  14.06265     16.36273   3130.17874    -1.96043  1.11153   7890.31529    1e-05  58241.22457  52.42491  2.41993  17.20499   58257.9175 
     14.6336  1.29918   6.0408        1.3853         4080.70264  0.04724  0.01524     0.23795  11.76456     18.62293   3314.23555    -2.00825  1.12725   8987.44898  0.00233  58241.17675  52.52206  3.26194  17.19388   58257.9175 
    14.89497   2.1345  8.87677       1.31516           4313.283  0.03522  0.01186     0.45519  13.95779      16.0122   5756.04283    -2.02484  1.49204    8190.5195    1e-05  58241.16016  52.45669  2.51905  17.20943   58257.9175 
    14.80186    1.839  8.42251       1.31068         4515.96581  0.04392  0.01584     0.21116    9.4876     19.08211   3614.73684    -2.26408  1.19726    7683.5786  0.00671  58240.92092   52.3659  2.89591  17.25991  58258.13672 
    14.69726  1.65165  7.91979       1.90309         3510.53197  0.06299  0.02159     0.31507    7.8667     17.79872   4620.58271    -2.21864  1.56537   8923.09872  0.00035  58240.96636  52.47758  3.98312  17.19305   58257.2387 
    14.85532  1.80349  6.76726       1.55165         4697.77609  0.03705  0.01077     0.21987  14.67764     17.97196   4032.33959    -1.41402  1.48072   7192.01284  0.00052  58241.77098  52.34816  2.67693  17.22026   58257.9175 
    14.78753  1.77728  7.76264       1.36152          4470.7833  0.07647  0.02351     0.31657   6.57798     19.16882   3621.82669    -1.75363  1.34895   8348.64547   0.0082  58241.43137  52.40164  4.63708  17.17756   58257.2387 
    14.68818  1.45418  7.09194       1.65833         4570.01101  0.06286  0.01736     0.45151   8.03364     16.04313   5552.27972    -1.73793  1.22433      7235.29    1e-05  58241.44707  52.29754  3.99396  17.15983   58257.2387 
    14.79089  1.78734  7.87799       1.12212         4356.96364  0.07036  0.02465     0.49807   6.26808     16.74866   3700.22856     -1.9442  1.15181   8754.07988    3e-05   58241.2408   52.4378  4.21757  17.24185  58258.13672 
    14.61843  1.39257  6.63475       1.35467         4646.59189  0.06845  0.02042      0.3001   7.68778     18.70041   7512.27416    -1.83641  1.49028   8451.90218  0.00279  58241.34859  52.42817  4.30538  17.18198   58257.9175 
    14.84403  1.64424  6.91544       1.37639         4514.26211  0.06469  0.01944     0.44707   7.95728     18.54112   5271.21981    -1.83149  0.89853   7738.51069  0.00193  58241.35351    52.355  4.10126  17.15238   58257.2387 
    15.00111  2.15992  9.28311       1.18041         4608.60724  0.06275  0.01952     0.38596   7.98163     18.23012   4259.86663    -2.24749  0.86045    8484.0994  0.00094  58240.93751   52.4352  3.98074  17.19613   58257.9175 
    14.86048  1.94062  9.54043       1.59913         4558.81529  0.03342  0.01092     0.28465  11.99008     17.54201   3009.79703    -1.90433  0.98471   7742.63812  0.00019  58241.28067  52.39429   2.3168  17.19627   58257.9175 
    14.94288  1.97156  9.16735       1.51609         4625.09196  0.08164   0.0247     0.34817   4.90346     18.67059   3808.64829    -2.18752  0.79717   7320.27129   0.0026  58240.99748  52.25591  4.60389  17.17776   58257.9175 
    14.85178  1.79307  7.13944       1.46675         4481.52077  0.06302  0.01908     0.25475   8.82524     16.18939   3216.69272    -1.76835  1.25348   8102.71863    1e-05  58241.41665  52.40508  4.08937  17.25975   58257.9175 
    14.81208  1.99977  9.23205       1.42635         4555.64217  0.05784  0.01968     0.32947   6.42059      16.5594   7771.65768    -1.89067  1.36276   7775.99493    2e-05  58241.29433   52.3374  3.48756  17.24214   58257.9175 
    14.63994  1.39643  6.63575       1.26239          4395.0453   0.0794  0.02363      0.4658   6.91831     17.48533   3570.80201    -2.28008  1.24521   8368.50212  0.00017  58240.90492  52.40889  4.87315   17.2073   58257.9175 
     14.7009  1.71164  7.46766       1.23443         4724.54581  0.06491  0.02082      0.4017   6.43128     20.27152   4474.09533    -2.03637  1.25495   8013.42698  0.10381  58241.14863   52.3637  3.91542  17.23905   58258.1757 
    14.51456   1.1446  4.74112        1.3622         3684.49126    0.089  0.03016     0.49613   6.75622     19.99923   4322.44693    -1.76112  1.31435  10138.98009  0.05546  58241.42388  52.57315  5.43168  17.19315   58257.9175 
    14.85154  1.65686  8.47955       1.31154         4371.70141  0.04803  0.01687     0.29707     10.07     18.03032   6409.21742    -2.11281  0.75479   9253.44265   0.0006  58241.07219  52.53302  3.20848  17.25937  58258.37825 
     14.9183  1.86753  5.76637       1.97785          3291.2781  0.05427  0.01692     0.34563  12.84556     18.51532   3942.67582    -1.21102  1.39074   9978.57574  0.00182  58241.97398  52.62085   3.8164  17.20214   58257.9175 
    14.67871  1.56754  7.06755       1.15569         4326.12361  0.04806  0.01744     0.35305   9.96458     17.52014   6179.87653    -1.80556  1.52887   9437.51747  0.00018  58241.37944  52.54913  3.20302  17.19929  58258.14453 
    14.61358  1.26903  5.03871       1.13231         4849.81007  0.06681  0.02182     0.23944   8.24417     16.75517   3110.47877    -1.59067  1.46927   7910.45629    3e-05  58241.59433  52.37758  4.26985  17.20328   58257.2387 
