 log(Bfield)      Mns     Pspin  cutoff_power  cutoff_wavelength  fnickel    kappa  kappagamma   mejecta  log(nhhost)  temperature  texplosion  thetaPB     vejecta      A_V        MJD_0   log(KE)      M_Ni  Peak_mag     Peak_MJD 
    13.28742  1.55835   4.42889       0.40763         4937.69724  0.29307  0.01507      0.0602  58.11294     20.15233   4805.85574    -6.74726  0.79381  6080.55442   0.0789  56570.45274  52.30801  27.00627  19.59644   56658.8381 
    13.50507  1.60331   3.97723       0.03774         5245.97441  0.34577  0.01779     0.03828  48.84149     20.09264   4999.44413    -6.70974  0.33134  6553.79828  0.06876  56570.49026   52.3611  30.99386  19.61229  56639.70526 
    12.75747  1.41634   2.71094        1.1827         3845.51752  0.37669  0.01888     0.03421  46.49861     20.55492   4847.76135     -9.0235  1.12973  5146.50053  0.19936   56568.1765  52.14768  33.49726  19.59808      56648.3 
    13.38942  1.96263  14.08273       0.19589         5662.64845  0.47404  0.01305     0.12301  40.26163     17.76211   5223.81627   -10.76163  0.89686  5833.70731  0.00032  56566.43837  52.24625   41.1666  19.63348  56655.01153 
    13.08741  1.70926   1.91914       2.13657         3450.51109  0.20345  0.02896     0.04105  66.24294     18.03331   5185.76959    -6.90841  0.26081  6831.82401   0.0006  56570.29159  52.41803  19.13348  19.55313   56635.8787 
    13.92109  1.85883  23.41842       0.16643         5443.49021  0.34791  0.01032      0.0393  50.32446     17.58224   4722.30013    -7.28596  1.02919  5969.49277  0.00021  56569.91404  52.28208  31.33615  19.58975  56655.01153 
    12.62986   2.0088   2.35163        0.4669         4358.55899  0.36171  0.02936     0.10026  40.41661     16.64622   4664.69588   -10.11486  1.10075  5629.74961    2e-05  56567.08514  52.21562  31.43214  19.67096   56658.8381 
    13.46078  1.36737    4.6692       0.29429         5292.99464  0.44748  0.01918     0.08468  36.66044     19.35349   4976.91782    -9.63639  0.48942  5064.16375  0.01254  56567.56361  52.11655  38.25407  19.60587  56655.01153 
    12.92203  1.45384   2.80306       0.34232          5403.8989  0.36276  0.02456      0.0596  41.78601     17.21733   4849.92794   -13.99774  0.76131  5176.37293    9e-05  56563.20226  52.14509  31.69768  19.68322  56666.49123 
    12.58145  1.42287   2.28437       0.28712         4448.75938   0.2471  0.01755     0.06851  67.10679     20.08471   4729.59842    -5.51135   1.2093   6286.0279  0.06752  56571.68865  52.34658  23.28427  19.65008   56658.8381 
    13.51826  1.56333   8.64052       2.25498         2379.81397  0.37476   0.0126     0.10672  47.07687     18.94611   5021.74102    -5.19777  1.22062  5605.16719  0.00491  56572.00223   52.2227  33.39298  19.65241      56663.1 
    14.45542   1.9087  19.97773       0.41281         5008.92683  0.41239  0.01131     0.32203  41.84117     17.70793   4997.53126    -7.20479  0.40137  5385.31961  0.00028  56569.99521  52.17956   36.0427  19.57438      56640.3 
    14.12995  1.67699    5.4015       0.41741          4423.3497   0.2437  0.01214     0.10173  62.99818     16.11301   4672.53237    -9.14113  0.15629  5888.22894    1e-05  56568.05887  52.28556  22.74182  19.60856  56651.18496 
    12.54831  1.78489   1.77319       0.77538          4435.2461  0.46282  0.04474       0.146  30.64289     16.71238   4839.49298    -6.94255  0.66365  5436.41762    3e-05  56570.25745  52.16478  38.36562  19.55144      56640.3 
    13.03983  1.55802   4.06755       0.51425         5521.17107  0.27628  0.01238     0.11803  60.35127     20.08139    4783.0389    -9.25168  1.53986  4705.41764  0.06701  56567.94832  52.08789  25.61054  19.64483  56651.18496 
    14.84635  1.96421   9.89039        0.3196         4734.24883    0.293  0.01037     0.04574  58.21765      16.8503   4871.75595   -12.32278  0.07482  5958.34067    4e-05  56564.87722   52.2905  27.00731  19.64876      56662.2 
    13.87972   1.6258  25.88803       0.20361         5536.80911  0.38322   0.0103     0.17132  47.73837     17.31919   5085.29768    -7.39129  0.06271  5779.19932  0.00012  56569.80871  52.25024  34.22381   19.6481  56666.49123 
     13.2221  1.45703   3.86431        0.6228         4486.64202  0.33769  0.01866     0.05561  48.58046     20.40652   4912.07362    -5.82268  0.94305  5376.23823  0.14166  56571.37732  52.18869  30.24301  19.58533      56648.3 
    13.14235  1.56496   3.50876       0.23092         4426.21278  0.44796  0.02562     0.07214  37.04714     19.90273   4855.69303    -4.44764  0.60976   6387.8413  0.04441  56572.75236  52.31901  38.36331  19.53705      56640.3 
    12.73547  1.72507   1.96873       0.26997         4295.35333  0.48666  0.04693     0.11627  31.11291     16.37341   4733.59767   -14.62744  0.57914   6473.5191    1e-05  56562.57256  52.31759  40.44912  19.63726   56658.8381 
    12.57888  1.71588   1.63583       1.05809         3627.89822  0.40202  0.04605     0.10278  36.85534     16.74852   4785.11831   -11.76334  0.56948  6197.68083    3e-05  56565.43666  52.29238  34.39833   19.5366  56643.53183 
      12.861  1.58324   3.71607       0.52381         4589.25623  0.40962  0.01754      0.0766  38.68176     19.72997   4620.54475    -4.60491  1.54586  5466.75159  0.02983  56572.59509  52.18692  35.33554  19.65495   56658.8381 
    13.91368  1.69362   5.77205       0.58286         4884.70929  0.35645  0.01545     0.05351  43.42693     19.94459   4893.87874     -5.0994  0.33578  5445.43048   0.0489   56572.1006  52.19187  31.34494  19.51515   56635.8787 
    12.84247  1.70496  24.51808       0.13634          5421.1921  0.41266  0.01077     0.05948  45.87091     16.64578   4869.77987   -13.19959  0.79523  5519.16775    2e-05  56564.00041  52.20744  36.61514  19.66195  56662.66466 
    13.24258  1.70024   2.68134        0.0717         5042.71865  0.25114  0.01956     0.05946  72.07889     20.41038   4840.18268   -12.19738  0.32608  6637.67524  0.14292  56565.00262  52.39859  23.92509  19.70791      56672.2 
    13.30675  1.95082    5.1921       0.30879         4325.94114  0.28075  0.01401     0.13438  63.88862     20.20259   4714.85852    -9.36485  1.17117  5868.38855  0.08858  56567.83515  52.28357  26.25623  19.65725  56655.01153 
    13.43605  1.97404   4.47911       0.04327         5939.10581  0.32596  0.02075     0.03753   50.6726     20.45379   4622.61485   -15.71325  0.99864  5886.84502  0.15795  56561.48675  52.27045  29.39147  19.61392  56651.18496 
    13.00036  1.40978   3.16106       1.38843         2556.47873  0.24416  0.02487     0.19067  54.79383     19.31575   4320.66128    -9.62223  1.48833  6495.31061  0.01149  56567.57777   52.3613  22.29197  19.65482  56655.01153 
    12.52787  1.92682   2.28631       0.39552         5462.06621  0.27543  0.01697     0.06695  57.24038     17.23652   5089.77685   -10.14674  1.37121  5035.70446   0.0001  56567.05326  52.14321  25.32037  19.64036   56658.8381 
    14.13281  1.86087  28.26627       0.12894         5089.15149  0.41468  0.01128      0.2799  45.85472     19.15129   4835.97271   -12.82736  0.72493   5720.1036  0.00787  56564.37264  52.23848  36.79193  19.65016   56658.8381 
    13.13716  2.16018   4.59717       0.21314         4753.94109  0.36089  0.02074     0.16999  42.26848     18.19557   4737.32511    -6.08323  1.36005  5733.02342  0.00087  56571.11677  52.23463  31.59503   19.6428      56667.4 
    13.03433  1.36024   3.61748       0.32967         5602.17291  0.26816  0.01119     0.07447  61.93909     18.88497   4658.76308   -13.69964  0.81343  4802.47366  0.00426  56563.50036  52.10738  24.95806  19.65807      56663.1 
    13.37085  1.69091   4.56415       0.53439         5411.90926  0.26748   0.0133     0.05928  54.33272     17.07959      4787.27     -6.5834  0.75691  5127.67708    7e-05   56570.6166  52.15536  24.38816  19.58952      56640.3 
    12.25244  1.78812  17.66817       0.21266         5072.69222  0.41906  0.01096     0.09246  43.06442     18.29031   4916.83732    -8.29204  0.91296  5567.58724  0.00108  56568.90796  52.21054  36.80028  19.69317      56662.2 
    13.05134  1.88273   3.88385       1.03598         4315.57795  0.26133  0.01698     0.44717   52.8493     17.68197    4649.9129   -11.31046  1.38702  4930.62285  0.00027  56565.88954  52.11941  23.72295  19.61564  56643.53183 
    12.62312  1.79851   2.43952       0.03009          4490.2517  0.38841  0.02238     0.23067  47.41311     20.25806   4599.61888   -15.46686  1.09615  6045.44948  0.10064  56561.73314  52.28889  34.64907  19.67026  56666.49123 
     13.5877  1.62018   8.51899       0.56683         5271.83991  0.45605  0.01238     0.04181  38.74525     16.81996    4938.0147    -7.43826  0.65834  5133.37831    4e-05  56569.76174  52.13238  39.35174  19.59446   56658.8381 
    12.45619   1.7725    2.2202       0.02228         4602.39729  0.39384  0.01864     0.03649  45.21043     19.76242   4819.20002    -6.82929   1.1328  6022.12191  0.03215  56570.37071  52.28216  34.86218  19.60287  56643.53183 
    12.20631  1.41855   1.57236       1.12827         3947.33415  0.32479    0.017     0.03498  52.42052     20.45253   4895.97561    -6.13442   1.2426  5288.71112  0.15749  56571.06558  52.17974  29.44512  19.60079  56643.53183 
    12.75571  1.80688   2.04757       0.06693         4317.47932   0.4367   0.0438     0.24013  34.67378     17.25474   4716.99085   -17.84674   0.5954  6472.27586   0.0001  56559.35326  52.32553  36.98067  19.56279      56640.3 
    12.79779  1.64029   3.19781       0.49833          5229.6391  0.47871  0.02116     0.05908  32.96778     17.38748   4793.10726    -7.25801  1.16591  4778.10722  0.00014  56569.94199  52.05817  40.18865  19.63637  56655.01153 
    12.98922  1.79777   3.31705       0.38526         4340.46117  0.36026  0.01687     0.06495  45.05593     19.25471   4940.25199    -8.64513  0.63563  5325.35567  0.00999  56568.55487  52.17512  31.87235  19.63067  56655.01153 
    12.75295  1.38307   2.73246       0.54341         5059.36564  0.32531  0.01509      0.0373  49.18477     19.21516    5081.7723   -11.80551  0.91729   4886.1523  0.00912  56565.39449  52.10654  29.19234  19.55352      56639.2 
    12.46893  1.97734  27.86822       0.17437         5032.34645  0.40741  0.01154     0.43093  44.58272     16.78049   4574.10472    -8.36123   1.1349   5793.6551    3e-05  56568.83877  52.24758  35.98125  19.56137   56647.3584 
    12.79288  1.94179   2.45389       0.29374         4415.25614  0.32984  0.03333     0.06961  44.07854     18.43983   4655.42607   -12.61961  0.85366  6107.96337  0.00153  56564.58039  52.29266  29.07638  19.64003   56658.8381 
    12.65922  1.16793   2.26731       0.02796         5214.78832  0.48744  0.02777     0.03527  32.01551     18.25424   4426.54524    -9.27325  0.95306  6609.55158    0.001  56567.92675  52.33781  40.71527  19.57906  56643.53183 
    14.73094     1.99  24.98787        0.0432         5564.17562  0.34302  0.01032     0.06431  53.08165     16.87349   4700.25664    -8.52103  0.20168  5997.80743    4e-05  56568.67897  52.28989  31.15972  19.67813  56666.49123 
    12.52142  1.73878  20.67609       0.31499         4732.05673  0.45686  0.01112     0.11667  40.53709     18.30946   5066.51891    -8.89388  0.09534  5005.41065  0.00113  56568.30612  52.11373   39.7201  19.67069      56663.1 
    13.37728  1.52971   4.57242        0.5072         4960.26218  0.27358  0.01355     0.05459   58.9614      19.7959   5066.41757    -5.57037   0.6655   5740.7452  0.03472  56571.62963  52.25905   25.2679  19.60906   56658.8381 
    13.31422  1.66965   4.90805       0.55164         4904.97047  0.24165   0.0114     0.06548  63.29689     16.44375   4821.66944    -8.79036  0.86444  5090.61889    2e-05  56568.40964  52.15945  22.56656   19.5945  56655.01153 
    12.38993   1.6236    10.766         0.591         4400.48827  0.45435  0.01064     0.05123  44.03409      20.0011   4947.58163   -12.12671  0.90182  5433.65487   0.0557  56565.07329  52.19098  40.04541  19.61391  56655.01153 
    12.88785  1.67523   3.08145       0.82261         5485.71931  0.34962  0.02006     0.11072    42.114     16.35532   5031.78488   -10.19436  0.99267  4385.97911    1e-05  56567.00564  52.00174  30.58986   19.6627      56675.3 
    13.91079   1.7083  21.69412       0.24145         5434.43681  0.37104   0.0102     0.06898   49.5603     18.62671   4919.87493   -10.16561  0.62091  5773.53205  0.00235  56567.03439  52.25202  33.33691  19.66097   56658.8381 
    14.45753  2.16995  15.86745       0.43792         4813.56108  0.38112  0.01083     0.17151  46.75916      16.6036   4982.99326    -6.78271   0.3083    5257.666    2e-05  56570.41729  52.16664  33.92254   19.6725   56658.8381 
    14.29228  1.89901  19.43453       0.03325         4549.17526  0.32772  0.01163     0.06718  53.62444     16.80379   4651.80356    -5.84639  0.76534  6798.10312    4e-05  56571.35361  52.39939  29.81887  19.52033      56639.2 
    12.80341  1.60806   2.74824       0.24451         4824.25242  0.40418   0.0257     0.13103  44.09212     20.43977   4784.06844   -10.11644  1.06819  5839.59696  0.15293  56567.08356  52.25365  35.63114  19.55437   56635.8787 
    13.18256  1.53595   4.20752       0.13423         4355.17994    0.327   0.0199     0.07106  57.18822      20.4659   4671.67211    -7.25374  1.23225  7304.54139  0.16241  56569.94626  52.46622  30.05759  19.65298   56658.8381 
    12.93793  1.86976   3.52913       0.03464         4381.78201  0.24964  0.01504     0.06659  66.61556      19.9702   4835.38743   -10.78812  1.40234  5810.07872  0.05187  56566.41188   52.2777  23.49755  19.58337      56648.3 
     13.5813  1.71555   6.76249       0.29573         5689.48035  0.38067  0.01495      0.0552  42.96313     18.27873   4867.65564    -8.37239  0.92857  5444.90106  0.00106  56568.82761  52.19101  33.41641  19.65198  56643.53183 
    13.15827  1.97009   3.70206       0.18713         4512.35288  0.46097  0.03325     0.09361  34.16886     17.14792    4489.9247   -13.32791  0.75371  6015.50772    8e-05  56563.87209  52.26087   38.9384  19.59515  56643.53183 
     13.0601  1.63586  28.93135       0.29042         5076.61174  0.45644   0.0116     0.13502  39.04325     19.15848   4798.76738    -6.04067  1.55031  5336.91952    0.008  56571.15933  52.16671  39.43578  19.62678  56655.01153 
    12.48839    1.856  26.57514       0.35977          5420.8662  0.49819  0.01208     0.20953  37.69273     18.18382   4934.04318   -12.01648  0.90609  5288.58155  0.00085  56565.18352  52.15625  42.78955  19.62941  56674.14436 
    12.84829  1.52776   2.84594       0.28674         4874.29236  0.34576  0.02091     0.08812  46.50837     16.23242   4825.25305   -13.71912  0.83984  5841.74132    1e-05  56563.48088  52.25775  30.74764  19.69437  56670.31779 
    12.76544  1.50192   2.17903       1.29702         3566.94789  0.37044   0.0414     0.19211  43.24327     20.43968   4862.73497    -10.6118  0.88258  6563.89862   0.1529   56566.5882  52.35382  32.55244  19.57727  56643.53183 
    13.66585  1.83306   6.18081        0.4344         4752.26962  0.25561  0.01143     0.04304  67.57523     20.33304   4664.16876    -8.55216  0.77557  5927.68636  0.11961  56568.64784  52.29606  24.11199  19.61775   56647.3584 
    13.28551  1.85392   4.34456       0.55523         4563.67938  0.30392  0.01455      0.0568  55.68166     20.30778    4715.8449    -5.37821  0.68168  5351.74223  0.11285  56571.82179  52.19419  27.81823  19.58496  56651.18496 
    13.50558  1.66131    6.0589       0.29362         4619.47801  0.45402  0.01799     0.06364  41.06177     20.28784   4689.52818   -13.85899  0.82188  5822.09609  0.10779  56563.34101  52.24594  39.55755   19.6821      56663.1 
    12.39682  1.31658   1.10766       0.81473          3883.4363  0.38202  0.04664     0.17029    39.446     19.95536   4709.06602   -10.35897  0.41862  6956.21662  0.05013  56566.84103  52.39762  33.06287  19.59911  56643.53183 
    12.66486   1.5032   2.33729       0.53412         5560.80079  0.20153  0.01374     0.04697  77.45698      16.3603   4792.15253   -11.00088  0.93796  5087.68324    1e-05  56566.19912  52.17232  19.40885  19.61627      56667.4 
    12.00514  1.71649  13.87083       0.34304         5062.84396   0.4362  0.01038       0.113  43.19057     16.79806   4936.42565   -13.10046   0.8103  5023.48761    3e-05  56564.09954  52.12142  38.32429  19.62563  56655.01153 
    12.98841  1.50094   3.97736       0.64668         4170.34646   0.3196  0.01504     0.03621  50.50239     19.65197    4826.3523     -6.4036  1.34441  5614.91551  0.02493   56570.7964  52.22914  28.80248  19.52635      56640.3 
    13.19425  1.66978   4.52817       0.53253         4845.95638   0.3685  0.01697     0.07041  43.39424     19.77129   4860.95575     -8.8708  1.03521  5059.12635  0.03281   56568.3292   52.1279  32.40078  19.58944  56655.01153 
    12.38818  1.61555  29.80842       0.00957         5459.21407   0.3982  0.01048     0.12395  51.18708     19.48191   4875.37518   -18.31779  0.49659  5898.13649  0.01685  56558.88221  52.27282  35.96333  19.73167      56671.2 
     13.9359  1.78518   8.74627       0.15553         4873.12589  0.40609  0.01294     0.05594  45.90752     16.30335   4686.52001   -16.53405  0.36942  5350.16363    1e-05  56560.66595  52.18048  36.03707  19.63622      56662.2 
    13.46886  1.55747   6.73041       0.40907         5105.48408  0.42445  0.01435     0.04426  39.44198     18.40978   4798.66791   -10.59313  1.20522  5246.42432  0.00143  56566.60687   52.1526  36.73412  19.58707   56647.3584 
    12.36985    1.633   1.95076       0.31459          4863.0604  0.35163  0.02014     0.04266  44.77953     18.78598   4761.78165    -6.72784  1.30366   5675.6644  0.00339  56570.47216  52.23002  31.07723  19.59966   56647.3584 
    13.71962  1.72301  21.64769       0.71433         4704.40297  0.42413  0.01013     0.06141   40.6742     17.05228   4929.96783    -5.14355  0.35289   5045.1437    6e-05  56572.05645  52.12085  36.89494  19.64978      56671.2 
    13.70155  1.81255   4.69724       0.14622         4474.07166  0.40401  0.02121     0.02427  35.19844     19.57796   4846.32651    -4.76842  0.46439  6127.54002  0.02102  56572.43158   52.2791  34.29993  19.62216  56655.01153 
    15.13902  1.90834   9.27382       0.49095         5276.06271  0.29065  0.01096      0.0924  55.46785     17.29018   5102.42318    -5.61722  0.03496  6172.01936  0.00011  56571.58278  52.31779  26.58764  19.59825  56655.01153 
    12.84103  1.33865   3.01225       0.00391         4942.74092  0.42329  0.02329     0.05586  40.39801     19.92098    4868.2673    -6.61292  0.88642  6453.53454  0.04631  56570.58708   52.3342  36.78037  19.61748  56643.53183 
    14.21011   1.7635  19.89042       0.71721         4108.33759  0.45353  0.01096     0.05021  41.97373     19.81254   4793.78277   -11.22877  0.33656  5093.38457  0.03608  56565.97123  52.13138   39.6588  19.68962  56666.49123 
    13.56749  1.88337   3.69406       0.68301         4346.05875  0.37075  0.02186     0.13358  39.97101      19.0321    4737.3389    -9.37078  0.23815  4790.83542  0.00598  56567.82922  52.07466  32.15821  19.61159   56658.8381 
    12.72766  1.73267   2.49318       1.12508         3820.98231  0.40754   0.0356     0.10961  40.08163     20.45287   4944.40516    -6.50375   1.1599  5868.18889  0.15762  56570.69625  52.25105  35.36595  19.72116      56663.1 
    13.66589  1.76832   6.21597       0.42453         5295.32886  0.28734  0.01043     0.03251  56.24567     20.15583   4776.39571     -8.3086  1.00157  5006.44954  0.07954   56568.8914  52.13695  26.34302  19.68265      56667.4 
    14.09425  1.98598   6.55606       0.42764         5010.43166  0.30797  0.01226     0.03016   50.5112     18.92447   5073.37263    -6.48168  0.22686  5451.32043  0.00467  56570.71832  52.20347  27.75468  19.67296  56666.49123 
