 texplosion  fnickel    Pspin  log(Bfield)      Mns  thetaPB   mejecta    kappa  kappagamma     vejecta  temperature    alpha  cutoff_wavelength  log(nhhost)      A_V         MJD0  kenergy  mnickel           TSD   log(L0)  Peak_mag     Peak_MJD  log(E_rad)  log(Peak_lum)  Rise_Time    E_fold  tau_1  delta_m15     r_peak     frac 
   -2.43577  0.00206  1.23409     14.58709   1.8035  1.51762  12.02141   0.0948     0.32259  4954.19621   8464.92799  0.05527         2824.92304      17.2438   0.0001  58482.16423  1.76007  0.02477   17078.35305  48.10982  18.82933  58536.84326    50.65482       43.91522    19.3719  48.30407   37.5    0.16777  -20.00143  0.99993 
   -1.51161  0.00252  1.38281     15.02587  2.03256   0.4119   7.76918  0.15349     0.16125  4942.52078    6773.0451  1.63706         2755.80655     20.61713  0.23007  58483.08839  1.13214  0.01959    3203.61329  48.78972  18.70016  58534.35433    50.81257        44.1361   15.90726  43.87326   46.0    0.12499  -20.18106  0.99993 
   -5.08174  0.00173  1.59803     14.62101  1.75949  0.99536  12.73104  0.07817     0.26465  4074.64678   8091.85325  0.31015         4353.91059     19.15176  0.00788  58479.51826  1.26087  0.02209    23897.5365  47.72871  18.82127  58536.84326    50.84649       44.16639   17.62392  43.42759   42.5     0.1425  -19.71868  0.99982 
    -2.0249  0.00289  1.30394     14.76811  2.00963  0.88113   7.90428  0.10736     0.07124  3997.22555    7409.0007  0.81908         2943.80675      16.6962    3e-05   58482.5751  0.75337  0.02287    9230.69592  48.37621   18.9413  58536.84326    50.61817       43.86418   21.93663  50.45425   43.0    0.14753  -19.90782  0.99994 
   -2.46083  0.00138  1.64279     14.50684  1.76477  1.31255  12.23412  0.05269     0.03551  4046.03435   7899.49507  0.20326         3680.76982       16.336    1e-05  58482.13917   1.1947  0.01694   42853.21529  47.45239  18.77536  58534.35433    50.74184       44.04844   18.10092  43.87326   39.0    0.19126  -20.03737  0.99983 
   -1.79846   0.0056  2.21307     14.50514  1.75359  1.37808  11.13941  0.07942     0.20124  4312.18364   7456.28288  1.11113         2548.48837     17.11892    7e-05  58482.80154  1.23562   0.0624   77883.95274  46.93134  18.89795  58536.84326    50.71874       44.00426   17.55506  47.40451   44.0    0.13994  -20.02334  0.99861 
   -1.41803  0.00232  1.18576     15.04383  2.01682  0.39894  12.87764  0.04566     0.10137  3162.10469    4701.5516  0.82355         3347.43579     18.14151  0.00077  58483.18197   0.7681  0.02994    2151.89261   49.0927  18.83483  58534.35433    50.64958       43.92699   17.17824  49.52341   45.5    0.17308   -19.8981  0.99994 
   -2.70094  0.00165   1.0546     14.95145  1.93012  0.52632  11.92737  0.12892     0.36909   5033.7066   4602.60048  0.25081         2628.53406     18.92143  0.00464  58481.89906   1.8028  0.01969    2492.68514  49.11159  18.96475  58536.84326    50.60474       43.80567   26.32396  50.45425   46.0    0.12665  -20.06665  0.99997 
   -4.02566  0.00626  3.20314     15.10451  1.91104  0.28281  17.90154  0.05463      0.2078   5270.2816   7017.43734  0.29162         2564.02852     18.58175  0.00212  58480.57434   2.9661  0.11212   11251.46218  47.48775  18.87227  58534.35433    50.60416        43.8548   22.91901  47.82983   41.0    0.18076  -20.01789    0.995 
   -1.66413  0.00101  1.42259     14.52118  1.58459   1.3686  12.77655  0.08547     0.01592  4174.23146   4543.21374  0.85267         3587.11276     19.30194  0.01113  58482.93587  1.32799  0.01286    27011.1461  47.73106  18.81536  58534.35433     50.8305       44.15226   16.79207  43.87326   46.5    0.15898  -19.99551  0.99991 
   -4.10609  0.00313  0.88763     14.66273   2.1205   1.5615  11.68625  0.06882     0.25042  3800.74608   5517.48591  0.17101         3800.27755      16.4201    1e-05  58480.49391  1.00702  0.03663    7332.50943  48.83357  18.98584  58536.84326    50.71597       43.96894   19.74297   47.8422   44.5     0.1585  -19.77447  0.99998 
   -3.24212  0.00506  0.72231     14.86245  1.84428  0.55201   13.9255  0.04311     0.17111  3100.15796   5820.38225  0.64176         3207.99639     16.73576    3e-05  58481.35788  0.79837  0.07045    1683.43993  49.59103  18.77905  58534.35433    50.67379       43.95158   19.37288  46.62298   45.5    0.15065  -19.91583  0.99997 
   -2.87459  0.00279  0.74875     14.65595  2.08348  1.21236  23.28204  0.05262     0.01332  5414.66377   9287.88381  0.11036         2887.87638      20.6923  0.27355  58481.72541  4.07185  0.06498     5289.0157  49.11558  18.91821  58534.35433    50.66562       43.92082   19.74297  50.45425   36.0    0.17257  -20.32594  0.99998 
    -2.5493  0.00692  2.21008     14.52553  1.71662  1.52709   8.21464  0.17237     0.01054  5691.60672   7205.66881  3.45857         2050.16251     18.23729  0.00096   58482.0507   1.5874  0.05683   69221.36321  46.97446  18.71827  58534.35433    50.67182       43.93616   22.48824  48.26059   39.5    0.13876   -20.0902  0.99874 
   -4.86282  0.00471    0.767     14.44946  1.59632  1.54552  13.28935  0.05995     0.01118  3789.33224   9194.87034  0.10674          3177.8668     19.97249  0.05215  58479.73718   1.1383  0.06255   11005.59323  48.66076  18.94936  58536.84326    50.89221       44.18836   16.79207  46.06693   37.5     0.1502  -19.75003  0.99994 
   -2.18958  0.00855  0.85112     14.80979  1.58219  0.46346  18.52653   0.0586     0.24886  5093.56079   8134.63235  0.54411         3057.48786     20.72984  0.29824  58482.41042  2.86724  0.15832    2555.49286  49.20065  18.96417   58531.8654     50.5725       43.81687   21.93663  48.98199   41.5    0.12035  -20.38936   0.9998 
   -9.12393  0.00412  1.23292     14.53096   2.1144  1.33125  15.24046  0.05632      0.1037  4041.63431   9260.37957  0.02684         2641.63717     20.84595  0.38966  58475.47607  1.48504  0.06279    25878.8116  47.99922  18.88835  58536.84326    50.64084       43.89861   19.74297  48.26059   40.0    0.14618  -19.90506  0.99978 
   -2.65327  0.00106  2.83351     14.99157  1.77789  0.37439  15.87795  0.07673     0.05629  4917.26895   7742.77008  3.06128         2162.05421     18.14971  0.00078  58481.94673  2.29018  0.01691   13779.26086  47.47488  18.81899  58536.84326    50.74632       44.03636   17.54931  46.06693   42.5     0.1363   -19.8803  0.99937 
   -4.17308  0.00152   1.3137     14.55254  1.80146  1.14095   8.24627  0.07861     0.08954  3587.40093   3289.94466  0.21803         4366.34226     18.50465  0.00178  58480.42692  0.63306  0.01257   22664.96269  47.93212  18.71066   58531.8654    50.67049       43.93424   19.74297  48.26059   44.0    0.17065  -19.86241  0.99994 
   -2.79607  0.00163  1.13945      14.6343  1.74809  1.21118  14.73084  0.06577     0.07825  3763.92299   8097.51387  0.84606         4879.55445     18.22833  0.00094  58481.80393   1.2449  0.02402   11354.64897  48.34285  18.91162  58536.84326     50.7899       44.07273   18.10092  46.06693   44.0    0.14239   -20.0354  0.99995 
   -2.30428  0.00259  0.84772       14.602  1.75176  1.54088  22.14922   0.0509     0.36308  4888.18366    6309.8881  0.02624         2838.38202     19.41095  0.01431  58482.29572  3.15704  0.05742     7307.9272  48.79202  18.85532  58536.84326    50.75448       44.02497   18.98573  47.78133   41.0    0.16858  -19.99888  0.99996 
   -6.49694  0.00307  0.76344     14.55422  1.56109   0.8961   10.5667  0.09634     0.01302  4068.63868   8328.56201  0.19523         2263.50448     20.42958  0.14939  58478.10306  1.04343  0.03239    6581.93484  48.87837  18.81439  58534.35433    50.67361       43.96833   19.74297  43.87326   41.5    0.14692  -19.62618  0.99997 
   -4.40282  0.00876  0.87403     14.65505  2.03864  1.32089  12.14299  0.06547     0.02139  3906.33766   4525.06817  0.25117         4577.87789     17.55493   0.0002  58480.19718  1.10533  0.10635    7081.12417  48.84503  18.91664  58534.35433     50.6319       43.85836   26.79464  52.17723   44.5    0.15723  -19.81472  0.99993 
   -2.16784  0.00117  1.92188     14.48864  1.65251  1.31013   9.42087  0.12298     0.01091  5725.34173   6716.36354  0.06795         5589.51129     19.10301  0.00704  58482.43216  1.84213  0.01102   59722.44074   47.1434  18.88412  58534.35433    50.66987       43.93804   20.29458  47.39516   38.0    0.18947  -20.22244  0.99981 
    -0.1948  0.00936  0.73677     14.73199  1.87774  1.19546  12.06994  0.08179     0.25782   3542.3528   7819.43118   4.2332         2564.93619     19.52566  0.01864   58484.4052  0.90347  0.11303    3251.84836  49.29568  18.86809  58536.84326     50.8062       44.09169   18.98573  46.06693   52.0     0.1306   -19.9499  0.99997 
   -3.34708  0.00237  0.85196     14.68354  2.09035  1.15371   7.50052  0.11549     0.02468  4219.21616   7623.33609    0.171         2016.61819     20.07789  0.06647  58481.25292  0.79649  0.01781    6050.40034  48.94644  18.77662  58534.35433    50.71368       43.99043   18.10092  47.78133   40.0    0.16361  -20.02837  0.99999 
   -4.81898  0.00688  0.90566     14.53916  1.68634  1.48484   10.2034  0.09731     0.02395  4372.51622   4297.35928  0.01563         2668.30479     17.37602  0.00013  58479.78102  1.16368   0.0702   10724.24238   48.5515  18.92611   58531.8654    50.53839       43.79185   19.74297  50.45425   43.5    0.15566  -19.69633  0.99992 
   -3.25945  0.00119  0.84306     14.59881  1.76465  1.33371   16.7142  0.06068     0.35752   4644.7527    7694.0822  0.08524         2470.16736     18.32955  0.00119  58481.34055  2.15099  0.01993    7388.73939  48.79521  18.79906  58536.84326    50.74913       44.04067   18.37445  44.87071   39.0    0.16989  -20.01876  0.99999 
   -3.45636  0.00539  0.99498     14.57026  1.72214  1.45835  13.65383  0.06111     0.05145  3680.53027    5276.4617  0.85933         2406.90193     16.03335    1e-05  58481.14364  1.10332  0.07359   11455.17279  48.45028  18.71815  58536.84326    50.91156       44.23857   15.35564  43.87326   46.5    0.13473  -19.75062  0.99989 
   -2.54799  0.00471  1.00004     14.59897  1.79598  1.06988  13.76205  0.04765     0.11211   3774.8029   3707.46137  0.25807         4891.11904     19.54405  0.01944  58482.05201  1.16977  0.06485   10573.03834  48.49892  18.93317  58534.35433    50.70304       43.98813   17.54931  46.06693   42.0    0.19491  -20.39165  0.99989 
   -1.51959  0.00242  2.46697     14.49632  1.74321  1.44654  15.07049  0.08679     0.02222  5793.97468   9867.66487  0.36796         5926.04937     18.56103  0.00202  58483.08041  3.01792  0.03644  100196.46104  46.72502  18.95903  58536.84326    50.70051       43.96343   22.91901  44.77073   34.5    0.18432  -20.29579  0.99894 
   -6.16085  0.00223   0.8559     14.95141  1.85311  0.42741  23.65115   0.0455      0.4168  4058.62312    9325.1601  0.02271         4949.26368     20.41817  0.14551  58478.43915    2.324  0.05273    1576.63128  49.47417  18.83107  58536.84326    50.61047       43.82628   21.99633  54.41082   38.5    0.13684  -19.60638  0.99996 
   -2.69241  0.00794  2.09512     14.60797  1.68015  0.78051   8.10215  0.14651     0.02351  5202.92315    4882.9797  0.12945          3369.6352     19.81332  0.03615  58481.90759  1.30834  0.06434   41652.40555  47.23214  18.91247   58531.8654    50.57863       43.82933   24.60098  44.49322   43.0    0.15707  -20.15431  0.99862 
   -2.65322  0.00629  1.16574     14.61335  1.86855  1.52607   5.93491   0.2358     0.01996  5846.02373   7365.28754  0.03697         3270.97013     19.46594  0.01624  58481.94678  1.20994  0.03731   13989.88576  48.26133  18.87243  58534.35433    50.65057       43.91056   17.62392  50.05206   37.5    0.18192   -20.2879  0.99992 
   -7.17741    0.001  1.22162     14.43742  1.60623  1.43498    15.876   0.0592     0.03893   4191.4713   7744.75758  0.00403         3058.19126     20.31213  0.11399  58477.42259   1.6638  0.01595   29693.33157  47.82812  18.99989  58539.33219    50.94953       44.19464   21.93663  49.52341   42.5    0.15149  -19.71321  0.99992 
   -3.07508  0.00191   1.5517      14.6239  1.96691  1.50615  10.45954  0.08449     0.34686  3932.76577   8528.71813  0.54711         3412.48349     20.07416   0.0659  58481.52492  0.96502  0.01993   24855.50242  47.78559  18.89014  58534.35433    50.76662       44.08118   17.17824  43.87326   41.0     0.1384  -20.04791  0.99989 
   -4.99838  0.00235  1.53657     14.65876  2.10954  1.39849   8.99103  0.08999      0.0143   3645.9123   5724.43745  0.27314         3617.62274     19.60162   0.0222  58479.60162  0.71293  0.02116   22263.11658  47.87234  19.00033  58534.35433    50.72913       43.96534   20.17373  54.41082   46.0    0.14677  -19.65735   0.9999 
   -1.74354  0.01481  1.42199     14.57393  1.63921  1.01931   6.94464  0.17689     0.02242  5599.86596   7828.94774  0.56612         3024.25264     18.76723  0.00325  58482.85646  1.29907  0.10288   21896.98046   47.8373  18.78201  58534.35433    50.63667       43.86956   20.29458  51.54489   39.5    0.16605  -20.23346  0.99931 
   -2.66731   0.0026  1.30418     15.11824  2.07844  0.34716  22.23706  0.04797     0.12088  4730.13684   4236.42085   0.3973         2952.82114     18.58724  0.00215  58481.93269  2.96792  0.05785    1904.36463  49.07616  18.86488   58531.8654     50.5003       43.73013   25.60819  51.72163   43.0    0.17028  -20.20295  0.99984 
   -4.02975  0.00232  1.19036     14.91501  1.78059  0.27655  18.13702  0.08989     0.06382  6112.38253   9043.73202  1.72977         2579.26507      21.2378  0.96056  58480.57025  4.04217  0.04208    3465.15196  48.82833  18.61946  58534.35433    50.70567       43.94122   32.14771  48.26059   43.0     0.1236  -20.74484  0.99978 
   -1.35028  0.00217  1.04189     14.56479  1.69942  1.53602  32.28087  0.02406     0.07678  3393.14599   6340.91165  2.05154         2812.28192     20.21708  0.09158  58483.24972  2.21706  0.06999   12710.68748  48.35933  18.80772  58534.35433    50.88225       44.17565   18.10092  46.06693   49.0    0.14062  -19.90583  0.99988 
   -1.71979  0.00125  1.57307      14.7033  1.77563  0.90406  20.30898  0.06268     0.01763  4750.03774   6812.78454  4.52005         2052.37339     19.34391  0.01226  58482.88021  2.73344  0.02535   15997.98673  47.92063  18.84565  58534.35433    50.80033       44.10533   18.10092  43.87326   44.5    0.10911   -19.9422  0.99983 
   -4.61408  0.00583  1.95717     15.00397  1.71353  0.34255  10.83769  0.07708     0.01827  3965.48344   7575.07844  0.81599         2082.18588      17.1098    7e-05  58479.98592  1.01661  0.06317     5984.4782  48.14245  18.82984  58534.35433    50.57811       43.84537   20.17373  47.82983   42.5    0.14628  -19.66769  0.99899 
   -1.20784  0.00177  0.98404      14.5751  1.64512   1.0776   7.91653  0.10456     0.01766  3868.19866   5363.16998  1.07506         2707.53894     18.12296  0.00074  58483.39216  0.70661    0.014   10467.47623  48.47918  18.76144  58534.35433    50.76046       44.00609   18.11355  52.16866   46.5    0.12281  -20.04648  0.99998 
   -3.64314  0.00126  1.39913     14.48064  1.63152  1.19459   5.81138  0.14208     0.03855  4378.47816   8395.15456  0.38365          2785.4717     19.86249  0.04048  58480.95686  0.66459  0.00732   32422.05573  47.67888   18.7637  58534.35433    50.72042       44.01611   17.17824  46.06693   38.5    0.16989  -20.04644  0.99995 
   -4.04679  0.00102  0.86029     14.42482  1.36513  1.14747   8.14588  0.10037     0.03191  3592.44982   9651.04528   0.7933         2002.75816     18.73672  0.00303  58480.55321  0.62711  0.00832   13263.07221  48.41208  18.96558  58534.35433    50.56539       43.78146   20.11979  55.18616   36.5    0.13988  -19.66072  0.99998 
   -9.25769  0.00221  1.08049     15.02646  1.92315  0.34271  20.95927  0.02939     0.28612  2907.64009   5434.01278  0.26094         2184.78927     19.75102  0.03131  58475.34231  1.05702  0.04624    1845.68356  49.21946  18.80707  58536.84326    50.84056       44.08533   19.37288  52.46659   51.0    0.13551  -19.33936   0.9999 
   -3.99869  0.00128  0.93539      14.7393  2.00764  0.91641  13.66012  0.05297     0.19698   3319.7017   6086.66666  0.57019         3200.44058      19.3524  0.01251  58480.60131  0.89801   0.0175    5418.51842  48.89566  18.90271  58534.35433    50.65631       43.89601   21.56556  50.45425   47.0    0.14107  -19.68125  0.99999 
   -3.05172  0.00202  0.84846     14.68245  1.63214  0.59854   8.04241  0.13253      0.1486  5227.71948   7366.59383  0.23824         3609.07358     20.80821  0.35723  58481.54828  1.31111  0.01622    4709.20256  48.95139  18.80355  58536.84326    50.79006       44.07175   19.74297  46.06693   40.0    0.17198  -20.73469  0.99998 
   -2.30877  0.00166  0.79831     14.60374  1.59507   0.9182  12.01415   0.0671     0.03986  3774.07432   5855.68138  0.33641         4070.32378     17.12126    7e-05  58482.29123   1.0208  0.01995    5854.09245  48.89982  18.89181  58534.35433    50.69873       43.97055   18.37445  48.32719   43.5    0.15725  -19.97198  0.99998 
   -4.76776  0.00178  0.87166     14.52715  1.61871  0.96174   7.42697  0.09874     0.01485   3807.6814   8431.84296  0.53931         2003.66346     17.64109  0.00024  58479.83224  0.64233  0.01319   10077.84359  48.59395  18.83768  58536.84326    50.63212       43.86001   20.17373   52.6755   39.5    0.15897  -19.80943  0.99998 
    -2.3253  0.00284  0.98457     14.77373  1.52477  0.45271    5.8578  0.13801      0.4038  4398.49291   8094.73659  0.09304         4322.25707     20.19651  0.08735   58482.2747  0.67604  0.01665    3890.95995   48.8755  18.94329  58534.35433    50.86419       44.16126   17.54931  46.06693   38.5    0.18449   -20.1504  0.99996 
   -0.24581  0.00194  1.50115     14.95202  1.82957  0.51791  11.01937  0.13909     0.01434  5368.47078   7258.48762  3.82805         2347.63973     16.82913    4e-05  58484.35419  1.89446  0.02136    4775.11457  48.49936  18.83366  58534.35433    50.69318       43.97117   17.54931   47.8422   46.0     0.1428  -19.98111   0.9999 
   -7.96107  0.00111   0.7286     14.40405  1.56987  1.31713  16.61409   0.0428     0.19731  3316.07486   9503.56561  0.02314         3023.22031     16.00005    1e-05  58476.63893  1.08981  0.01839   12038.24743  48.65917  18.83478  58534.35433    50.72792       43.98857   22.36739  45.67964   39.0     0.1358  -19.58136  0.99998 
   -4.55434   0.0012  0.83947     14.54876  1.80617  1.20728  28.37604   0.0225     0.01534  3792.68109    8289.9301  0.08221         4177.54191     17.83268  0.00038  58480.04566  2.43485  0.03403     9442.1131  48.70252  18.79664  58534.35433    50.68025       43.94509   20.29458  47.32975   38.5    0.17289  -19.82985  0.99997 
   -6.61643  0.00162  1.33532     14.85842  1.97038  0.52216  32.63231  0.03081     0.26538  4332.43716   7729.89807  0.30094         2221.83714     20.51054     0.18  58477.98357  3.65376  0.05293    6261.70583  48.51553  18.81456  58534.35433    50.67138       43.95814   21.93663  43.87326   43.5      0.142  -19.80903  0.99978 
   -3.02891  0.00114  1.01289     14.61869  1.89303   1.2618   12.6385  0.06134     0.35876  3778.36738   7866.23925  0.27166         5511.61318     18.10043   0.0007  58481.57109  1.07629  0.01445   10440.24108  48.51617  18.78747  58534.35433     50.6758       43.94873   18.10092  49.58882   41.5    0.17818  -19.97459  0.99998 
   -3.37565  0.00128  1.78579     14.59667  1.98951  1.41156  23.06594  0.04136     0.13182  5550.24246   7535.54885  0.09577         2292.95713     18.10105   0.0007  58481.22435   4.2386  0.02959   37746.49238  47.48706  18.75295  58536.84326    50.82549       44.10655   18.47774  45.69011   37.0    0.18643  -20.22732  0.99972 
   -5.23697  0.00785  1.61482     14.95767  1.79411  0.39126  19.57235  0.06319     0.04468  5063.62141   8745.67702  0.95788         2079.38102     20.36754   0.1295  58479.36303  2.99359  0.15358    5279.32774  48.38387  18.80109  58534.35433    50.65833       43.93224    18.4502  48.25145   39.5     0.1444  -19.88034  0.99867 
