 texplosion  fnickel    Pspin  log(Bfield)      Mns  thetaPB   mejecta    kappa  kappagamma      vejecta  temperature    alpha  cutoff_wavelength  log(nhhost)      A_V         MJD0   kenergy  mnickel           TSD   log(L0)  Peak_mag     Peak_MJD  log(E_rad)  log(Peak_lum)  Rise_Time    E_fold  tau_1  delta_m15     r_peak     frac 
   -6.94557  0.00785  2.65522     14.40696   1.4685  0.93315  13.25194  0.02561     0.28593   4458.12939   6027.61994  3.05033          3740.0959     16.70443    3e-05  58731.39443   1.57113  0.10396  147559.88684  46.41855  19.56059     58760.39    50.81563       44.23258    17.1609  30.36373   35.0    0.30521  -20.87699  0.99518 
   -3.60524  0.00817  1.27927     14.63897  1.69934  0.89235  11.46739   0.0618     0.01381   7196.04444   4783.57222  3.65562         3100.99552     17.14892    8e-05  58734.73476   3.54225  0.09374   13616.98797  48.15112  19.57461  58762.48794    50.83591       44.24649    17.1609  30.36373   34.5    0.27461  -21.25351   0.9996 
   -4.05894  0.00375  1.65859     14.67763  1.88446  0.90594  33.84279  0.01457     0.37403   5631.00708   3480.84709  2.63979         3620.60049     16.90214    4e-05  58734.28106   6.40126  0.12678   21242.74845  47.77735  19.61649  58762.26488    50.96678       44.40887   12.65559  31.63896   33.5    0.27775    -21.012  0.99894 
   -1.74627  0.02796  0.93651     14.65085  1.62946  0.85322  10.60103  0.04193     0.16148   5234.93979   6059.14057   2.9098         3710.22691     20.09101  0.06851  58736.59373     1.733  0.29644     6625.0248  48.71667  19.62609     58763.28     50.8363       44.24543   15.88566  31.63896   33.0    0.27559  -21.28128  0.99959 
   -5.52662  0.00385  1.16755     14.50591  1.64412   1.1005  13.66662  0.03754     0.03019   5814.38464   8344.91866  2.07146          3739.4396     20.07064  0.06537  58732.81338   2.75611  0.05268   20252.78245  48.04374  19.58616      58761.4    50.80874       44.22477    17.1609  30.36373   33.5    0.29331  -20.84447  0.99979 
   -3.78201  0.03587  1.30484     14.55467  1.76771  1.31913   8.21089  0.06473     0.26357   5721.94752   6766.45368    2.972         3600.33838     20.17229  0.08261  58734.55799   1.60363  0.29454   21726.41908  47.94816  19.60189  58762.26488    50.77997       44.19949   13.93082  32.47299   35.0    0.28252  -21.19952  0.99872 
   -1.44334  0.00204  1.10576     14.77541   2.0343  0.99477   8.14966  0.06005     0.15019   4737.44558   7697.53976  3.90611          3562.8625      19.4739  0.01654  58736.89666   1.09108  0.01665    6497.21781  48.67721  19.63795     58763.39    50.86456       44.27478    15.1328  33.38028   35.5     0.2384  -20.95562  0.99998 
   -3.43446  0.00951  1.11825     14.64406  1.85556  1.22668   9.59988  0.05504     0.15365   5036.25146   6887.46133   3.1209         3772.99348      18.2967   0.0011  58734.90554   1.45247   0.0913   11098.24291  48.39499   19.5437  58762.48794    50.87536       44.32823   11.73143  30.45386   34.5    0.28665  -21.00391  0.99983 
   -3.77949    0.017  1.26958     14.71528  1.96514   0.9519  24.83362  0.03388     0.04289    8444.6658    3330.1735  2.84073         3275.64409     19.71267  0.02867  58734.56051  10.56409  0.42211   10913.43738  48.31696  19.60482     58763.28    50.80246       44.23797   13.14438  33.25943   35.0    0.27282  -21.19332  0.99881 
   -3.28068  0.00454  0.93562     14.59743  1.65142   1.0948  19.28795  0.04241     0.27538   7631.20189   3108.61484   2.9773          3557.9387     16.64278    2e-05  58735.05932   6.70037   0.0876    8570.52135  48.61149  19.57185      58761.4     50.8521       44.31492   10.54632  31.63896   34.5    0.27951    -21.181  0.99989 
   -4.45655  0.00214  1.83564     14.56157  1.92779  1.47972  15.61943  0.03853     0.19739   6520.53011   3295.65059  2.55674          3574.4057     17.91433  0.00046  58733.88345   3.96149  0.03336    45425.5742  47.36903  19.57587  58762.26488    50.81293       44.24006   12.65559  31.63896   34.0    0.28823  -21.07041  0.99962 
   -2.65086  0.00356  0.91551      14.6863  1.75772  0.94912  15.00576  0.06191     0.01695   8221.95697   4420.96449   3.6093         3313.99271     16.30072    1e-05  58735.68914   6.05112  0.05345    5800.78704  48.82698  19.56329      58761.4    50.81785       44.25203   12.65559  31.63896   37.0    0.23412  -21.46399  0.99995 
    -4.4239  0.00464  1.45753     14.52019  1.64596  1.18044  11.11907  0.06055     0.22008   6803.68714   6836.13626  2.92704         3439.13215     18.02387  0.00059   58733.9161   3.07032  0.05164   29586.82462  47.68693  19.60148  58762.26488    50.89332       44.33087   10.86219   31.3231   34.5    0.27821  -21.02737  0.99961 
   -3.45553  0.00149  1.79341     14.57957   1.7582  1.11307  13.96824  0.04645     0.03794   6390.46928    6010.4702  3.84606         3521.08574     16.10534    1e-05  58734.88447   3.40278  0.02078   36400.40581  47.44545   19.5778     58762.29     50.8008       44.22974   13.14438  31.15017   35.0    0.29728  -21.09475  0.99975 
   -5.84771  0.00427  1.90105      14.4848  1.73522  1.49221  19.41517  0.02571     0.12574   5554.75116   6058.21478  2.68639         3729.75362     16.60329    2e-05  58732.49229   3.57353  0.08298   62454.37221  47.15465  19.62664     58761.29    50.77196       44.18637   16.40197  32.47299   35.5    0.28689  -20.86224   0.9987 
   -4.72843  0.01162  2.06428     14.64121  1.79969  0.82656  16.31074  0.04142     0.07559   7202.43704   7433.40041  3.17126         3371.65629     17.12031    7e-05  58733.61157   5.04731  0.18948   37165.08461  47.32437  19.58858  58762.48794    50.81446       44.23931   12.65559  33.74823   35.0    0.28898  -21.04124  0.99659 
   -2.90798  0.00473  1.40044     14.51643  1.60894  1.22424   25.7164  0.01712     0.01137   5013.85225   7143.62205  3.00661         3707.45652      19.6005  0.02214  58735.43202   3.85638  0.12162   27165.49949  47.74884  19.55235  58762.26488    50.83406       44.29057   11.73143  30.45386   35.0     0.3311  -21.08018  0.99918 
   -4.65291  0.01481  1.84692     14.50683  1.69483   1.1119  13.71632  0.06714     0.11159   9510.48379   4421.84301  4.81828         2739.57521      16.3372    1e-05  58733.68709   7.40065   0.2032   52020.65041   47.2489  19.61664     58763.35    50.84462       44.28037   15.25365  33.25943   35.0    0.27084  -21.08565  0.99688 
   -7.01816  0.01175  1.25943     14.61214  1.85827  1.09768  29.51297  0.03083     0.01722   9000.23194   6892.93737  2.39364         3044.73811     18.33426   0.0012  58731.32184  14.26092  0.34665   16330.19174  48.12461  19.53774  58762.26488    50.81886       44.23797     17.236   29.5297   34.0    0.29072   -20.6581  0.99878 
   -4.13387  0.00581  1.38548     14.57256  1.84703  1.49814  16.20367  0.04114     0.17286   7159.96165   6761.28727  2.70928         3400.90277     18.99845  0.00554  58734.20613   4.95521  0.09414   23570.94768  47.87974  19.58887  58762.26488    50.76393       44.16325   17.49526  32.67973   34.0    0.25108  -21.24127  0.99955 
   -5.42787  0.01612  2.45459     14.50874   1.8735  1.48014   10.3212  0.04808      0.4248   5509.10753   8562.58728  3.30265         3528.16417     19.50389  0.01773  58732.91213   1.86862  0.16643  100679.51388   46.7586  19.59076  58762.26488    50.87693       44.30088   13.93082  32.47299   35.5    0.28555  -20.96471  0.99568 
   -2.23685   0.0012  1.13169     14.61718  1.86408  1.41003  20.97465  0.02316     0.16434   4809.91567   7740.73203   4.1236         3512.99871     20.26238  0.10165  58736.10315   2.89465  0.02507   12923.52393  48.32047  19.61896  58762.26488    50.92013       44.32095   15.88566  33.74823   36.0    0.24575  -21.25553  0.99995 
   -2.94571  0.05723  0.86117     14.64943  1.77072  0.77718  10.22677  0.06473     0.21417    8942.1195   5143.23432   3.4431          2455.1679     20.53996  0.19261  58735.39429   4.87805  0.58529    6127.35013  48.85955   19.6377     58764.13    50.91637       44.35433   13.46597  32.56312   33.0    0.32683  -21.24974  0.99933 
   -3.81356  0.01095  0.98861     14.62992  1.86913   1.2057  12.61545  0.04799      0.3431   6289.91584   8244.00413  2.15605          3880.1793     18.21369  0.00091  58734.52644   2.97728   0.1381    9325.27968  48.58077  19.59701  58762.48794    50.81342       44.21085   13.14438  35.36869   33.0    0.28948  -21.15604  0.99983 
   -4.28603  0.00898  1.91903     14.51767  1.69836  1.06081  15.28233  0.05046      0.2329   7907.95837    4621.0799  3.92021          3126.4848     19.86982  0.04117  58734.05397   5.70093  0.13719   53539.10825  47.20404  19.61392  58762.48794    50.84309       44.26411   12.92681  33.47701   35.0    0.27352  -21.15394  0.99767 
   -2.24652  0.00111  1.15299     14.52534  1.58014  1.30077  16.91019  0.04355     0.08196   6776.09264   4241.33002  3.99125         3542.81404      17.5953  0.00022  58736.09348   4.63163  0.01879   17357.63602  48.10439  19.59293  58762.48794    50.82223       44.25298   16.40197  30.36373   35.0    0.28901  -21.21725  0.99994 
   -4.23852  0.07505  1.25132     14.55296  1.79248  1.31154  10.53668  0.05048     0.04138    6762.7604   6756.31781  2.27597         3522.56491      20.2452  0.09771  58734.10148   2.87461  0.79081   20421.12193  48.01748  19.59518     58762.29    50.78235       44.19915   14.75625  31.64756   34.0    0.31098  -21.25097  0.99703 
   -2.28008  0.00365  1.44222     14.55681  1.86396  1.44612  26.71949  0.02221     0.05898   6232.74165    6352.2403   3.3393         3504.25963     20.35051  0.12452  58736.05992   6.19175  0.09756   27713.80704  47.77852  19.59994     58763.28    50.81665       44.24941   12.65559  33.74823   35.0    0.29404  -21.27272  0.99945 
   -3.89113  0.02642  1.80127     14.62339   1.6348  0.81715  12.41887  0.04537     0.35804   6119.36645   7735.58407  3.21275         3594.91601     18.79647  0.00348  58734.44887    2.7741  0.32806   27903.60161  47.52549  19.58763     58763.28    50.83813       44.26359   15.61553  31.15017   34.5    0.28771   -21.0799  0.99532 
   -6.29687   0.0012  2.48869     14.55168  2.01875  1.37128  19.64314   0.0327     0.06985   6711.83802   7632.85512  2.95658         3419.49731     19.65615  0.02517  58732.04313   5.27863   0.0236   91512.74436   46.8205  19.52953  58762.26488    50.81322       44.22373   13.14438  33.25943   35.5    0.27805  -20.88874  0.99944 
   -3.08575  0.00878  0.90508     14.53699  1.49947  1.06986   15.2346  0.03301     0.01059   5310.15488   8395.62723  2.87808         3688.78757      18.8514  0.00395  58735.25425   2.56255  0.13378    9619.53799  48.54825  19.61873  58762.26488    51.04701       44.51814   16.87411  27.11646   33.5     0.2464  -21.77756   0.9998 
   -4.43352  0.00515  1.44407     14.56067  1.71803  1.12793  22.40001  0.02694     0.06113   6235.55677   4723.62908  2.66316         3566.35375      16.7612    3e-05  58733.90648   5.19548  0.11541   25157.92147  47.78402  19.61247  58762.26488    50.77041       44.17839   13.93082  34.13491   34.5    0.27065  -21.00864  0.99923 
   -4.79568  0.00613  1.04136     14.49559  1.45121  0.89602  16.64598  0.05781     0.20365    9690.1312   6448.09483  4.07214         2599.46775     19.15665  0.00797  58733.54432   9.32386  0.10204   14912.80653  48.22181  19.54446     58761.36     50.8207       44.24269   15.12673  31.63896   33.5    0.28287  -20.98511  0.99963 
   -6.71303  0.00148  1.48543     14.53188  1.86396  1.41035  14.76609  0.04863     0.12336   8003.42128   8664.09638   1.7682         3441.55083     18.59305  0.00218  58731.62697   5.64214  0.02192   32975.74076  47.67738  19.62986  58762.26488     50.8063       44.21919   14.76485  33.74823   30.0    0.32277  -20.77371  0.99985 
   -2.33729  0.00104  1.54002     14.65279  2.04085  1.41014  14.83593  0.03348     0.13125   5159.21936   9179.30918  3.21985         3568.02925     16.53883    2e-05  58736.00271   2.35564  0.01541   22238.22652   47.8565  19.57266     58761.29    50.82684       44.26619   13.46597  32.56312   34.5    0.26932   -21.0679  0.99992 
   -4.35799  0.00383  1.86732     14.71195  1.77763  0.64506  25.07205  0.01805     0.01319   5485.46659    7679.6394  2.30455         3682.12856     16.66569    3e-05  58733.98201   4.50033  0.09613   21686.37997  47.64006  19.54826     58762.29    50.84147        44.2954   14.76485   29.5297   34.0     0.2942  -21.05358  0.99861 
   -2.00962  0.00556  0.92326     14.84004  2.03501   0.7305   9.46185  0.06195     0.09377   5493.33785   6813.82409  3.51476         3519.52837     20.43013  0.14958  58736.33038   1.70324  0.05265    3364.67848  49.11982  19.56835  58762.26488    50.90197       44.35237   12.65559  31.63896   36.0    0.25335  -21.02599  0.99996 
    -2.9648   0.0019   1.3324     14.55821  1.47961  0.86459  10.65922  0.05387     0.03203   5914.60121   4471.65797  3.36306         3616.35423     17.28457  0.00011   58735.3752   2.22435  0.02026   18655.95685  47.91891  19.58882     58763.28    50.83224       44.25027   16.04008  32.47299   34.5    0.29567   -21.0714  0.99986 
   -3.89516  0.00339   1.5148     14.64776  1.54723  0.64435  19.68063  0.02335     0.08744   4968.70723   4966.82968  2.65733         3818.02835     16.40894    1e-05  58734.44484   2.89836   0.0667   16694.37101  47.87512  19.61153  58762.26488    50.80976       44.21919   11.73143  34.67239   34.5     0.2719  -21.08696  0.99931 
   -6.00415  0.00148  1.87268     14.63718  1.98432  1.09366  17.04876  0.04823     0.22871   7591.79728   5500.59255  3.32592         3449.40932     16.59125    2e-05  58732.33585   5.86151  0.02525   34355.25383  47.48554  19.56958  58762.48794     50.7987       44.20409   18.54167  31.09222   35.5    0.27892  -20.84088  0.99972 
   -5.14738  0.00154  1.58818     14.44863  1.62305  1.49212  13.90986  0.05339     0.01341   7987.65896   8602.76224  2.17959         3597.93784     18.60619  0.00224  58733.19262   5.29406  0.02137   48159.41314  47.39469  19.57086     58760.39    50.81066       44.23533   15.12673  31.63896   31.0    0.31278  -20.98899  0.99977 
   -7.10282  0.00234   1.3418     14.45671  1.62994  1.23245  15.01045  0.04727     0.06002   6920.09026   6806.16386  2.01969         3490.30988     16.81686    4e-05  58731.23718    4.2879  0.03516   33261.27329  47.70371  19.57675     58761.29    50.77759       44.21243   13.14438  31.15017   35.0    0.28603  -20.68099  0.99976 
   -6.24376  0.00118  2.20071     14.44208  1.57042  1.13621   8.48054  0.08991     0.38306    7342.8315   7742.51954  3.78192         3433.98789     16.10315    1e-05  58732.09624   2.72758  0.01002   92212.06435  46.81495  19.61182  58762.26488    50.81314       44.23214   13.45554  34.13491   35.0    0.28401  -20.89705  0.99973 
   -4.47358  0.00269  1.69863     14.49949  1.63601  1.19741  10.96297  0.04876     0.01836    5855.1238   9963.59612  2.77245         3623.91328     18.08397  0.00067  58733.86642   2.24196  0.02946   43935.84002  47.37961   19.5758     58760.39    50.79521         44.216   16.40197  30.36373   32.0    0.29469    -21.017  0.99963 
   -4.20227  0.01765  1.82092     14.75484  1.84883  0.65634  14.52969   0.0556     0.09576   8435.05175   5368.13193  3.13685         3308.85192     19.45999  0.01602  58734.13773   6.16679  0.25638   17604.07877  47.76955  19.59865  58762.26488    50.77441       44.18621   14.75625  31.64756   34.5    0.29365  -21.20647  0.99694 
   -4.67647  0.00875  0.94186     14.52861  1.63185  1.28042   13.6067  0.03479     0.01112   4841.50429   9142.42991  2.55825         3724.18443     18.45512  0.00158  58733.66353   1.90257  0.11904    11782.7261   48.4623  19.56997  58762.48794    50.86182       44.30914   10.91427  31.27102   35.0    0.27336  -20.81793  0.99982 
   -3.32554  0.00411  1.64244     14.49987  1.68417  1.46856  14.64266  0.03938     0.31372   6457.58392   7541.29696  2.78659         3583.52189     16.59366    2e-05  58735.01446    3.6424  0.06023   42212.88778  47.43881  19.62054  58763.59259    50.87571       44.28865   14.20258  34.67239   34.0    0.27283  -21.11614  0.99937 
   -4.99132  0.01047  1.31084     14.63183  2.03719   1.5344   8.87722  0.05629     0.11417   6045.57994   5726.82421  1.98691         3767.17001      17.5226  0.00019  58733.34868   1.93544  0.09291   17713.06432  48.09448   19.6162     58763.28    50.93339       44.35676   16.04008  30.36373   33.0    0.32398  -20.85892  0.99972 
   -4.09611  0.01581  1.90309     14.52372  1.78727  1.45188  10.11289  0.05538     0.04344   6255.54971    3136.4587  2.84171         3569.53908      16.1224    1e-05  58734.24389   2.36066  0.15988   53887.90848  47.23063  19.63872      58761.4    50.77041       44.17441   16.87411  31.63896   33.5    0.28632   -21.1338   0.9977 
   -2.81061  0.02111   1.3553     14.67716  1.80522  0.94895  10.29531   0.0533     0.02237   6090.42018   7677.73849  2.99692         3566.17676     16.33462    1e-05  58735.52939   2.27804  0.21737   13617.81236   48.1272  19.59844  58762.48794    50.82004       44.23994   15.61553  33.25943   33.5    0.29325  -21.10804  0.99909 
   -5.95975  0.00417  2.30037     14.81221  2.12921  0.66708  16.10263  0.03973     0.03905   6357.39806    7072.1965  3.09715         3456.86828     17.15313    8e-05  58732.38025   3.88224  0.06716   24843.83204  47.47825  19.62922  58763.59259    50.88303       44.32383   11.73143  32.56312   36.0     0.2748   -20.8518  0.99882 
   -5.07485  0.01234  1.95485      14.4843  1.72106  1.26779  15.30507  0.04307     0.02759   6844.73475   6729.00967  3.22601         3454.93344     20.03057  0.05961  58733.26515   4.27736   0.1889   65650.49748  47.10518  19.58914     58761.36    50.80996       44.24548   12.65559  31.63896   35.5    0.27723   -21.0462  0.99672 
   -5.61232  0.00333  1.76206     14.62799   1.9969  1.23644  16.16739  0.04406     0.03234   6661.12865   4502.41433   3.4298         3526.26792     19.69459   0.0275  58732.72768    4.2792  0.05386   31933.13229  47.57292  19.61193      58761.4    50.82504       44.25062   14.20258  32.56312   36.0    0.27331  -20.84696  0.99952 
    -7.9407  0.00494  2.91315     14.45632  1.83215  1.20435  11.08357  0.03142     0.16199   4287.42798   8237.67401  3.20144          3731.3872     20.13862  0.07644   58730.3993   1.21535  0.05476  176544.48428  46.35623  19.59053  58762.48794    50.84911       44.27299   15.25365  31.15017   36.5    0.29756  -20.90421   0.9978 
   -3.56841  0.00567  2.06678     14.70941  1.99214  0.90377  16.45172  0.02991     0.23552   5522.56756   5705.36238  3.22061         3603.95286     17.23372   0.0001  58734.77159   2.99309  0.09332   30122.85513  47.45868  19.58602     58761.29    50.78166       44.21682   12.65559  33.74823   34.5    0.30719  -21.04741  0.99868 
   -4.27687  0.00446  1.58536     14.40138  1.38721  1.10518  10.31424  0.06518     0.32953   6939.03353   4926.63539  3.28523         3480.52618     16.23002    1e-05  58734.06313   2.96253  0.04602   50985.77226  47.30328  19.65263     58761.29    50.80868       44.23569   15.88566  31.63896   34.5    0.28384  -21.13388  0.99932 
   -3.07871  0.00378   2.0551     14.61771  1.87666  1.11649  28.19631  0.01939     0.24031   6162.80161   4895.35353  3.19827          3625.9263     18.46578  0.00162  58735.26129   6.38816  0.10662   42799.73072  47.28512  19.58264  58762.26488    50.81965       44.24258   13.46597  32.56312   32.5    0.31739  -21.06666  0.99834 
   -7.38018  0.00309  2.55542     14.45854   1.6715  1.06161   8.44868  0.05492     0.45352   5643.05753   8044.53019  2.57804         3701.05622     16.73053    3e-05  58730.95982   1.60489   0.0261  122675.53767  46.58827  19.58215     58761.29    50.78906       44.21602   13.93082  30.36373   35.0    0.30205  -20.84535  0.99909 
