 log(Bfield)      Mns    Pspin  cutoff_power  cutoff_wavelength  fnickel    kappa  kappagamma   mejecta  log(nhhost)  temperature  texplosion  thetaPB     vejecta      A_V        MJD_0   log(KE)     M_Ni  Peak_mag     Peak_MJD 
     14.6639  1.65801  1.31417       3.93421         3204.26439  0.00774  0.03567     0.02158   18.1084     16.96465   8078.63057    -1.78395  0.83838  6371.73498    5e-05  58736.55605  52.26086  0.58258  19.60776  58762.48794 
    14.56365  1.63983  1.23058       3.70652         3304.74121  0.00482  0.03492     0.06001  15.35758     19.04602    3021.9189    -2.45441  1.20634  5453.08697  0.00618  58735.88559  52.11167  0.35121   19.5676     58761.32 
    14.66792  1.89184  1.08911       2.09649         3618.83517   0.0073  0.03432     0.18543   12.6596     17.37055   7122.50368    -5.64035  0.96966  4197.27502  0.00013  58732.69965  51.86735  0.51164   19.5896     58762.29 
    14.93175  1.96971  0.72013       2.47567         3741.29122  0.00806  0.03157     0.15914  10.84575     17.60965   3012.68716    -3.34592  0.58596  3312.50406  0.00023  58734.99408  51.64764  0.54696  19.61378     58762.29 
    14.57924  2.09797  1.64307       1.36324         4085.18023  0.00664  0.05868     0.07375   6.36809     16.57543   9031.79831    -7.41848  1.46048  4258.09765    2e-05  58730.92152  51.81346  0.39934  19.61393     58762.29 
    14.38313  1.31354  0.87708       1.51504         3513.67543  0.00514  0.02657     0.14638  22.89075     16.62349   6958.28727    -6.29351  1.05568  5997.88186    2e-05  58732.04649  52.22747  0.40424  19.57192     58762.29 
    14.70561   1.7835   1.7822        3.5813         3346.47476  0.00166  0.01944     0.01868  26.73931     17.83954    8546.0748     -2.1874  0.77721  5413.11245  0.00038   58736.1526   52.1506  0.13416  19.61582  58762.48794 
    14.75415  1.94729  1.57808       2.38704         3624.01441  0.04772  0.06144     0.03712   7.56814     16.89101    8272.4735    -4.19024   0.8101  4955.54434    4e-05  58734.14976  51.96287  2.99082   19.6325     58761.29 
    14.50406  1.65963  1.58272       4.88323         3108.62138  0.01033  0.03293     0.01073  24.11076     18.07595   6953.10811    -2.63013  1.43339  7059.30054  0.00066  58735.70987  52.37312  0.82014  19.62196      58761.4 
    14.73182  1.75444   1.3718       2.52556         3349.08068  0.00332  0.05293     0.05107  10.84599     17.24627   3913.72609    -3.20136  0.69576  6006.47015   0.0001  58735.13864  52.16457  0.22513  19.61444     58761.29 
    14.55138   1.6224  1.25061       3.61097         3255.38732  0.01111   0.0512     0.04162  13.98815     17.81766   9876.37015    -4.01664  1.12582  6476.54073  0.00037  58734.32336  52.25295  0.79492  19.62406     58761.29 
    14.46378   1.5726  1.46988       3.76968          3270.3073  0.00138  0.02764     0.20677  25.89125     16.10872    3541.9873    -4.70829  1.48762  6400.51917    1e-05  58733.63171  52.29363  0.11085  19.63652     58761.29 
     14.5644  1.70438  0.84151       2.87892         3303.73424  0.00288  0.05083     0.01544  13.35021     19.82928   3003.42407    -2.54732  1.51246  6467.06754   0.0375  58735.79268  52.24756  0.20396  19.60378      58764.3 
    14.37807  1.64201  1.62124       0.85142         4011.18428  0.00156  0.07959     0.29612   4.39722     16.30566   8190.81473    -8.35069  1.34978  5343.13961    1e-05  58729.98931  51.97014  0.08569  19.57987     58761.36 
    14.47791  1.92457  4.02117       2.91015         3407.58359  0.00748  0.07984     0.01657   4.92003      16.1522   9156.27176    -8.42194  1.04089  5332.39684    1e-05  58729.91806  51.98108  0.42208  19.57859      58761.4 
    14.53029  1.61451  1.44052       2.68862          3369.7069  0.00509  0.06748     0.15732   8.18761     19.85539   9517.99497     -4.4619  0.99809  5589.58056  0.03982   58733.8781  52.07526  0.32492  19.58935     58762.29 
    14.59873  1.82326  1.03333        1.9615         3567.25965  0.01772  0.02175      0.0108  22.46948     18.75224    9446.2445    -3.63791  1.52931  5525.09236  0.00314  58734.70209  52.15467  1.38904  19.59208      58761.4 
    14.71998  1.91048  0.91567       4.25129         2927.29853  0.02866  0.06777      0.0538  13.21201     19.98486   4406.08851    -3.17375  0.96061  7905.49641  0.05365  58735.16625  52.42108  2.02737  19.63408     58761.29 
     14.7081   2.0059  1.86963       1.47403          3524.0136  0.00714  0.01976     0.16177  25.74438     18.72104   7874.97404    -7.00316  0.74694   5829.9182  0.00292  58731.33684  52.21208  0.57351  19.55989  58762.48794 
    14.47966   1.7848     2.37       1.98383         3603.26671  0.00226  0.05502     0.10831   8.97896     18.26385   9785.60968    -5.73418  1.24071  5795.29551  0.00102  58732.60582  52.11564  0.14706  19.62051     58760.39 
    14.51156  2.06274  4.02963       3.09937         3436.66128  0.00242  0.07414     0.04045   5.58454     16.89314   3932.01992    -7.23534  1.18946  5251.11344    4e-05  58731.10466  51.98161  0.14126  19.56621     58762.29 
    14.49456  1.61938  1.19219       2.39114         3544.09548   0.0028  0.02599     0.48929  16.81442     17.14082   7040.54741    -5.68518  1.28553  4348.36228    8e-05  58732.65482  51.92277  0.20763  19.60394     58762.29 
    14.70544  1.88826  1.37682        2.5465         3344.66618  0.02475  0.04426      0.0502  11.38506     18.24471   9856.77927    -4.34324  0.88247  5167.39291  0.00098  58733.99676  52.03834  1.69716  19.59369  58762.48794 
    14.51014  1.71496  1.22976       1.67198          3653.5631  0.00256  0.03774     0.09716  13.79204     16.91775   6973.37596     -5.0071  1.40754  5613.35406    5e-05   58733.3329  52.12746  0.18281  19.63659  58763.59259 
    14.56166  1.85696  1.29978       4.59479         3025.42847  0.00603  0.05693     0.39609  14.01721     20.43275   3065.13829    -2.18043  1.33616   7370.6675  0.15048  58736.15957  52.36546  0.43158  19.60423     58762.29 
    14.59127  1.50371  0.84073       2.13127         3712.84644  0.03654  0.04016     0.01972  10.26118     17.28818    5888.4552     -4.7218  0.84909  4083.86952  0.00011   58733.6182  51.82432  2.45064  19.61493     58761.29 
    14.54612  1.70864  1.08508       2.40804         3695.57687  0.00386  0.05308     0.01882   8.56081     18.80668   4276.49822    -2.78634  1.35473  4534.29976  0.00356  58735.55366  51.89789  0.24851   19.6077     58761.29 
    14.56181  1.87187  0.92486       2.83565         3165.99528  0.00235  0.03575     0.01246  19.61105     20.70604   7344.33868     -2.0191  1.18582  7168.98404  0.28233   58736.3209  52.36986  0.17991  19.57501  58764.45045 
    14.81982  1.85135  0.81756       2.10903         3674.22094  0.02055  0.05192      0.1959  10.49941     19.34404   4162.02308    -3.90045  0.68399  5432.54722  0.01227  58734.43955  52.07432  1.38531    19.633  58762.48794 
     14.3034  1.55641  2.77927       1.95961         3562.79332  0.00796  0.02307     0.11916  19.82777     17.80925   3777.56551    -8.98432  1.36147  5759.52132  0.00036  58729.35568  52.18062  0.60952  19.58901      58761.4 
    14.55595  1.31083  1.16526       1.90482         3833.95975  0.02268  0.02167     0.02845  17.68816     19.29801   8488.20563    -5.39057  0.62304   4322.0491  0.01103  58732.94943  51.92177   1.6996  19.59332      58761.4 
    14.48873  1.59107  1.24106       2.20338         3537.31956  0.00574  0.03509     0.02661  14.39609     19.95813   4486.40745    -3.91127  1.14204   5396.4767  0.05045  58734.42873    52.097  0.41325  19.59716     58761.29 
    14.55349  1.39537  1.69866       3.36716         3419.57291  0.00108  0.03199     0.01764  18.14975     17.02246   8779.89004    -4.89297  0.69189  5695.78554    6e-05  58733.44703  52.16365  0.08149   19.5879     58761.29 
    14.54916  1.82897  1.84793       2.19369         3675.95497  0.00287   0.0327     0.04851  14.82401     17.26321   9098.17626    -4.68325  1.27848  5343.79879   0.0001  58733.65675  52.09102  0.20745  19.55455     58762.29 
    14.54295   1.6136  0.90658        0.9097         4075.13928  0.00362  0.02984     0.01842   12.7658     16.83962   5335.76201    -7.75531  0.83082  4615.73311    4e-05  58730.58469  51.95064   0.2544  19.62101  58763.60356 
    14.47589  1.52158  1.65219       2.31481         3350.16572  0.00343  0.05844      0.0378   8.42086     16.52324   3666.26961    -4.75729  0.96668  5622.40704    2e-05  58733.58271   52.0831  0.22002  19.56976     58762.29 
    14.64767  1.67309  1.32338       4.77774         3189.65455  0.01192  0.06491      0.2052   9.67446     19.24762   3321.07497    -2.37246  0.89127  5703.47352  0.00983  58735.96754   52.1089  0.78917  19.58447      58761.4 
    14.50802  1.48634  0.78631       1.91673         3813.54634  0.00235  0.06815     0.24005   6.46051     17.18555   6689.64092    -3.88467  1.10662  4594.13023    9e-05  58734.45533  51.88094  0.14165  19.59454     58762.29 
    14.55219  1.37365  1.31667       2.96561         3279.97888  0.00208  0.03139      0.1053  17.34993     17.62411   9806.68012     -4.3267  0.70718  5589.37857  0.00023   58734.0133  52.14349  0.15568  19.59964     58762.29 
    14.46106  1.54607  0.70906       0.82462         3887.59842  0.02073   0.0177     0.01689  32.39855     16.55087   9610.45553    -8.27857  1.30557  6335.48321    2e-05  58730.06143  52.30191  1.73543  19.57293     58763.28 
    14.33503  1.30215   0.7142       1.65124         3834.02131  0.00569   0.0378     0.05697   9.69988     16.72134   7941.52419    -5.63502  1.55034  4080.04974    3e-05  58732.70498  51.81821  0.37675  19.58699      58761.4 
    14.78277  1.93811   1.2812       1.96388         3582.07694  0.00524  0.06601     0.01336   8.05478     17.58331   9463.59168     -4.6852   0.7223  5426.26213  0.00021   58733.6548  52.04789  0.33295  19.61635      58761.4 
    14.56646  1.80549   1.4525       2.22107         3474.06301  0.00107  0.07337     0.05793   9.32367     16.73298   8342.12531    -3.83415  1.24237  6826.72456    3e-05  58734.50585  52.26153  0.07037  19.58884  58762.48794 
     14.4925  1.68455  1.82409       4.41076         2677.86254  0.10377  0.07847     0.14676   7.76107     18.13971   5507.77529    -4.23474  1.32308  7055.50138  0.00077  58734.10526  52.27226  6.54108    19.631     58760.39 
    14.65669  1.72461  2.32219       3.31591         3387.95871  0.00524  0.04925     0.17202  13.27825     18.73851   6530.82238    -5.57011  0.68437  6552.46317  0.00304  58732.76989  52.25847  0.37078  19.59207     58760.39 
    14.39527  1.31107  0.72834       1.89795         3747.53822  0.04515  0.04087      0.2153   8.96588     17.65332   3127.59894    -5.24207  1.16982  4072.89564  0.00025  58733.09793  51.80916  2.94035  19.61197     58764.17 
    14.51506  1.74441  1.31433       1.73215         3273.58943   0.0026  0.02336     0.16118  28.67239     18.75346   4301.99952    -6.60574  1.24669  6575.12743  0.00315  58731.73426   52.3249  0.21338  19.58193      58761.4 
    14.52615  1.92512  1.37717       1.24551         3886.80686  0.00595  0.03299     0.09464  11.50348     18.93303   6659.73124    -7.51516  1.45258  4432.86068  0.00476  58730.82484  51.90611  0.40861  19.58863      58761.4 
    14.55345  1.75243  1.32034       1.75155         2722.02492  0.00257  0.08332     0.01177   7.67235     19.83701    4155.5197    -6.64753  0.91672   6961.9571  0.03817  58731.69247  52.25952   0.1614  19.59779     58761.29 
    14.58953  1.86574  1.48397       1.48976         3713.04055  0.03464  0.04107     0.24532  10.72891     18.04701   5118.04434    -5.50808  1.04892  5113.47898  0.00062  58732.83192  52.02376  2.34562  19.58621     58762.29 
    14.70694  1.90889    1.237       2.80975         3194.81903  0.00267  0.03501     0.02945  17.84875      17.0541   9168.59055     -4.2627  0.90044  5833.04529    6e-05   58734.0773  52.18293  0.20043  19.60728     58761.29 
    14.54083  1.79653  1.27559       2.17657         3648.96889  0.03671  0.04363     0.04478   8.61013      20.1693   7467.42973    -4.78241   1.2834  4105.97458  0.08204  58733.55759  51.81226   2.3689  19.59043      58761.4 
    14.60069  1.87901   1.6639       3.10612         3458.18748  0.00607  0.02869     0.01634  16.76567     17.70588   9752.23413    -2.37219  1.56642  5159.52967  0.00028  58735.96781  52.07109  0.44989  19.60528  58762.48794 
     14.5297  1.74473  2.86681       2.92348         3392.27322  0.00164  0.02711     0.02903  14.79123     17.50255   6977.65322    -6.47706  0.87137  4807.63461  0.00018  58731.86294    51.999   0.1188  19.61949  58763.59259 
    14.52361  1.77076   1.7056        2.8334         3696.62178  0.01107  0.03084     0.07722  11.62499     19.15801   7618.94791    -5.53888   1.4209  3784.70352  0.00799  58732.80112  51.76977  0.76274  19.60337  58762.48794 
    14.30551  1.27423   0.7802        1.3232         3719.10376  0.00867  0.06994     0.09289   7.88497     16.55212   3591.26994    -6.96751  1.42368  5729.61927    2e-05  58731.37249  52.09303  0.54839   19.6315  58760.09961 
    14.60369  1.75849  1.18384       2.67018          3667.0608  0.00246  0.03694     0.11152  10.94309     17.68609   6022.64373    -3.48695  1.10304  3766.08879  0.00027  58734.85305  51.75994  0.16723  19.59585  58760.09961 
    14.64557  1.70302  2.32899       1.61702         3636.26119   0.0035  0.04417     0.02892  12.74627     17.64285   9002.42117    -8.92691  0.58058  6093.26055  0.00024  58729.41309  52.19172  0.24603  19.59874     58762.29 
    14.50229  1.96412  2.58563        1.7712         3426.03896   0.0015  0.02549     0.01382  19.56976     16.27838   4571.23576    -6.88075  1.37745  6046.74437    1e-05  58731.45925  52.22182  0.11466  19.57992     58761.29 
    14.44555   1.6246  1.45455       1.68626         3549.11947  0.00138  0.08004     0.03716   6.84826     16.62149   8725.06549     -6.3162  1.34039  5772.95857    2e-05   58732.0238  52.08535  0.08425  19.59205      58761.4 
    14.74453  1.84456  0.83345       2.21958         3412.18822  0.01278  0.04223     0.19554  16.65999     18.02295   8669.47103    -5.93219  0.81767  6167.20445  0.00059  58732.40781  52.22552  0.94665  19.59834     58761.29 
    14.76661  2.05686  2.17784       4.82433         2890.07738  0.00115   0.0575     0.01044  10.95408     18.13643    4207.8487    -4.27403  0.74301  6294.54475  0.00076  58734.06597  52.20618  0.07831  19.57047     58762.29 
    14.78749  1.80581   0.7139       2.63774         3586.11868  0.02543  0.04946     0.01941   8.35222     17.76581    9287.8891    -3.57753  0.78901  4242.16855  0.00032  58734.76247  51.83763  1.63027  19.55672     58762.29 
    14.54871  1.81105  1.29504       1.51825         3890.33056  0.04109  0.04606     0.12523    7.7787     17.85578   4000.75495    -3.94021  1.31168  4624.89699   0.0004  58734.39979  51.90563  2.59155  19.60133  58762.48794 
    14.71848  2.04844  1.09074       2.93929         3551.01084  0.03588  0.03888     0.15399  13.10782     19.07496   5203.16117    -1.90102  1.30203  5045.63429   0.0066  58736.43898  52.03035   2.5338  19.64223      58761.4 
    14.59117   1.7259  1.18086       2.34342         3639.78653  0.00308  0.02677     0.03458  17.45719     18.08058   8616.63199    -3.51081  1.11478  4676.78971  0.00067  58734.82919  51.98918  0.23032  19.59736     58761.29 
    14.60691  1.66262  0.80344       2.56567         3579.99069  0.04642  0.05719     0.06033   6.61321     19.15017   7863.64147    -2.39617  1.18632  3988.29636  0.00785  58735.94383  51.76053  2.81887  19.62359     58761.29 
    14.50692  1.66232  0.96616       1.69442          3562.1854  0.00285  0.02226     0.01285  31.26659     18.29726   9847.73231    -5.94514  1.44275  6472.36473   0.0011  58732.39486   52.3178  0.23668  19.57581     58762.29 
    14.37312  1.47801  1.55419       1.65633         3751.64598  0.01049  0.04839     0.32667   8.74407     18.51249   6661.01082    -6.90913  1.25255  4834.43995  0.00181  58731.43087  51.95562  0.67914  19.56723  58762.48794 
    14.63424  1.43647  1.77285       3.35111         3491.66724  0.00442    0.034     0.26835  14.69813     16.75596   5010.87588    -3.96687  0.57628  5001.37119    3e-05  58734.37313  52.03276  0.31966  19.56325     58762.29 
    14.54525  1.68975  1.39684       3.51106         3390.85186  0.00766   0.0388     0.36353  14.51647     16.27966   7271.17071    -3.22765  1.29498  5279.81161    1e-05  58735.11235  52.07874  0.55197  19.55435     58762.29 
    14.34614    1.234  1.62384        1.6023         3611.76685  0.00547  0.01551     0.22768  28.45388     16.13681   6158.83757    -6.54164   0.8235   5402.6517    1e-05  58731.79836  52.15372   0.4476  19.64948  58762.48794 
    14.43934   1.7176  2.33965       1.69356         3727.58184  0.00416  0.05647     0.11574   7.17958     16.41794   6269.14193    -8.51006  1.13294  4899.24269    1e-05  58729.82994  51.94763  0.25772  19.58736     58761.29 
    14.43701  1.59799  1.81868       3.28678         3014.67204  0.00167  0.08491     0.01848   7.35735     17.45693   3362.46028    -3.98888  1.29267  6421.28533  0.00016  58734.35112  52.18509  0.10367  19.68287      58761.4 
    14.57686  1.77194  0.87473       2.35557         3566.49098  0.00654  0.02813     0.37595  19.70482     19.51986   4873.20421    -4.22589  1.50533  5150.66958  0.01839  58734.11411  52.08307  0.50075  19.59941     58761.29 
    14.67454  1.70986  0.86041       2.84897         3037.64756  0.00172  0.03039     0.25315  22.19885     19.31968     5612.064    -3.73491  0.84643  6051.64283   0.0116  58734.60509  52.23276  0.13424  19.62774     58762.29 
    14.66526   1.9087  1.96929        1.1379          3505.3219  0.02312  0.04786     0.15864  11.40806     18.64832   7977.46192   -10.09937  0.69273  6164.64496  0.00247  58728.24063   52.1918  1.58604  19.59268      58761.4 
    14.30901  1.35702  1.94151       2.93298         3278.97175  0.01901  0.06963      0.1558   8.57773     17.12301   4626.73684    -6.28558  1.40739  6364.67942    7e-05  58732.05442  52.19261  1.22608  19.61423  58760.09961 
    14.64422  1.82994  1.37323       2.89937         3602.90718  0.01772  0.06876     0.38977   6.53062     17.57932    3563.7779    -2.84527  1.08339  4628.20871  0.00021  58735.49473  51.88848  1.07281  19.64017      58761.4 
    14.49414  1.49958  1.16757       1.92584         3334.50177  0.00164  0.02443     0.20061  26.49927     19.49928   9067.87331    -4.65845  0.96595  6646.51049  0.01754  58733.68155  52.32819  0.13217  19.59054      58761.4 
    14.49019   1.7191  0.90061       2.28707         3009.14142  0.00178  0.06043     0.43801  11.37066     20.53236   3959.44521    -3.32936   1.2762  7231.76883  0.18927  58735.01064  52.33017  0.12201  19.60362  58762.48794 
    14.38191  1.73822   1.8034       0.84252         3864.12437  0.00672  0.06568     0.01343   5.57112     18.54732    9537.5469    -9.45963   1.5443  5057.77611  0.00196  58728.88037  51.94877  0.39153  19.63521     58761.29 
    14.44921  1.47116  0.99929       2.44328         3339.66248  0.00135  0.04119     0.05815  18.12838     20.29861   7693.93557    -3.61998  1.13281  7216.03299  0.11049  58734.72002  52.36904  0.10129  19.55753  58762.48794 
    14.61977  2.01526     1.92       4.36222         3195.28705  0.00319  0.05833     0.01687  11.38237     17.83565   7810.66764    -4.31736  1.54684  6129.76519  0.00038  58734.02264  52.18667  0.21879  19.57975     58763.28 
    14.51075  1.66079  1.89592        4.1473         3292.55558  0.00557  0.04888     0.02255   13.4159     16.69493   5564.36034    -4.40903  1.17736  6074.52446    3e-05  58733.93097   52.1936  0.39521  19.56498     58761.29 
    14.54932  1.69805  0.71507       1.31985          3858.1053  0.00156   0.0326     0.06418  16.53377     18.94838   9571.51606    -5.80033  1.18019  5415.29598  0.00493  58732.53967  52.11194  0.11512  19.56954     58762.29 
