 texplosion  fnickel    Pspin  log(Bfield)      Mns  thetaPB   mejecta    kappa  kappagamma      vejecta  temperature    alpha  cutoff_wavelength  log(nhhost)      A_V         MJD0   kenergy  mnickel              TSD   log(L0)  Peak_mag     Peak_MJD  log(E_rad)  log(Peak_lum)  Rise_Time    E_fold  tau_1  delta_m15     r_peak     frac 
  -19.00546  0.05946  1.90008     13.22394  1.73985  0.63791   9.80826  0.19353     0.01362  11282.51922   8523.05695   2.2533         3608.97264     17.22464    9e-05  59330.30016   7.44786  0.58317   20796375.18417  44.63383  18.78979  59405.45663    51.19157       44.23262   55.95984  68.77901   61.0    0.12534  -21.80146  0.98404 
  -17.98611  0.02074  3.04665     13.70896  1.78795  0.52591   8.08676  0.09945     0.01625   7052.10085    7389.4319  2.50118          3931.0357     16.48066    2e-05  59331.31952   2.39905  0.16774    5887081.18256  44.78365  18.83019   59404.2184    51.17702       44.23207   51.69272  67.73809   75.0     0.1007  -21.65671  0.99078 
  -16.75762  0.06688  2.16883     13.16258  1.60962  1.06058   6.58945  0.17868     0.02377   10716.4683   6799.18269  3.06066         2908.55929     18.64544  0.00246    59332.548   4.51419  0.44071   33252320.56908   44.2813  18.78169  59405.45663    51.18296       44.23006   57.42103  67.31782   66.0    0.13466  -21.74393  0.98395 
  -19.63025  0.04353   2.9478     13.64405  1.94957  0.55478   7.52652  0.15467     0.01489   8013.09751    8618.4511  3.02085         3709.25751     18.97281  0.00522  59329.67537   2.88285  0.32761    8102953.55026  44.71114  18.81258   59404.2184    51.18305        44.2398   51.69272  67.73809   64.0    0.12288  -21.66179  0.98456 
  -18.24278  0.10566  2.11921     13.21034  1.66999  0.76556   5.47002  0.15745     0.01474   7741.15659   7023.22864  2.36647         3513.22799     16.48393    2e-05  59331.06285   1.95536  0.57795   26436225.45532  44.41701  18.74951  59405.45663    51.20189       44.25193   55.73438  66.35045   72.5     0.1239  -21.60482  0.97971 
  -17.46305  0.09118  1.34159      12.7478  1.52467  1.17508  10.08729  0.14857     0.01032  11959.89249   7818.45191  1.11559         2673.82167      18.4538  0.00158  59331.84258   8.60708  0.91977   81400346.66159  44.28616  18.84338   59404.2184     51.1417       44.19443   53.21822  66.21259   58.0    0.14943  -21.76439  0.98215 
   -22.8897  0.00408  1.91101     13.21205  1.76656  0.80832   9.96477  0.17104     0.01129  10147.78501   7015.94969  1.51284         3254.11288     20.33042  0.11889  59326.41593   6.12121  0.04063   22561422.57694  44.60008  18.92799   59404.2184    51.21377       44.26956   47.77033  69.00646   65.0    0.12602  -21.86358  0.99898 
  -19.29463   0.0599  1.57041     12.94013  1.48374  1.05588    7.2488  0.23973     0.01063    9458.1969   8605.74072  2.91287         3671.30747     20.32831  0.11831    59330.011   3.86821   0.4342   44765461.02654  44.39723  18.82174  59402.23595    51.23957        44.3152   44.49808  65.27727   60.5    0.12945  -21.84761  0.98986 
   -17.8219  0.01322  2.81793     13.60877  1.74731  0.50225   6.23005   0.1201     0.02415   8110.57158    7205.2871  3.24981         3679.86235     17.41003  0.00014  59331.48372   2.44468  0.08235     7807435.7064  44.71885  18.82599  59402.05949    51.18621       44.25919   47.06318  67.05959   75.5    0.11138  -21.63728  0.99569 
  -22.13498  0.00493  1.66734      13.0216  1.73995   0.9477   8.13267  0.28597     0.01079   9995.41371   6736.61686  4.82401         3015.79523     19.53498  0.01904  59327.17065   4.84687  0.04013   40663687.31263  44.45613  18.80041  59405.45663    51.13245       44.16846   54.86991  69.86893   70.0     0.1167  -21.72882  0.99913 
  -19.11553  0.01456  2.37876      13.3365  1.85318  0.80201   8.70351  0.16705     0.01302   9352.32278   6612.12646  2.89985         3706.03193     17.75666  0.00032   59330.1901   4.54109  0.12677   20674195.91897  44.46863  18.87798  59404.32958    51.18559        44.2217   54.34673  70.39211   67.0    0.13712  -21.76519  0.99547 
  -19.51825   0.0481  1.68711     13.11494  1.53843  0.63638   8.34104  0.17538     0.01668  10932.49433   7080.20386  2.44764         2638.20065     18.22896  0.00094  59329.78738   5.94683  0.40119   23950148.56657  44.62232  18.80178  59408.19867    51.25012       44.29283   54.34673  70.39211   67.0    0.12715  -21.74537  0.98924 
  -16.65533  0.00706  2.56726     13.38592  1.61517  0.80565   7.40773  0.11445      0.0168   8313.20771   9366.52945  2.11123         4047.26074     16.06022    1e-05  59332.65029   3.05386  0.05228   16716053.21326  44.43499  18.81235  59402.34808    51.21551       44.24763   54.28714  70.45171   61.0     0.1266  -21.71328  0.99749 
  -20.38641  0.00309  1.82271     13.00919  1.66781  1.28795   6.58186   0.2295     0.02058  11134.41928    9471.8133  0.23422         3493.05792     18.48022  0.00168  59328.91922   4.86756  0.02035   49319668.39969  44.27654  18.78522  59406.31086    51.21469       44.26985   55.73438  66.35045   57.0    0.14797  -21.76467  0.99946 
  -20.36593  0.00228  1.71759      13.0058  1.46814  0.90509   6.60607  0.14316     0.01011   8160.10122   7768.15285  1.20031         4015.52208     17.82818  0.00037   59328.9397   2.62399  0.01509    39157463.5378  44.37296  18.82579  59405.45663    51.21148       44.25385   54.34673  67.73809   67.5    0.13257  -21.62625  0.99956 
  -18.20667  0.05568  1.47199     12.82319  1.39882  0.99197   7.71622  0.18102     0.01435  10770.15468   7112.69134  2.17462         3710.50361     19.55208  0.01981  59331.09896   5.33919  0.42964   63533194.51852  44.27579  18.82013  59402.34808    51.14731       44.19511    49.0387  70.39211   65.5    0.14677   -21.7523  0.98894 
  -17.09607  0.07183  1.84969     12.99643  1.63796  1.05845   6.97288  0.15281     0.01795  10177.13075   7628.80842  1.74338         3440.86701     16.10277    1e-05  59332.20955   4.30814  0.50085   52899498.87825   44.2255  18.90339  59402.34808    51.18465       44.23124   52.05396  70.03087   66.5    0.13743  -21.71675  0.98507 
  -16.89036  0.04315  2.59995     13.43364  1.79137  0.66842   5.82816   0.1556     0.01404   7486.99278   7190.25123  3.77955         3762.50776     16.77013    3e-05  59332.41527   1.94883  0.25147   15263375.53357  44.50845  18.80573   59404.2184    51.19833       44.25162   55.73438  66.35045   68.0    0.13582  -21.64714  0.98885 
  -16.32254  0.44644  1.33745     12.77631  1.63182  0.91794  10.07867  0.17916     0.01362  14050.54764     9277.646  0.14139         2818.67319     19.27156  0.01038  59332.98308  11.86908  4.49956   75933297.82788  44.34853  18.82109  59405.45663    51.15869       44.20037   55.95984  68.77901   55.0    0.16339  -21.78418  0.91752 
  -22.53702  0.05803  1.15422     12.63607  1.27051   1.2236   9.04476  0.21435     0.01226  11896.74619   6945.35608   0.1812         2391.20743     19.77661  0.03321   59326.7686   7.63626  0.52483   83989085.31534  44.32402  18.84275  59405.45663    51.21163        44.2534   54.28714  70.45171   65.5    0.12947   -21.7873   0.9904 
  -18.21133  0.05735  1.92875     13.19029  1.55538  0.69505   5.24798  0.13601     0.01224    7369.4225   8444.10608   1.0781         4571.85403     17.54668   0.0002  59331.09429   1.70015    0.301   22367350.31534  44.54052  18.81496  59400.28331    51.12778         44.192   50.42634  66.35045   67.5    0.12396  -21.65825  0.99029 
  -17.08716  0.09424  1.46999     12.81643  1.49816  1.10808   8.56461  0.14527     0.01446  11561.64951   7549.00212  2.15098         2600.53807     17.77511  0.00033  59332.21846   6.82927  0.80709   70007826.53956  44.26463  18.83703  59406.31086    51.30803        44.3497   54.28714  67.79769   63.5    0.14108  -21.77206  0.98147 
  -16.99565  0.07801  1.42585     12.83031  1.48408  1.08317   5.52472  0.28491     0.01538  11101.16887   7120.00409  3.77831         2540.20298     16.76748    3e-05  59332.30997   4.06139  0.43097   61207493.45879  44.34535  18.86447  59402.34808    51.18871       44.25166   49.13132  67.44637   62.5    0.14562  -21.70201  0.99087 
  -17.83536   0.0454  2.54362     13.29057  1.77614  1.10967   5.39369  0.17091     0.02524   9399.03977   8149.39555  0.97441         3792.66447     16.09602    1e-05  59331.47026   2.84237   0.2449    27993538.2029  44.26036   18.8982  59408.19867    51.24314       44.29125   52.05396  70.03087   62.0     0.1283  -21.66498  0.98979 
   -19.2791  0.10125   1.4516      12.7879  1.55637  1.55495    9.5308  0.19853     0.01421  12905.30664   7366.86398    0.755         2177.89041      18.3642  0.00129  59330.02652   9.46876  0.96498   80878445.73675  44.22943  18.81852   59404.2184     51.2083       44.26744   50.42634  66.35045   61.0    0.14551  -21.80441  0.98008 
  -19.98864  0.05163  1.32291     12.78112   1.2008  0.94327   7.50374  0.16599     0.01739  11726.96353   7393.71821  0.40878          2698.7599     19.13842  0.00764  59329.31699   6.15568  0.38738    53468568.5954  44.37715  18.85373   59404.2184    51.21891       44.27782   49.33042  64.79235   62.5    0.14436  -21.76202  0.99053 
  -17.85299  0.09893  1.56944     12.86157  1.35964  0.99183   9.36295  0.09882     0.01187   9736.20209   6732.09412  1.43091          3653.4211     19.32379  0.01171  59331.45264   5.29443  0.92626   58828131.57526   44.2412  18.81051  59402.34808    51.16957       44.23051   49.93972  65.14367   72.0    0.13053  -21.69895  0.97313 
  -17.56651  0.07085  1.88343     13.06546   1.8391  0.95301    9.3458  0.13211     0.01195  10303.13749   6044.17621  2.60481         2724.06342      17.0642    6e-05  59331.73911    5.9181  0.66216   44812899.60281  44.33215  18.82606   59404.2184    51.16158        44.2144   54.34673  67.73809   69.5    0.13321  -21.70456  0.98268 
  -18.92447  0.00654  1.40534     12.85442  1.81154   1.5017   9.63078  0.29347     0.01035  13041.79371   9559.79359  0.21329         4066.77967     19.38311  0.01342  59330.38116   9.77155  0.06301   64951173.95143  44.41874  18.87906   59404.2184    51.31631       44.40887   47.77232  61.04241   63.0    0.10902  -21.79597  0.99906 
  -17.63026  0.01229  1.77052     12.84766  1.57032  1.39885   8.45312  0.09615     0.01907   9646.18607   5833.19258  3.36941         3699.38005     18.98462  0.00536  59331.67537   4.69197  0.10388   92188680.23116  44.00396  18.79121  59400.28331    51.21287       44.29374   49.33042  62.13833   81.5    0.11662  -21.71883  0.99658 
  -19.86158  0.03076   2.3285     13.39683   1.6617  0.64533   8.21896  0.13155     0.02068  10190.22889   8099.67252  0.77968         3870.09495     19.63593  0.02402  59329.44405    5.0911   0.2528   13454574.08742  44.62638  18.77412  59410.31263    51.27017       44.30763   58.61386  71.43302   62.0    0.12626  -21.74648  0.99017 
  -19.60925    0.004   2.5642     13.40306  1.82719  0.69658   6.88467  0.11233     0.01013   6626.49233   7535.72606  3.61212         3859.80185     18.36839   0.0013  59329.69637   1.80334  0.02755   17433444.01692  44.47134  18.86757  59404.35012    51.22875       44.26744   49.39994  70.03087   71.5    0.12509  -21.64143  0.99881 
  -22.16473  0.06117   1.9147     13.13324   1.8784  1.21956   9.33909  0.27904     0.01005   10450.0892   7268.40261  2.82259         2622.17887     18.05879  0.00064  59327.14089   6.08376  0.57125   34620184.70154   44.4391  18.82714   59404.2184    51.21012       44.25023   50.42634  69.00447   64.5    0.11211  -21.76592  0.98719 
  -20.92865  0.05284  1.60279     12.98627  1.69429  1.23109   8.93174  0.27269     0.01025  11415.69093   7255.39262  2.05587         2173.88978     19.85571  0.03985  59328.37697   6.94333  0.47194   43055277.63701  44.45405  18.84641   59404.2184    51.23303        44.3063   47.06318  64.40557   61.5    0.12608  -21.80276  0.99094 
  -17.26589  0.00166  2.57151     13.41061  1.90922  0.67937   8.99325  0.10883     0.01589   9360.09698   7452.50098  3.51392         3674.54222     17.07362    7e-05  59332.03974   4.70007  0.01489   17693941.97309   44.4815  18.84289  59402.34808    51.22483        44.2841   51.98444  64.79235   70.0    0.12794  -21.72571  0.99938 
  -20.22345  0.10932  1.47664     12.80112  1.51045  1.54434   9.69132  0.18814     0.01019  10907.94217   7009.69178  2.50781          2852.5871     19.76375  0.03225  59329.08218   6.87853  1.05947   76422902.94001  44.22618  18.81961  59402.34808    51.13069       44.20016   53.08036  63.69643   65.5    0.12895  -21.74149  0.97702 
  -16.99986   0.1125  1.51372     12.73028  1.57458  1.54445   8.36005  0.13241     0.01066   9460.41084   6135.61326  4.15731         3526.50039     17.22458    9e-05  59332.30577    4.4633  0.94047  116011130.78194  44.04142  18.82265  59404.35012    51.23007       44.27883   53.08036  69.00447   70.0    0.14316  -21.69691  0.97585 
  -18.18491  0.17046  2.85986     13.50241  2.02789  0.70127   8.89504  0.09763     0.01524   8646.43079   7152.40933  1.35373          4273.4744     16.33529    1e-05  59331.12071   3.96688  1.51622   15230700.63979  44.48048   18.8283  59408.85378    51.22254        44.2614   53.08036  71.65848   72.0    0.11389  -21.72171  0.93636 
  -15.58469  0.00897  2.45374     13.27331  1.50804  0.97444   4.85705   0.1708     0.04295  10204.92285   6817.65532  3.34371         2850.09139     18.38489  0.00135  59333.72094   3.01731  0.04357   23947568.11205  44.28834  18.82757  59402.30905    51.14527       44.19187   53.08036  66.35045   71.5    0.11931  -21.63618  0.99786 
  -18.45842  0.03752  1.20477     12.68157  1.92549  1.56793   6.96983  0.31233      0.0143   13799.1202   9186.10686  0.24939         2510.21925     19.68905  0.02715   59330.8472   7.91684  0.26154  112465228.93392  44.34056  18.80578   59404.2184     51.1836       44.23069   54.28714  67.79769   56.5    0.15355   -21.8292  0.99668 
  -15.46803  0.02057   2.3713     13.23174  1.42483  1.02638   5.41257  0.12068     0.02185   8327.05996   7872.30357  1.63808         3951.92957     18.24998  0.00099  59333.83759   2.23879  0.11132   25589994.84626  44.26456  18.86769  59404.35012    51.20952       44.25917   48.48079  71.91063   68.0    0.12283  -21.62238  0.99449 
  -18.99342  0.03122  3.18827     13.63233  2.00137  0.69869   6.43005  0.18555     0.02277   8687.58538   8761.71668  4.07573         3648.32902     18.22633  0.00094  59330.31221   2.89494  0.20074   10270550.96569  44.55147  18.83367   59404.2184    51.19488       44.24233   50.42634  69.00447   61.5    0.12374  -21.71813   0.9896 
  -19.73373  0.02091  2.39569     13.33826  1.85013  0.77284   5.88826  0.19425     0.01278   8062.48963    8108.8395  2.97308         3847.95464     19.13462  0.00757  59329.57189   2.28324   0.1231   20766356.57012  44.45983  18.83298  59402.34808    51.22773       44.30973   46.79053  62.02421   64.0    0.14048  -21.68389  0.99546 
  -17.92566  0.07203  1.82672     12.96296  1.62491  1.37613   9.62807  0.12475     0.01195   10543.3987   7445.01374  1.90216         2772.61494     18.17696  0.00084  59331.37997   6.38451  0.69353   59711739.76977  44.18027  18.83337  59402.34808    51.23158       44.29294   52.82821  66.60259   65.0      0.135  -21.70092   0.9805 
  -17.44941  0.36864  1.98533     12.99903  1.58725  1.46237   6.41674  0.15128     0.01901  10168.10774   6530.60313  1.21706          2821.6328     17.75108  0.00031  59331.85621   3.95751  2.36546   58353960.38282  44.10776  18.82347   59406.2005    51.22462        44.2712   51.63312  70.45171   68.5    0.13113  -21.66162  0.92472 
  -15.79973  0.35914  1.90648     12.97527  1.49748  1.00935   8.95226  0.11415       0.015   9921.49355   7773.42165   2.4085         3430.53168     16.93512    5e-05  59333.50589   5.25671   3.2151   56637145.85873  44.13064  18.82718  59404.35012    51.16791       44.22826   54.34673  65.08407   68.5    0.12606   -21.6847  0.89142 
  -17.27019  0.00433   2.4448     13.17549  1.88165  1.29921   7.63216  0.10253     0.01225   8368.60156   7563.34645  2.74198         3710.91096     16.81948    4e-05  59332.03543   3.18845  0.03302   46542858.02605  44.09904  18.88726  59405.45663    51.17374       44.22945   54.34673  67.73809   70.0    0.13357  -21.63047   0.9987 
  -21.34107  0.08023  1.55387     12.87873  1.60736   1.5099   8.17903  0.25387     0.01423  11616.08304    5806.7341  1.87665         2328.76787     18.49031  0.00172  59327.96455   6.58337   0.6562   62993210.48199  44.29283  18.82732  59402.34808    51.20355       44.27076   49.33042  64.79235   66.0    0.12957  -21.80493  0.98629 
  -20.80664  0.00616  1.48174     12.91738  1.60258   1.1243   7.59621  0.31431     0.01047  10373.15815   6119.86739  4.78245         2943.93275     20.18289  0.08465  59328.49898    4.8758  0.04676   47798301.28493  44.45271  18.83513  59402.34808     51.2137       44.26706   49.33042  67.44637   69.0    0.11844  -21.81553  0.99912 
  -15.60988  0.29354  1.76103     12.92036  1.76463  1.17444   9.52164    0.163     0.01265   11441.7502    6761.4342  2.53009         3529.92953     16.99376    5e-05  59333.69574   7.43574  2.79495   73331167.84154  44.15868  18.76291  59405.45663    51.24168       44.30882   50.42634  66.35045   64.0    0.15267  -21.78475  0.92985 
  -17.91994  0.02102  2.14859     13.20549  1.45562  0.76568   7.93033  0.09521      0.0128   7440.81216   7169.43403  2.88223         3763.06532     17.10411    7e-05  59331.38568   2.61914  0.16673   24220483.27649   44.3834   18.7988   59404.2184    51.19085       44.22671   55.73438  69.00447   76.0     0.1105  -21.62842  0.99284 
  -16.88744  0.09597  2.33801     13.30054  1.85137  0.68686  10.07787  0.07948     0.01138   8977.74881   8085.92473  1.83788         3889.99689     17.73161   0.0003  59332.41819   4.84542  0.96722    23546342.6015  44.42672  18.80593  59410.20145    51.27873       44.33784   57.00075  65.08407   68.0    0.12734  -21.64615  0.96389 
   -17.8256  0.05053  2.21304     13.13233  1.75442  1.23262   8.23576  0.12999     0.01356   9505.22942    6559.3239  3.49053         3028.68055      18.8309  0.00376  59331.48002    4.4387  0.41615   43377329.72241  44.18574  18.80161   59404.2184    51.14045       44.19185   55.95984  66.12499   68.0    0.13581  -21.67336  0.98553 
  -20.36317  0.00184  2.24874     13.19622  1.76532  0.95619    8.6567  0.11252     0.01421   9161.92214   6317.39755  3.58177         2939.96732     17.65715  0.00025  59328.94245   4.33463  0.01597   33580237.30821  44.28571  18.76874   59398.3396    51.23266       44.30042    50.1742  63.94857   74.0    0.12092  -21.63258  0.99942 
  -20.83244  0.14377  1.62033     12.86875  1.40168  1.31779   8.16865  0.16988     0.01553  10663.37447   6263.84583  2.59761         2295.55457     18.44441  0.00155  59328.47318   5.54073  1.17441    62541013.6677  44.20012  18.88724  59408.85378    51.23426       44.28697   57.00075  67.73809   68.0    0.12613  -21.71343  0.96799 
  -18.77131  0.01061  1.97561     13.23322  1.59426  0.72869    9.7911  0.14243     0.01032   9306.79252     7957.742  2.80528         3000.94443     18.21685  0.00092  59330.53431   5.05893  0.10391   19739781.32182  44.58466   18.8186  59402.34808    51.20497       44.24954   50.42634  69.00447   63.0    0.12826  -21.71457  0.99676 
  -17.15258  0.15413  1.62672     12.86537  1.57835  1.09725   9.44563  0.16129     0.01315  10588.21267   5691.74182  3.87347         3506.01636     16.91942    5e-05  59332.15304   6.31689  1.45589   72095740.94663  44.18651  18.81188  59408.19867    51.14629       44.19119   58.96954  68.42332   69.0    0.13492  -21.78706  0.96189 
  -18.02917  0.34401  1.53169     12.82002  1.32379  1.12941   6.00621  0.10033     0.01063   7607.86357   7273.33142  0.61909         4751.13297     18.08675  0.00068  59331.27645   2.07373  2.06622   66058299.94817  44.20039  18.86462  59402.34808    51.14773       44.19937   51.69272  67.73809   74.5    0.11411  -21.61617  0.94347 
