 texplosion  fnickel    Pspin  log(Bfield)      Mns  thetaPB   mejecta    kappa  kappagamma     vejecta  temperature    alpha  cutoff_wavelength  log(nhhost)      A_V         MJD0  kenergy  mnickel            TSD   log(L0)  Peak_mag     Peak_MJD  log(E_rad)  log(Peak_lum)  Rise_Time    E_fold  tau_1  delta_m15     r_peak     frac 
    -1.4357  0.00701   2.7711     13.89157    1.457  1.55362   8.62056  0.06621     0.19711   5461.8558   9389.52188  4.79293         3150.62386     20.56891  0.20589   58105.7043  1.53406  0.06041  1711732.50722  45.31357  19.96075      58153.1    51.17294       44.40972   29.21477  41.51572   49.5    0.19427  -21.62437   0.9968 
    -1.3745  0.28377  3.26968     13.97643  1.45544   1.3352   8.81495  0.04194     0.01022  4496.11729   5914.64174  4.84315         3220.53262     20.55886  0.20118   58105.7655  1.06297  2.50146  1610488.03147  45.19587  20.01354     58154.08     51.3237       44.56592   29.21477   39.9781   58.0    0.21115  -21.50305  0.84387 
   -1.30376  0.11077  2.60078     14.03534  1.55512  0.87912   7.33414  0.06517     0.02074  4242.48972   5993.61964  4.34472          3216.1934     20.73146  0.29936  58105.83624  0.78744   0.8124   830071.55876  45.71128  20.02486  58149.61212    51.48439       44.84242   22.04326   30.2358   56.0    0.17854  -21.67949  0.96679 
   -1.47964  0.00971  3.10448     13.97468  1.67114  1.34891  16.04339  0.02094     0.17135  3934.36701   4435.39028  4.95804         3163.35725     20.71534  0.28845  58105.66036   1.4814  0.15578  1680549.30076  45.28243  20.01894  58151.87242    51.20725       44.51945   26.13953  36.90287   51.5    0.21863  -21.61188  0.99162 
   -1.46917   0.1762  3.24023     14.08966  1.55181  0.91894   7.54944  0.06159     0.01246  5347.23646   9794.39093  4.64328         3156.41248     20.54817  0.19629  58105.67083  1.28766  1.33022  1001140.23607  45.43804  19.97341  58154.13272    51.16805       44.39994   30.75239  41.51572   48.0    0.21804   -21.5269  0.91936 
   -1.40961  0.21152  3.14351     14.03577  1.59411  1.24972   13.7293  0.02921     0.01558  5206.81605   5271.06793  2.81161         3400.00696     20.57132  0.20703  58105.73039  2.22034  2.90402  1240574.88153  45.38291   19.9508  58156.39302    51.35568       44.49729   30.75239  49.20382   64.0    0.21195  -21.55659  0.85263 
   -1.37333  0.00145  2.72452     14.13864  1.85554  0.86186  12.34786  0.02802     0.39528   4720.3234    7294.6564  2.42711         3290.68117     20.81739  0.36486  58105.76667   1.6412  0.01786   675447.84498  45.83714  19.99284  58151.87242    51.60923       44.94474   23.06429  32.29001   54.0    0.22353  -21.67621  0.99936 
    -1.2974  0.32683  3.36873     14.39212  1.62978  0.47088   10.9842  0.04276     0.13569  5073.72089   6644.35782  4.81654         3170.57824     20.61634  0.22965   58105.8426  1.68674     3.59   282252.04391  45.97541  19.96973  58151.87242    51.15159       44.48969   26.13953  35.36525   65.0    0.18929  -21.57172  0.80815 
   -1.34535  0.00553   1.9532     13.95656  1.31962  0.78002  10.04899   0.0432     0.08156  5218.40127   3889.95055  2.20342         3276.51154     20.81031  0.35895  58105.79465  1.63239  0.05556   571006.99671  46.05116  19.98112  58151.87242    51.30227       44.58233   26.13953  36.90287   53.5    0.21383  -21.70858  0.99831 
   -1.48896  0.14833  2.45163     14.19091  1.70552  0.59519  21.27274  0.01776     0.08911  5290.27236    3786.0131  2.36889         3213.93434     20.94047  0.48439  58105.65104  3.55146  3.15542   395145.26908  46.12503  20.01774  58151.87242    51.18698       44.46024   27.67715  38.44048   68.0    0.20624  -21.83762  0.90649 
   -1.72498  0.22306  3.26055     14.21933  1.58605  0.58058   9.22395  0.05684     0.03096  6836.55223   9668.62095  4.52958         2963.14076      20.6532  0.24999  58105.41502  2.57169  2.05749   570239.03639  45.68652  20.00349      58153.1    51.39191       44.69152   26.13953  38.44048   51.0    0.21771  -21.64333  0.88237 
   -1.50174  0.28861  2.66281     13.88258  1.49499  1.29128   9.34326  0.03544     0.09636  3791.76966   8632.98141  4.15445         3221.21619     20.81857  0.36585  58105.63826  0.80133  2.69656  1690357.64769  45.36483  19.93231  58154.13272    51.20772       44.43608   30.75239   39.9781   63.0    0.19182  -21.73807  0.88714 
   -1.60942  0.29125  3.44513     14.03551  1.55412  1.06526  13.82161  0.02502     0.06765  4630.04207   8667.00827  4.37651         3179.75687     20.63442  0.23942  58105.53058  1.76748   4.0255  1454412.82833  45.22323  19.97092  58154.13272    51.30547        44.5251   29.21477  41.51572   70.5    0.19966  -21.56343  0.76912 
   -1.34568  0.08846  3.00155     14.14305  1.53454  0.69216  17.29908  0.02361     0.37372  5000.27778    7209.2529  3.71419         3263.02578      20.6552  0.25115  58105.79432  2.58011  1.53022   664337.51008  45.67774  20.02543  58151.87242    51.27436       44.50673   27.67715   39.9781   57.0    0.21331  -21.60747  0.91905 
   -1.39192  0.00445  3.60067     14.11939  1.86148   1.0706  12.14576  0.03106     0.01002  5302.16866   7559.85495  3.70832         3211.27072     20.60562  0.22405  58105.74808  2.03685  0.05402     1293189.48  45.31428  20.02253  58149.61212    51.24161       44.50437   26.13953  36.90287   51.0    0.24488  -21.55204  0.99665 
   -1.40241  0.17206  2.99872     14.04684   1.5847  0.97826  16.80088  0.02364     0.02287  4459.10754   9364.93552  3.95118         3190.85761     20.68165  0.26692  58105.73759  1.99276  2.89069  1066466.81489  45.48697  20.00651     58154.08     51.2679       44.54522   29.21477  38.44048   61.5    0.18926  -21.60486  0.86342 
   -1.52571  0.12222  3.08483     14.04263   1.8308  1.10974   20.4549  0.01265     0.01586  2702.30655   4512.28726  4.85378         3249.11707     20.82479  0.37112  58105.61429  0.89103   2.4999  1329433.67189  45.42936  20.02888  58149.61212    51.29239       44.60354   24.07727  32.81465   57.5    0.18945  -21.70978  0.89541 
   -1.47818   0.0552  3.09712     14.12324  1.82216  0.83203   9.60926  0.03341     0.14436  3665.26769   3324.91379  4.67516         3195.44326     20.82028  0.36729  58105.66182  0.77007   0.5304   920092.22989  45.58368  19.98698  58149.61212    51.16781       44.40335   27.67715  41.51572   53.5    0.21111  -21.70471  0.97545 
   -1.56884  0.01132  3.38659      14.1126  1.63922  0.86555  14.71825   0.0283     0.01211  5536.62675   3742.36999  3.28693         3326.28797     20.39197  0.13699  58105.57116  2.69137  0.16666  1039411.59938  45.40717  19.88482  58154.13272    51.27739       44.54738   27.67715  38.44048   51.5    0.22947  -21.50123  0.98904 
   -1.40929  0.00104  3.19032     14.00868  1.64947  1.40559  12.04442  0.03931     0.19108  4735.52413   3276.51571  4.13444         3312.10107     20.38032  0.13337  58105.73071   1.6112  0.01256  1497848.82901  45.30305  19.99711     58153.08    51.27802       44.53235   29.21477   39.9781   51.5    0.20528  -21.51409  0.99927 
   -1.25629  0.00385  2.85521     14.19776  1.64773  0.69013   6.32259  0.06418     0.01552  4232.11284   7491.32704   3.4267         3350.84466     20.62654  0.23511  58105.88371  0.67552  0.02434   501703.85138  45.87401  19.97866  58151.87242    51.27549       44.54392   27.67715  36.90287   50.0    0.20371  -21.55113  0.99887 
   -1.49272  0.00232  2.77117     14.04469  1.83525   1.3477   5.07634  0.09286     0.01466  5646.14309   5470.86727  2.12516         3422.04438      20.6707  0.26027  58105.64728  0.96534  0.01177  1065269.04419  45.61976  19.91417  58156.39302     51.2268       44.42537   30.75239  43.05334   47.5    0.21014  -21.67043  0.99956 
   -1.32973  0.29757  2.91394     14.14216  1.81984  0.89117   5.68535  0.09827     0.17014  4982.71409   6750.69939  4.01624          3218.7727     20.74995  0.31238  58105.81027  0.84201  1.69176   745571.81897  45.72743  19.98529     58153.08    51.20675       44.44559   29.21477   39.9781   58.5     0.1712  -21.72829  0.93379 
   -1.38946  0.06948  3.01999      14.0655  1.69656   1.0969  17.40809  0.02055     0.01024  4362.22717   7652.03883  2.87786         3431.53041     20.61323  0.22801  58105.75054  1.97604  1.20947  1062666.12247  45.51201  19.96058  58154.13272    51.27802        44.5506   29.21477  38.44048   56.0     0.2181  -21.55924  0.94293 
   -1.48401   0.0079   3.1103     14.24835  1.91025  0.72278   9.79996  0.05321     0.11868  5703.07047   9467.75915  3.05777         3204.88596     20.67279  0.26153  58105.65599  1.90138  0.07737   546773.25434  45.82652  20.01943     58153.08    51.30817       44.58019   27.67715  38.44048   48.5    0.20225  -21.63966  0.99657 
   -1.84313  0.00194  2.66261     14.12873   1.4746  0.56799  10.97552  0.03755     0.01509  5431.00094   3960.82025  2.82974         3214.60559     20.68567   0.2694  58105.29687  1.93113  0.02128    536584.7928  45.85726  20.02448  58149.61212    51.19432       44.44556   27.67715  38.44048   56.0    0.21615  -21.62782  0.99898 
   -1.49893    0.051  2.86402     14.07875  1.62301  0.84558   8.51158  0.04697     0.03143  4400.91657    3930.7676  3.72818         3265.53074     20.70413   0.2811  58105.64107  0.98339  0.43411   860194.26665  45.63062  20.01195  58151.87242    51.13972       44.43476   27.67715   39.9781   54.0    0.21037  -21.62836  0.97952 
   -1.45551  0.38021  2.96511     14.00884  1.68788  1.42678   3.86411  0.12928     0.02018  5451.38373   4159.82452  3.53509         3161.40098     20.68523  0.26913  58105.68449    0.685  1.46918   1322989.2873  45.43055  20.04879  58149.61212    51.28176       44.55403   26.13953  36.90287   51.5    0.19927  -21.63619  0.93334 
   -1.26313  0.03238  2.69011     14.07513   1.7281   1.0312   4.65123  0.09562     0.29823  4793.10817   9238.37774  2.55369          3462.6761     20.67311  0.26172  58105.87687  0.63743  0.15062   821613.51444  45.73221  20.06467  58147.35182    51.42381       44.74984   23.06429  30.75239   51.0    0.20642  -21.64218  0.99423 
   -1.32058  0.15083  2.01003     13.93253   1.6281  1.38648  20.53293   0.0328     0.02314  5877.15568   7818.40007  2.13949         3162.10111     20.81153  0.35996  58105.81942   4.2307    3.097   833358.97472  45.95329  19.90882  58158.65332    51.33913        44.5152   30.75239  46.12858   65.0    0.16041   -21.8392  0.93225 
   -1.34276  0.07575  2.52868     14.13771  1.62704  0.68484  11.56618  0.04162     0.12702  4110.46197     3645.028  4.27478         3193.85423     20.80662  0.35592  58105.79724  1.16573   0.8761   512373.51819  45.96487   19.9812  58151.87242    51.11604       44.46286   27.67715  33.82763   56.5    0.16865  -21.72401  0.96833 
   -1.49064  0.00129  3.04163     14.04621  2.03186  1.52094    6.3474   0.0507     0.04147  4022.22985   5145.62413  3.06781          3265.8749     20.81724  0.36473  58105.64936  0.61257  0.00822  1410926.27746  45.46102  19.97391     58154.08    51.29257       44.49104   29.21477  43.05334   55.0    0.21419  -21.69819  0.99968 
   -1.48435  0.00138  3.68482     14.16275  1.90678  0.95644  14.02606  0.02337     0.08345  3963.23622   5051.34065  4.75979         3254.77397     20.59005  0.21616  58105.65565   1.3142  0.01938   1136182.3197  45.36087  20.00119     58153.08    51.26161       44.50541   29.21477   39.9781   50.5     0.2209  -21.52927  0.99879 
    -1.3673   0.0573  2.69833     14.00276  1.84476  1.40416   9.68881  0.04727     0.01751  3721.82491   3869.33266  3.84651         3289.18056     20.76504  0.32342   58105.7727  0.80059  0.55517  1231478.55729  45.58217  20.00964  58149.61212    51.31446       44.56481   26.13953  38.44048   57.0    0.16596  -21.72344  0.98082 
   -1.55523  0.00167  2.54447     14.01079  1.65392  0.93483   9.34243  0.03886     0.32537   4499.7299   9813.72941   2.7121         3323.60811     20.83118  0.37663  58105.58477  1.12839  0.01557   946100.93012  45.70023  19.89677  58156.39302    51.12257        44.3525   30.75239  43.05334   53.5    0.20579  -21.72334  0.99942 
   -1.50946  0.30563  3.14488     13.97949  1.59828  1.22339   4.29116  0.10168     0.18994   5036.2822   9351.89004  4.76985         3162.22789     20.66765  0.25845  58105.63054  0.64926  1.31151  1613240.79227  45.26959  19.97004     58153.08    51.15376        44.3937   29.21477   39.9781   54.0    0.20641  -21.63706  0.92755 
   -1.34081  0.01609  2.92119     14.17825   1.9169  0.82887  12.13091  0.06443     0.01805  6117.29323   5394.62868  3.92358         3139.33805     20.66114  0.25461  58105.79919  2.70794  0.19522   668406.81997  45.79529  20.02048  58151.87242    51.38198       44.60066   27.67715   39.9781   55.0    0.16787  -21.74352  0.99245 
   -1.51468  0.47909   3.7155     14.05306   1.7279  1.49872   9.80589  0.03888     0.03719  4928.96392   7304.04549   4.7368         3145.30941     20.68772  0.27067  58105.62532   1.4211  4.69787  1734816.26905  45.12708  19.96566     58154.08    51.29669        44.5912   27.67715  36.90287   76.0    0.19984  -21.61842  0.74217 
    -1.4602  0.02566  3.74597     14.18998  1.94281  1.08797   16.4804  0.03218     0.03444  5182.87228   8643.99089  3.85107         3319.92139      20.0873  0.06792   58105.6798   2.6408  0.42282  1055403.76566  45.38673  19.96606  58154.13272    51.33976       44.57995   29.21477  41.51572   50.5    0.19479  -21.45316   0.9741 
   -1.56827  0.03032  2.28917     14.01984  1.59692  0.84537  13.82371  0.03317     0.29774  5188.42966   5860.11904  2.65015         3156.68024     20.86159  0.40394  58105.57173  2.21985  0.41911   709211.77835    45.902  19.98558  58151.87242    51.08191       44.34229   29.21477  38.44048   57.5    0.19776  -21.77777  0.98699 
   -1.48342  0.00629  2.28862     13.82568  1.32866  1.09012   8.60807  0.04059     0.29159  3998.38988    5503.2692  4.04087         3158.09355     20.84933   0.3927  58105.65658  0.82092  0.05414  1442140.43195   45.5141  19.95649      58153.1    51.22012       44.43489   29.21477  43.05334   53.5    0.20612  -21.72397  0.99775 
   -1.49934  0.00167  3.22393     14.05226  1.80599  1.29282   4.50086  0.11915     0.01607   5674.1707   9580.54774  4.77652         3101.93346     20.71098  0.28557  58105.64066  0.86443  0.00753  1370201.78676  45.37201  19.93384     58154.08    51.35461        44.6473   26.13169   36.9107   44.0    0.20927  -21.65519  0.99961 
   -1.24048   0.2211  2.51662     14.15262  2.15073  1.21308   4.23416  0.13988     0.11053  5548.22073   6852.77834  2.10826         3285.32985     20.81241  0.36069  58105.89952   0.7775  0.93617   626318.30204    46.003  19.96515     58154.08    51.37349       44.62369   29.21477  38.44048   56.5    0.17765  -21.77901  0.97783 
   -1.51184  0.22763  2.81422     13.91975  1.48997  1.20752  11.20327   0.0216     0.01363  3269.96019   9684.35856  3.32981         3385.83051     20.71807  0.29027  58105.62816  0.71459  2.55025  1585633.76837   45.3431  20.01328  58149.61212    51.24195        44.5055   27.67715  38.44048   62.5    0.20515  -21.59303  0.88102 
   -1.28158  0.05039  2.22593     13.91854  1.61207  1.17363   9.20889  0.05577     0.05067  3968.49421   6669.65173  4.32762         3129.11992     20.89104  0.43228  58105.85842  0.86514  0.46403  1079285.22957  45.74807  19.98245  58151.87242    51.19522       44.42561   29.21477   39.9781   57.5    0.15873  -21.83777  0.98658 
   -1.25528   0.0156  2.60281     14.09636  1.86209   1.0186   6.38025   0.0834      0.0645  5166.56407   9949.29444  2.73789         3223.70521     20.77245  0.32899  58105.88472  1.01594  0.09953   751599.58796  45.83198  19.94824     58153.08    51.11283       44.37223   29.21477  41.51572   50.5    0.18412   -21.7156   0.9968 
   -1.57997  0.38458  3.28308     14.07936  2.06169  1.44653   3.70882  0.13914      0.4471  5339.75128   5304.88236  4.34102         3032.12084      20.7877  0.34074  58105.56003  0.63082  1.42634  1431812.38587  45.39462  19.96871     58153.08    51.34013       44.58003   27.67715   39.9781   60.5    0.18705  -21.74663  0.94064 
   -1.52886  0.00361  2.69305     13.94998   1.7115  1.40449    8.2409  0.03039     0.02129  3724.57561   7649.18101  2.57357         3393.23699     20.79324  0.34512  58105.61114  0.68195  0.02976  1451210.74205     45.48  19.91972  58154.13272    51.17397       44.47106   27.67715   39.9781   55.0    0.23085  -21.63318  0.99883 
   -1.44842  0.02475  2.62183     13.92228  1.61161  1.47116  11.69246  0.06403     0.01559  6581.02429   8792.84259  4.25145         2999.53058     20.72906  0.29771  58105.69158  3.02079  0.28935  1471409.25615  45.47116  19.96536      58153.1     51.1644       44.39881   29.21477  41.51572   50.5    0.17674  -21.76992  0.98834 
   -1.54181  0.15205  3.41908     14.03867  1.82123  1.48966  20.68414   0.0169     0.07965  3985.90106   5099.32544  4.75339         3210.14356     20.73521  0.30195  58105.59819  1.96028  3.14506  1654428.73925  45.24274  19.98394     58154.08    51.13813       44.41238   29.21477  41.51572   64.0    0.19924   -21.6653  0.84606 
    -1.5742  0.01915  2.87189     14.33882  1.57465  0.39108  14.94548  0.03086     0.03749  5449.78803   9833.53715  4.17916         3068.62937     20.72231  0.29311   58105.5658  2.64787  0.28617   253333.85035    46.146  20.01369  58149.61212    51.18411       44.45807   27.67715  36.90287   50.0     0.2146  -21.66091  0.98568 
   -1.44011  0.02228  2.56745     13.96346  1.74277  1.30655  11.54784  0.02798      0.0158  3328.71277   3798.35621  3.39898         3295.00045      20.8546  0.39749  58105.69989  0.76327  0.25725  1262220.83951  45.58995    19.929  58156.39302    51.23614       44.46524   30.75239  43.05334   54.0    0.19004  -21.71175  0.99114 
   -1.54796  0.19458  3.17265     14.03937  1.87858  1.25221   7.09964  0.05665     0.22668  3996.32528   5484.94336  4.74548         3205.26515     20.75187  0.31376  58105.59204  0.67637  1.38143  1464698.90055  45.37408  19.99717  58149.61212     51.2585       44.57934   24.07727  32.81465   58.0    0.18317  -21.71344  0.93837 
   -1.46193  0.29495  3.42174     14.02432  1.54543  1.28231  16.27343  0.02404     0.30898   4724.4694   6293.05176  4.13478          3264.9041     20.55556  0.19966  58105.67807  2.16677  4.79988  1502200.09728  45.21267  19.98066  58151.87242    51.21976       44.46981   29.21477  38.44048   75.0    0.18894  -21.56931  0.73785 
   -1.51662  0.00608   2.8415     13.90668  1.51488   1.4769     8.009  0.05058     0.02624  4745.49599    4866.9246  4.62948         3159.35832      20.7433  0.30763  58105.62338  1.07589  0.04873   1745498.4504  45.30021  19.95757  58151.87242    51.18115       44.42066   29.21477   39.9781   51.5    0.21104  -21.65556  0.99744 
   -1.65814   0.2092  3.26706     14.40193  1.66319  0.39372   4.03482  0.11199     0.34336  5951.07724   4068.83631  3.11019         3210.06184     20.50657  0.17836  58105.48186   0.8524   0.8441   258943.26165  46.04827  19.96321  58151.87242    51.38583       44.66017   26.13953  38.44048   56.5    0.22599  -21.55837  0.95139 
   -1.34724  0.00534  2.70228     13.98038   1.5252  1.04295  20.90457  0.01709     0.01846  3677.98228   4366.57839  3.23291          3439.4072     20.50294  0.17687  58105.79276  1.68689   0.1117  1131992.91356  45.53487  20.01741     58154.08    51.28731       44.53287   29.21477   39.9781   53.5    0.19713  -21.53978  0.99478 
   -1.62932  0.04881  2.99293     14.11143  1.58657  0.64447   16.4477  0.01266     0.19568  3666.69204   7948.92104  3.64277         3226.61441     20.85399  0.39694  58105.51068  1.31911  0.80289   789978.30359   45.6195    19.931  58154.13272     51.2298       44.46227   30.75239  41.51572   57.0    0.25824  -21.63751  0.95794 
   -1.45159   0.0076  3.30165     14.13797  1.83782  0.98157  14.80358  0.03381     0.01077  5400.00971   6336.59484  3.62822         3224.52322     20.55456   0.1992  58105.68841  2.57503  0.11247   985472.88507  45.50204  19.97764      58153.1    51.25537        44.5103   27.67715   39.9781   52.0    0.20559  -21.57381  0.99406 
