 texplosion  fnickel     Pspin  log(Bfield)      Mns  thetaPB   mejecta    kappa  kappagamma     vejecta  temperature    alpha  cutoff_wavelength  log(nhhost)      A_V         MJD0   kenergy   mnickel                TSD   log(L0)  Peak_mag     Peak_MJD  log(E_rad)  log(Peak_lum)  Rise_Time     E_fold  tau_1  delta_m15     r_peak     frac 
  -72.76784  0.39036   3.67302     12.65997  1.92834  1.21755  63.13375  0.03659     0.02207  3731.07766   6686.73354  1.28254         5986.06571     17.22027    9e-05  55341.83216   5.24273  24.64459   1156381088.62765  42.36088  23.00541  55526.65142       51.39       44.16213  102.42889  136.95548  132.0    0.02612  -21.68899  0.05233 
  -67.41141  0.11356   4.16197     14.09541  1.90306  0.76297  75.48424  0.02255     0.16868  2927.39623   6340.69892  1.58972          4925.0429     17.55047   0.0002  55347.18859   3.85875   8.57222      1972651.16262  45.01465  23.06874      55508.3    51.77659        44.6613   70.31553   97.71389  122.0    0.03275  -21.26989  0.58739 
 -130.96335  0.31257  19.81327     13.52477  1.73616  0.43808   66.7026  0.02819     0.19984  2803.78595   3982.91303  0.67072         4632.46069     16.61667    2e-05  55283.63665   3.12795  20.84952    564641973.43277  41.16275  22.91847  55538.73573    51.31924       44.08769    101.278  136.95548  130.5    0.03184  -20.96075  0.00089 
  -42.37118  0.28939   0.79978     14.77472  1.66621  0.09984  48.45907  0.18611     0.05993  4466.01603    9441.7439  2.12013         3557.88543     20.97924  0.52962  55372.22882   5.76558  14.02352         2792.80687   49.2386  23.10115  55550.82003    51.40222       43.99581  115.08864   245.1388  126.0    0.01348  -21.88038  0.95281 
  -55.12959  0.04305   1.24697     13.65453  1.69025   1.5514  60.13463  0.17943     0.01212  2986.32491   6204.16255  1.67343         3637.19665     19.39783  0.01389  55359.47041   3.19909   2.58901      1197871.01024  46.22667  23.15336   55521.8177     51.6923       44.48187  100.12712  130.05016  176.0      0.009  -21.33044   0.9783 
   -83.9005  0.03482   1.75767     13.58125  1.53354  1.54128  86.56435   0.0345     0.08842  1168.52683   3514.72225  2.83055         3762.08881     17.35173  0.00012   55330.6995   0.70509   3.01392      3026130.13076  45.48378  22.93693  55550.82003    51.45331       44.22272  110.48509  135.80459  198.0    0.00974  -20.84687  0.94322 
  -45.62304  0.32802   4.84209     14.06391  1.59403  0.65249    11.976  0.05001      0.2832  2390.65264   7120.86123  3.40807         3544.42493     19.71052  0.02853  55368.97696   0.40829   3.92832      2585548.41796  44.68872   23.1029  55516.98397     51.1997       44.02691   77.10939  124.29573  126.5    0.06024  -20.74577  0.63331 
  -83.67821  0.07174   1.53179     13.40178  1.63068  1.36431  77.26155  0.21706     0.03706  4088.18095   6801.93679   2.5027         3374.93216     18.38811  0.00136  55330.92179   7.70284   5.54297      5585085.83392  45.36378  23.04092      55508.3    51.51189       44.32519   84.01471  127.74839  206.0    0.00919  -21.67735  0.92733 
  -45.26028  0.01894   1.20001     14.56563  1.80879  0.16893   78.0437  0.05809     0.28967  1332.72517   9106.64915  3.24143         4007.62684     18.53688  0.00191  55369.33972   0.82689   1.47822        17877.85559  48.11555  23.05221      55502.3    51.19178       43.99645   89.76914  128.89928  186.0    0.01048  -21.07359  0.98958 
  -32.39221  0.22012   1.50955     14.36695  1.85092  0.77155   57.5478  0.07692     0.01618  4972.88082   6986.15107  4.59159         3174.22532      20.6474  0.24668  55382.20779    8.4893  12.66726        72275.85967  47.31954  22.95116  55531.48514     51.2543       44.01463  102.42889  141.55903  120.0    0.02075  -21.38021  0.88311 
 -160.76096  0.49591    4.4698     12.50898  2.08656  0.21502  69.01808  0.06481      0.1881  1704.00457   7248.33488  3.06441         3525.96906     19.65607  0.02516  55253.83904   1.19545  34.22709   3714203170.10712  41.71783  23.14754  55507.31653    51.37453       44.11406  104.73066    151.917  162.0    0.01311  -20.84832  0.00051 
  -81.07819  0.00101   2.21432     14.08628  1.67691   0.3352  50.91151  0.06609     0.01688  4132.98178   4544.28869  1.72599         3776.00537     20.89151  0.43275  55333.52181   5.18764   0.05158       513154.27789  46.09262  23.10132   55565.3212    51.54269       44.14813  156.52055   262.4021  118.0    0.03318  -21.54568  0.99856 
  -49.34639  0.11683   2.27019     14.05121   1.8626  0.78856  44.45842  0.15618     0.03374  4462.46274   8953.88471  3.48656         3223.21478     18.75151  0.00313  55365.25361   5.28117   5.19412       704114.88573   45.9792  23.00027  55529.06828     51.3156       44.07022   98.97623  145.01169  118.0    0.01764  -21.23379  0.88668 
   -91.5426  0.07169   2.33972      13.4047  1.56386  0.65337  20.30712   0.0952     0.11141  4737.24363   9975.14513  0.83094         3845.48171     20.54463   0.1947   55323.0574   2.71849    1.4559     12329589.34371  44.63377  23.06817  55487.98164    51.23986       44.14533   69.05318   98.97623  177.5    0.03674  -21.46458  0.94216 
   -27.1069    0.006   1.95965      14.2909  1.65558  0.49833  53.15982  0.06792     0.20982  3306.96677   3961.21483  3.34837         3560.19068     18.63572   0.0024   55387.4931   3.46793   0.31896       154638.27761  46.71412  23.30577  55519.40083    51.24895       44.03372  102.42889  132.35194  104.0    0.02736  -20.89648  0.99313 
  -64.04714  0.21219  11.92398      14.8757  1.35601  0.73026  76.10572  0.01515      0.2778  2178.56215   6803.48621   2.8819         3630.97743     17.44938  0.00016  55350.55286   2.15469  16.14859       317331.58458  44.74675   23.2543  55519.40083    51.16432       43.91431   95.52357  148.46435  146.0    0.02622  -20.92157  0.05406 
 -111.93393  0.29172   5.21506     12.68941  1.79436  0.72446  93.28714  0.02454     0.03394  1575.54055   7643.85464  3.38518         3717.97906     17.10742    7e-05  55302.66607   1.38136  27.21334   1894207268.93828  41.81081  23.05634   55502.4828    51.09077       43.99004   55.24255  108.18332  156.0    0.01631  -21.01973  0.00739 
   -6.62943  0.22591   0.71347      14.3107  1.72205  1.52306  48.46428  0.04123     0.31878  1955.02415   9801.85426  3.88758         3686.33388     16.94698    5e-05  55407.97057   1.10498  10.94849        19463.19295  48.50893  23.11239  55526.65142    51.27591       44.05182   90.92003  139.25725  134.0    0.02099   -20.9191  0.98727 
  -95.04022  0.05468   1.38973     13.50451  1.89124  1.12825  70.18106  0.09198     0.03485   3545.8042   9311.27934  1.65767         3685.24256     21.13001  0.74944  55319.55978   5.26352    3.8378      3321991.87883  45.73834  23.14841  55567.73806    51.34859        44.0258  157.67144  165.72764  144.0    0.01425  -22.07162  0.96584 
  -55.93392  0.33482   2.91036     12.37994  1.99618  1.44948   52.5022  0.02257     0.04587  3668.52979   8020.01219  1.15938         5909.50519     17.76801  0.00033  55358.66608   4.21491  17.57862   2729197324.22475  42.20512  23.13331  55555.65376    51.33666       44.02641  150.76612   161.1241  130.0    0.03458  -21.42832  0.05955 
  -35.33095   0.1337   1.22931     13.84355  1.71013  0.91403  53.89322  0.17068     0.05133  3744.51763   5271.76203  1.65849         4555.59704     20.13117  0.07514  55379.26905   4.50768   7.20549       493254.32794  46.62948  23.10489  55509.73339     51.4948       44.20971   82.86382  173.78385  148.0    0.01543  -21.66279  0.94455 
 -160.92536  0.10214   1.36014     13.41455  1.81145  0.53713  95.10659  0.21458     0.32048  2199.74376   4861.08177  3.19646         3218.72745     16.97716    5e-05  55253.67464   2.74525   9.71383        4612093.382  45.59581  23.05584  55492.81536    51.31052       44.17704   63.29875  116.23953  334.0    0.00347  -21.65663  0.90802 
  -92.54402  0.22487  25.39788     14.14829  1.45797  0.51593   93.5936  0.01755     0.02194  2005.86932   4081.05708  2.70664         3524.75584     18.24634  0.00098  55322.05598   2.24636  21.04596     44113482.19555  41.97843  23.17673  55492.81536    51.13983       43.99229   82.86382  111.63598  150.0    0.01831  -20.95033   0.0046 
  -93.46448  0.33022  16.89776     13.98823  1.68155  0.70722  86.21149  0.02127     0.07196  2474.27465   8638.60199  2.04496         4737.69558     20.36124  0.12763  55321.13552   3.14839  28.46892     47067148.44238  42.36618  23.04139  55495.23222    51.25588       44.09199     69.323   125.1768  134.0    0.02362  -21.54348  0.01172 
  -44.33559  0.00474   1.36219     14.01297  1.87739  0.81199  97.64009  0.05241     0.18209  2047.94331   3100.52918  2.36607          4156.4365     16.24617    1e-05  55370.26441   2.44282   0.46273       304727.45041  46.79001  23.00737  55531.48514    51.59593       44.30427  112.78687  158.82232  156.0     0.0138  -21.09376    0.996 
   -76.7569  0.02249   2.57027     13.81016  1.63413   0.6663  38.55192  0.12758     0.40887  4210.49154    8226.5682  4.14851         2922.28197     19.40023  0.01396   55337.8431   4.07698   0.86706      2402886.82272  45.28144  23.16212  55526.65142    51.69324       44.53384   84.01471  110.48509  122.0    0.02397  -21.22628  0.96663 
  -78.15865  0.00938   2.39304     13.93325  1.72442  0.82002  73.90734  0.03657     0.13735  2268.96636   4497.22222  1.90573          3881.5967     17.83646  0.00038  55336.44135   2.26971    0.6934      1246972.98763  45.65173  22.89408  55589.48982    51.42424       44.12259  146.16257  158.82232  130.0    0.02374  -20.86849  0.97902 
  -32.18787  0.03306     1.671     14.79597  1.75542  0.14495  37.87402  0.08625     0.39945   1916.5254    6955.6838  3.82324         3562.54121     16.78584    3e-05  55382.41213   0.82985   1.25202        11646.76794  48.00107  22.96426  55538.73573    51.35902       44.10416    75.9585  162.27498  140.0    0.01711   -20.7845  0.98225 
  -58.53917  0.07926   2.61564     14.03113  1.47796  0.67923   33.6953  0.05321     0.01974   2088.9664   9625.54915  3.06717         3765.46111     19.46575  0.01624  55356.06083   0.87712   2.67079       813536.94175  45.69298  23.15601  55514.56711    51.17914        43.9954   86.31648  123.14484  112.0    0.02765   -20.8184  0.88977 
  -63.99778   0.2177   20.9593     14.81247   1.3183  0.22832   60.8036  0.01315     0.11511  2365.81687   3560.17186   2.5759         3628.05325     19.74631  0.03098  55350.60222   2.03011  13.23705      1275380.01108  43.64047  23.11418  55509.73339    51.23473       44.06065   84.01471  120.84307  146.0    0.03275  -20.80906  0.01813 
  -94.77316  0.38512  16.51843     15.13856  1.78368  0.71421   67.7956  0.05545     0.15755  3184.08746     5422.447  2.08499         3731.96617     18.57418  0.00208  55319.82684   4.10014  26.10954       238749.13752  44.70628  22.95143  55531.48514    51.28642       44.01249  104.73066  156.52055  136.0    0.01771  -21.26241  0.02707 
  -43.73492  0.02993   1.14828     13.63132  1.63576  1.22926  69.86695  0.11737      0.0104  2189.15646   7490.91552  2.94014         3699.42272     20.19336  0.08671  55370.86508   1.99734   2.09125      1093948.33249  46.32347   23.1594  55495.23222    51.11093       43.96354   70.20407  113.93775  192.0    0.00797   -21.3796  0.98429 
  -91.80144  0.11722   1.85452      14.6022  2.17987  0.12776  72.26356  0.14672     0.09803  2716.03925   5085.76324  2.13046         3928.99387     19.63645  0.02405  55322.79856   3.17994   8.47069        43481.57609  47.43251  22.80857  55606.40785    51.83162       44.42023  170.33119  232.47905  190.0    0.00768  -21.41124  0.89988 
  -46.93592  0.00536   1.59885     14.04557   1.6684  0.68057  44.21029  0.10568     0.06738  3314.83631   6492.10611  1.81007         4661.46411     17.07105    7e-05  55367.66408   2.89784   0.23677         321070.068  46.57693  22.82083  55591.90668    51.55119       44.16626  132.35194   219.8193  116.0    0.02421  -21.32382  0.99662 
  -34.42521  0.05303   1.29753     14.79452  2.05373  0.16321  53.71907  0.03601     0.18978  2061.94952   5244.62527  2.18725         4320.19409     20.88033  0.42175  55380.17479   1.36242    2.8489         8270.83129   48.4376  23.21609  55514.56711    51.21836       43.99781  104.73066  133.50282  116.0    0.02349  -21.49958  0.98093 
  -96.93535  0.43898   3.68454     14.11357  1.48855  0.44266  62.14612  0.05294     0.01704  2353.41567   6952.82714   2.1426         4586.10916     19.72478  0.02948  55317.66465   2.05323  27.28067      1112273.17531  45.26263  23.01343  55526.65142    51.23678       44.05387   86.31648  125.44662  150.0      0.016  -21.54055  0.28104 
  -87.80437  0.02383   2.95648     13.69223  1.77945    1.398   24.5319  0.11091     0.07399  3202.27118   3002.74373  1.38895         4033.65656     17.62187  0.00023  55326.79563   1.50063   0.58463      5959091.18074   44.8024  23.04712      55507.3    51.31299       44.09019   90.92003  136.95548  128.0    0.02937  -21.06476  0.97359 
  -57.26049  0.10108   1.14892     13.91981  1.61134  1.05132  39.68658  0.13306     0.03468  2589.76305   4842.33787  1.39348         4130.32952     18.76333  0.00322  55357.33951   1.58778   4.01168       285737.54886  46.89949  23.08479  55572.57179    51.57435       44.17536  178.38739  216.36664  140.0     0.0138  -21.04713     0.97 
 -127.10196  0.06271   1.78149     13.50679  2.17554  0.75093  72.84124  0.21989     0.13169  3470.86401   9727.74264   1.5773         4152.79936     17.76019  0.00032  55287.49804   5.23455   4.56773      6213868.80995  45.31148  23.03976   55521.8177    51.21179       44.01892   89.23635   127.1303  274.0     0.0043  -21.72307  0.94273 
   -60.1912  0.31329    3.1915     13.80589  1.36348  1.11339  23.12523  0.08271     0.01179  3002.88384   9667.25683   1.9625         3815.85282     19.46439  0.01619   55354.4088   1.24391   7.24488      3152700.32852  44.89682  23.09174  55555.65376     51.3654       44.08168  132.35194  153.06789  106.0    0.03425   -21.0161  0.63621 
  -42.67024  0.01892   0.86109     14.44801  1.38066  0.25521  62.28987   0.0698     0.46104  2203.37608   4563.65516  2.60346         3678.77827     16.57415    2e-05  55371.92976   1.80394   1.17872        12077.40443  48.45686  23.04211  55514.56711    51.34332       44.12712  116.23953  128.89928  140.0    0.01627  -20.79489  0.99378 
 -142.44991  0.00704   1.55843      12.9654  1.36664  0.92411  33.24075  0.20258     0.10718  4981.22985   4936.32062   0.0161         4887.83434     16.31114    1e-05  55272.15009   4.92007   0.23399     36145532.78254  44.46107  23.06997  55589.48982    51.48655       44.03509    151.917  273.91096  288.0    0.01485  -21.67725  0.99403 
  -54.28782  0.02531   0.71014     13.84296  1.67442  0.99712  73.78616   0.2993     0.01009   5236.8872   3870.78165   1.0514          4093.2972     17.66264  0.00026  55360.31218  12.07115   1.86719       161603.85104  47.58157  23.11254  55524.23456    51.23652       43.96241  104.73066  153.06789  140.0    0.01122  -21.43203   0.9949 
  -89.96657  0.02289   1.79695     13.34488  1.35346  1.37081  45.34087  0.07076     0.05953  1717.43461   3690.03024  2.27246         4140.55684     17.73924   0.0003  55324.63343   0.79777   1.03779      8290307.51444  44.97265  23.08152      55535.2    51.48323        44.2557    93.2218  139.25725  192.0     0.0134  -21.24455   0.9736 
  -100.6262  0.33504   2.79932     13.28106  1.68263   1.4043  20.72813  0.16397     0.01582  5427.08947   9982.15896  0.25802         3580.97654     19.75342  0.03149   55313.9738   3.64184   6.94473     33557548.86649  44.07494  23.08216      55504.4    51.22996       44.02143   85.35512   133.3133  119.5    0.03092  -21.20883  0.72404 
  -92.44526  0.46114   2.03085      14.1841  1.91486  0.71356  62.73258  0.13754     0.04061  2715.67124   5637.23422  2.28145         3573.66793     16.25196    1e-05  55322.15474   2.75978   28.9287       314132.61722  46.43851  23.05828   55521.8177    51.52324       44.32839    67.9023  138.10637  172.0    0.01088  -21.23821  0.64814 
   -65.5318  0.31549    4.9525     14.14053    1.617   0.4844  49.05678  0.05378     0.02158  3338.32966   8795.44014  2.37858         3715.22758     18.69826  0.00277   55349.0682   3.26125  15.47707      1928065.48352  44.80278  23.09836      55477.3     51.2994       44.12888   60.11591  132.08212  124.0    0.02616  -21.26836  0.29683 
 -112.70182  0.22173   1.18421     12.74591  1.64767  0.52984  52.62127  0.03193     0.18292  1785.02736   9039.39828   2.1165         4729.14335      16.2194    1e-05  55301.89818   1.00018  11.66793     69140801.58611  44.49912  22.96819  55587.07295    51.49884       44.12105  159.97321  208.31044  628.0    0.00816  -21.73589  0.77513 
  -30.08866  0.02598   1.46475     14.10286  2.13284  1.31111  95.01567  0.02054     0.06942  1346.54209   6967.40289  2.48975         4357.37499     20.02275  0.05854  55384.51134   1.02769   2.46818        264593.6389   46.8437    23.023  55480.73105    51.30994       44.04805   97.82534  166.87853  138.0    0.01505   -21.0005  0.98015 
  -72.53952  0.01201   3.19517     13.94278  1.80665  0.56371  92.68655  0.01322     0.03279  1481.77189   3620.15225   3.1559         3796.33941     17.32756  0.00012  55342.06048   1.21397   1.11317      2229040.82909  45.16861  23.13316  55504.89967    51.12291        43.9906   60.99698  116.23953  162.0    0.02445  -20.89939   0.9436 
  -66.33981  0.03818    1.8568     13.86482  2.14014  0.76723  60.59338  0.03575     0.01169  1873.71384   6463.61536  1.83771         4448.51745     20.90191  0.44323  55348.26019   1.26899   2.31372      1276874.85911  45.95561  23.20651      55510.3    51.21438       44.01774   90.92003  127.74839  152.0    0.02053  -21.73567  0.96965 
  -92.06786  0.29902     8.505     14.13637  1.74541  0.45323  68.37242  0.03561     0.02742  2638.46613   6509.88393  2.70028         3385.58726     19.84294   0.0387  55322.53214    2.8393  20.44472      6256342.13826  43.85507  22.90704  55553.23689    51.29689       44.03177  127.74839  146.16257  148.0    0.01835  -21.08545  0.09323 
 -103.62957  0.45855  13.00587     14.18394  1.76148  0.47287  66.65754  0.04873     0.15939  2641.07593   6347.40959  2.13683         4399.47873     16.88772    4e-05  55310.97043   2.77356  30.56568     11860164.08995  43.21235  23.10361  55514.56711     51.1706       43.99496   81.71293  124.29573  144.0    0.01744  -21.44817  0.02509 
  -29.86214  0.00218   2.00951     14.37555  1.62726   0.4866  89.89609  0.01165     0.15702  1629.63348   4417.85519  2.83067         3865.01818     16.94533    5e-05  55384.73786   1.42412   0.19586        108230.7532  46.83977  23.01316  55584.65609    51.60366       44.23429  157.67144  207.15955   96.0    0.04465  -20.66055  0.99545 
   -71.0842  0.00181   2.75797     13.28442  1.65331  0.77775  15.57164  0.03217     0.02335  2854.39095   9348.04065  4.80078         3249.41541     18.08427  0.00067   55343.5158   0.75681   0.02824     31514861.22298  44.10751  23.00978  55497.64908    51.14595       44.07537   59.75904   93.30885  272.0    0.02653  -20.86548  0.99818 
  -79.78765  0.49924   2.28382     15.09296  1.95184  0.40566  41.80391  0.09706     0.01356  4150.66637    9976.6839  3.58722         3170.33887     16.55957    2e-05  55334.81235   4.29615  20.87028         6161.21699   48.0523   23.1252   55490.3985    51.09267       43.95788    67.9023  111.63598  130.0    0.01886  -21.14259  0.74668 
 -105.17966  0.20527   1.39776     14.39236  2.05621  0.16929  42.06913  0.19242     0.01533  4688.38583   3822.37501  0.59265         4028.16347     21.10781   0.7121  55309.42034   5.51617   8.63564        61238.22687  47.50402  22.78889  55570.15492    51.47129       44.20584   118.5413  149.61523  128.0    0.01855  -21.95797  0.93461 
