 log(Bfield)      Mns     Pspin  cutoff_power  cutoff_wavelength  fnickel    kappa  kappagamma   mejecta  log(nhhost)  temperature  texplosion  thetaPB      vejecta      A_V        MJD_0   log(KE)      M_Ni  Peak_mag     Peak_MJD 
     13.1022  1.52251  12.13425       0.12434         4605.55288  0.43749  0.08687     0.11133  85.76589     17.77619   3270.49996   -93.98407  1.37775     6571.456  0.00033  55320.61593   52.4012  42.77751  23.15427  55527.16992 
    13.62397  1.83344   3.90211        1.1894          5745.5603  0.13369  0.01579      0.2247  82.35842     16.04638   7192.55073   -84.21673  0.84996   2811.31372    1e-05  55330.38327  51.66108   12.9935  23.08555  55527.16992 
    13.59222  2.11456   9.48443       0.18404         5636.03182  0.48695  0.07202     0.32215  45.21129     16.73228   8565.37633   -62.73561  0.00393   7410.96521    3e-05  55351.86439  52.46242  43.10468  23.12084      55508.3 
    14.78667  1.62898   1.98032       3.79925         2290.70062  0.48016  0.20609     0.01991  27.98621     19.60711   9303.61435   -25.77072  0.19124   7009.08154  0.02248  55388.82928  52.37855  39.17336  23.11457      55508.3 
    13.66973  1.73963   1.51125       1.56937         3277.90477  0.41735  0.25482     0.01091  39.50837     20.57166   3149.49593   -77.58785  1.54625   3706.65795   0.2072  55337.01215  51.85096  36.12962  23.27789      55498.3 
    13.74648  1.76518   1.93829       2.60131         3379.50451  0.04453  0.08268     0.08061   48.9228     17.92522    3078.6166   -79.84679  1.44839   1655.86612  0.00047  55334.75321  51.16628   3.99293  23.08272  55527.16992 
    14.29573  1.61502   4.29812       2.80407         3348.77402   0.2744  0.05442     0.23006  19.68972     17.94381   6231.04895   -60.19935  0.18136   3658.05107  0.00049  55354.40065  51.78578  20.99095  23.08333  55521.41704 
    13.59144  1.48184   1.85015        3.7879         2373.04677  0.40346  0.25987     0.04027  59.46705     18.54532    8637.1947   -92.56379  1.18538   6096.42347  0.00195  55322.03621  52.31184  37.31359  23.17969      55498.3 
    13.74009  1.65502   1.61908        2.6666         3610.92113  0.10431  0.07099     0.23977  55.48415     16.34754   8050.03762   -45.83282  0.84707   1429.04301    1e-05  55368.76718  51.04705   9.54214  22.93035  55524.29348 
    14.66321  1.88893   2.62236       3.97216         2794.34382  0.28258  0.03126     0.01042   93.4154     20.96359   6771.37259   -33.12094  0.54035   7239.68745  0.51088  55381.47906  52.49077   27.9793  23.00027      55508.3 
    13.88798  1.76628  18.04571       2.73451         2611.77857  0.43004  0.06434     0.02374  74.49528     19.52335    6574.1482  -118.91086   0.6148   3587.95693  0.01854  55295.68914  51.86642  41.17317  23.23281      55508.3 
    13.48746  1.51106   1.75949       1.75848         3448.06259  0.00124   0.0682     0.01013  69.09392     20.75691   7333.42254   -78.77347  1.02824   3510.76088  0.31742  55335.82653  51.84257   0.11764  22.99242  55561.68722 
    14.04419  2.06375   3.13456       4.31896         2134.26016  0.49591  0.20572     0.01645  40.16814      18.1157   9944.72675   -51.30952  0.93653   6742.21942  0.00073  55363.29048   52.3718  43.04933   23.1557  55495.52907 
    12.96253  1.40726   1.28383       0.17366         4224.77868  0.01442  0.05942     0.14276  16.14202     20.89905   9397.36388  -105.49925  0.50233   4837.62641  0.44033  55309.10075  52.01192   1.06166  23.07606  55489.77619 
    14.23446  1.57566    1.6688       4.60043         3214.46592  0.01243  0.07174     0.25191  48.31104     18.67251   4132.26006   -23.69237  0.60374   3246.30788  0.00261  55390.90763  51.75013   1.11228  22.95863      55499.3 
    12.40022  1.62805  22.61592       1.29747         2586.75936  0.33127  0.06179     0.43712  93.02741     19.82487   4247.34973   -75.67748  0.95697   8408.72064  0.03712  55338.92252  52.62052  32.78099  22.96177  55547.30501 
    12.61615  1.82352   3.08774       4.71322         3067.07963  0.28052  0.02369     0.03199  86.90559     17.47634   7395.83067   -97.80287  0.82405   1790.34445  0.00017  55316.79713  51.27259  27.48294  23.20641  55486.89975 
    14.19439  1.75637   1.47497       3.16121         3534.51671  0.11328  0.05869     0.13836  42.93069     18.29277   8496.48384    -25.9947   1.2991   2444.42493  0.00109   55388.6053  51.49533   9.94278  23.17973  55501.28195 
    13.48833  1.96181    1.2105       1.22947         3863.36717  0.02173  0.05267     0.04973  86.24493     21.23466   8774.88702   -93.35525  1.19035   2883.12191  0.95365  55321.24475  51.68596   2.12679  23.01681  55527.16992 
    15.14801  1.89355  24.91478       2.79485         2492.53516  0.40469  0.05121     0.20689  46.29441     19.27473   8880.26199   -59.83018   1.4562   6092.51231  0.01046  55354.76982  52.29394  35.96154  23.08398      55508.3 
    13.96507  1.87144   1.11299       2.99045         3268.51977  0.12134  0.18546     0.06511  63.92859     20.08477   4108.07314   -17.21293  0.97852   4609.44182  0.06753  55397.38707  52.07387  11.34889  23.01408  55532.92281 
    13.24689  1.59398    1.0333       4.87086         2701.48546  0.21198  0.27501     0.12295  65.04904     16.84713   6365.94383  -154.49652  0.42494   1929.66149    4e-05  55260.10348   51.3187  19.87931   23.0668  55515.66416 
    13.12015  1.48997  15.97299        3.6789         3201.65872  0.23855  0.02011     0.01071  88.14776     20.09162   3649.35885   -60.28988  0.52645   3175.66005   0.0686  55354.31012   51.7713   23.4197  23.08901  55486.89975 
    14.19094  1.30862  27.82846       2.12252         2628.27874   0.2048  0.03341     0.02235  99.88536     18.47314   4919.79759   -50.14697  0.52526   8085.76539  0.00165  55364.45303    52.591  20.47624  23.20477  55495.52907 
     14.0011  2.07121   2.41603       1.67129         3949.91151  0.00871  0.06026     0.22395  76.07018      17.0216   3154.54381   -58.20785  0.82234   2894.25729    6e-05  55356.39215  51.68117   0.83663  23.06257  55553.05789 
    13.64316  1.83194   2.29254       3.61076         3093.12334  0.00988  0.12865     0.44723  54.86382     20.14267   8922.23665   -75.16087  1.04274   5052.43258  0.07716  55339.43913  52.14319   0.90239  23.15197   55504.1584 
    13.00973  1.71139   1.79225       0.75216          3962.6652  0.01413  0.05905     0.11444  55.18511     19.54371   5478.72871   -141.3613   1.0573   3089.00579  0.01943   55273.2387  51.71622   1.29107  23.04211      55485.3 
    14.71531  1.74117   1.71798        4.3891         3365.13842  0.02223  0.08889     0.39108  30.82681     16.16827   7118.93051   -22.30844  0.19512   1966.28962    1e-05  55392.29156   51.2819   1.84474  23.06175  55547.30501 
    14.25754   1.4842   5.16346       2.35206         3834.65168  0.39341  0.04649     0.01247  39.61888     19.87221    9302.1031   -53.05887  0.55994   3522.05083  0.04139  55361.54113  51.80679  34.07324  23.06415  55512.78772 
    15.01018  1.44354  23.91719        2.1494         3554.05308  0.20329  0.01117     0.07241  63.36601     18.46217   4317.10298   -54.71446  0.50154   2495.14131  0.00161  55359.88554  51.54017   18.9879  23.32906      55502.3 
    13.80537  1.42713   2.05543       3.07401         2002.33411  0.02919  0.08898     0.01759  70.88297     17.61309   8742.87504   -68.67366  0.61756   4964.85137  0.00023  55345.92634  52.14527   2.77401  23.12427      55536.3 
    13.72648  1.60942    1.1812       3.16533         3872.16267    0.009  0.04384     0.02366   81.3886     20.24139   6222.39253   -27.69404   1.2833   1328.69229  0.09685  55386.90596  51.00935   0.87325  23.14427      55498.3 
    14.75008  1.84659   1.85691        1.7171           3383.067  0.12852  0.13158     0.03058  48.76075     20.63802   4331.67932   -72.60229  0.08406   3435.31985  0.24141  55341.99771  51.79993  11.51735  23.19286   55567.4401 
    14.15824  1.79341   1.07594       1.20127         5500.64289  0.00325  0.08721     0.05088  57.70843     17.44728   5895.91179   -35.00918  0.60835   2642.23973  0.00016  55379.59082  51.58359   0.29939  23.02407   55518.5406 
    14.86769  2.05466   1.76094       2.14509         4118.90256  0.09549  0.03415     0.18163  54.02095      20.6943   4640.31529   -35.79663  0.17315    2058.4139  0.27481  55378.80337  51.36218   8.69836  23.14551  55524.29348 
    14.99642  1.18968  29.18054       0.12578         2902.28835  0.33828  0.05152     0.05719  70.83949     18.00536   8028.11948   -85.96237  1.40216   5375.23299  0.00056  55328.63763  52.21421  32.14097  22.99997  55541.55213 
    13.68861  1.83923   2.90474       1.13858         4747.05655  0.03045  0.06188     0.17742  38.20255     17.37877   5371.98252   -79.99415  1.33994   2801.14284  0.00013  55334.60585  51.60522   2.62108  22.95213  55535.79925 
    14.81885  1.85593   1.71176       1.65122         3587.81892   0.1563  0.12684     0.08713  29.45648     17.86026    3767.9474    -19.6214  0.21798   4257.02012   0.0004   55394.9786  51.94936  12.86693  23.20213  55492.65263 
    13.40847  2.05393   2.35295       0.92853         3923.71768  0.05956    0.121     0.05053  55.13729     16.12391   9538.19773  -110.86006  1.34675   4002.43013    1e-05  55303.73994  51.94117   5.44296  22.94728  55553.05789 
    13.67399  2.05878   4.92554       0.33115         4035.21872  0.30737  0.06585     0.05641  44.22527     19.58503   5667.20698   -77.70368  1.56223   5480.35307  0.02137  55336.89632  52.19872     27.11  23.10089  55555.93434 
    14.04725  1.34487   1.31253       1.19088         3703.40008  0.16742  0.08323     0.12378  61.38111     16.45094   3084.17729   -31.34612  0.69193   3687.89343    2e-05  55383.25388  51.87739  15.56013  23.11173      55498.3 
    12.76464  1.29408   1.17149       0.31701         4794.77456  0.00437  0.19902     0.11916  43.48741     16.66238   4813.10242  -152.35957  1.17193   3809.99454    3e-05  55262.24043  51.88175   0.38398  23.08105  55527.16992 
    13.69882    1.558   0.83864       0.73171         5412.09795   0.0032   0.1711     0.01361  72.39093     17.49654   5916.61667   -41.00198  1.26593   3549.64823  0.00017  55373.59802  51.85522   0.30534  22.85393  55521.41704 
    13.34608  1.47348   1.65248       1.34769         4474.96829  0.05168  0.11459     0.04743  43.20016     17.48143   5013.43318  -111.09486  1.44533   1830.56585  0.00017  55303.50514   51.2446   4.54038  23.04824      55498.3 
    13.88154  1.87339   3.82875        1.3803         2617.39076  0.40101  0.12517     0.02953  27.58633     20.49897    8246.5844   -73.66956  1.10143   5837.45731  0.17527  55340.93044  52.21857  32.63187  23.27333      55499.3 
    13.64072  1.81583   1.17996       2.94742         3155.95418  0.16852  0.19329     0.03909  75.47864     16.35048    6927.0192   -99.51479  0.53714   1522.62734    1e-05  55315.08521  51.12278  16.16668  23.06513      55498.3 
    13.74279  1.42045     14.86        0.4528         2990.88503  0.39503  0.07665     0.01297  63.84072     17.66505   9991.43288   -72.63389  0.66531   7638.89643  0.00026  55341.96611  52.51255  36.93906  23.28954  55515.66416 
    12.54341   1.7186   1.26629       1.69282         4740.37521  0.34006  0.03073     0.20553  48.78831     16.28386   9908.24449  -122.04721  0.66621   1862.86439    1e-05  55292.55279   51.2684  30.47626  22.78427  55639.35113 
    13.96434  2.04872    1.3259       1.68314         4560.09954  0.05655  0.05969     0.33173  59.45852     20.40832   7815.35349   -40.46197  1.27272   1935.79063  0.14225  55374.13803   51.3154   5.23001  23.06921  55492.65263 
    13.96162  1.79689   3.43279       3.30904         3730.30363  0.00609  0.01018     0.02462  91.07761     16.42751   3040.62919   -74.08335  0.52757   1477.56198    1e-05  55340.51665  51.10881    0.6003  23.03669  55492.65263 
     13.9121  1.91763   1.57377       2.15992         4240.09634  0.00482   0.0324     0.02097   77.4139     18.31705   6993.41398   -38.61996  1.05429   1181.34535  0.00115  55375.98004    50.904   0.46446  23.36243  55527.16992 
    14.31631  2.00041   4.70832       2.35293          3561.7149  0.17019  0.02385      0.0273  73.79568     19.95325   7891.33602  -106.66838   0.4009   1743.76268  0.04989  55307.93162  51.23908  16.27075  22.80824  55515.66416 
    14.63989  2.01738  24.62973       0.22597          4673.1555   0.4404  0.07927      0.1151  82.64764     17.71292   5583.70207  -100.55686   1.3672   5030.15395  0.00029  55314.04314  52.16665  42.82587  23.20632  55515.66416 
    14.50143  1.63031   2.28025       2.78057         3900.16614  0.00175  0.01877     0.10258  79.84616     16.40337   3610.60856   -30.37742  0.23723   1691.76766    1e-05  55384.22258  51.21794   0.16913  23.05608  55530.04637 
    13.45008  1.73372   3.20696       4.57421         3226.47263  0.00481  0.03217     0.02165  15.85968     17.90017   9102.64298   -65.37379  0.73339   2938.39349  0.00044  55349.22621  51.57736   0.35263  23.14851      55504.4 
    14.36094  1.86804    9.8973       0.94583         3454.14017  0.41868  0.07772     0.01678  57.78686     16.52234    9389.2714   -81.51749  0.94087     5961.515    2e-05  55333.08251  52.29045  38.54728  23.12816  55495.52907 
    13.74526  1.89799   2.84506       0.90968         3959.36838  0.22761  0.12572     0.08645  41.68283     19.03085   4758.52632  -112.07196  0.67103   3488.58083  0.00596  55302.52804  51.80216  19.88062  23.11488  55532.92281 
     14.6849   1.7515  24.57386       1.92721          2743.9398  0.44608  0.08423     0.01549  70.75609     19.19404   9298.53703  -115.76683  1.24754   5089.99635  0.00869  55298.83317  52.16677  42.37617  23.07391  55555.93434 
    13.81403  1.29869   8.86272       4.43169          2094.7423  0.36508  0.06115     0.05594  70.34478     17.00655   9251.31053   -90.27211  0.21799   5815.19393    6e-05  55324.32789  52.28208   34.6508  23.00727  55512.78772 
    14.82879  1.75835  28.95818       0.21207         3083.97395  0.38364  0.05401     0.08886  87.01683     17.20898   9030.36051    -84.3878   0.6039   4286.66841    9e-05   55330.2122  52.03104  37.59242  22.96801      55508.3 
     14.9881  1.35156   0.78092       2.34264         2973.45391  0.33411  0.03635     0.01877  68.50306     19.60639   9769.71517   -79.56583  0.70523   3157.14718  0.02244  55335.03417  51.74978  31.58357  23.00692  55555.93434 
    14.30496  2.17235   3.19958       2.39084          3377.8121  0.00241  0.05106     0.10261  46.71782     17.41232   8218.96858  -103.11436  0.18212   2458.12255  0.00014  55311.48564  51.50619   0.21422  22.99365   55567.4401 
    13.72226  1.56735   1.73414       2.13586         3878.71231  0.00483  0.07743     0.05037  39.43725      20.6472   9170.43921   -64.18941  0.83963    1966.5326  0.24656  55350.41059  51.30026   0.41818  23.10639   55518.5406 
    14.87898   1.7557   1.99388       2.56801           4148.592  0.01683  0.02549     0.02341   48.7979     18.12441    3453.3937   -22.39878   0.1467   1441.40287  0.00074  55392.20122  51.04562   1.50867  23.05332      55507.3 
     13.1262  1.86032   2.13881       0.85202         4210.58239  0.04489  0.02325     0.05488  30.44088     18.58141   7859.41577   -72.13521  0.67679   4357.57721  0.00212  55342.46479  51.97214   3.71702  23.14308      55510.3 
    14.04291  1.80149   4.93101       0.27274         4456.68921  0.45024  0.10371      0.0307  63.91918     20.07126   5745.57455   -79.71813  1.24633   6550.63164  0.06546  55334.88187  52.37913  42.10981  23.10594  55515.66416 
    14.98133  1.34556  20.55813       1.10797         3690.34447  0.38774  0.04853     0.03558  63.24874     19.17961   5669.17554   -84.09644  1.17601     3792.897   0.0084  55330.50356   51.9038  36.20488  23.06272  55547.30501 
    15.04478  1.50862  17.68111       3.17382         2511.98193  0.46134   0.0982     0.09187   93.1349     18.64356   9502.35326  -148.63821  0.31357   4442.71775  0.00245  55265.96179  52.06643  45.65902  23.00213  55524.29348 
    13.14245  1.78826   1.24532       1.75057          3713.4236  0.23411  0.23237     0.13645  75.58295     19.75058   5592.61781  -162.29986  1.28741    1802.2199  0.03128  55252.30014  51.26929  22.46338    23.046  55492.65263 
    14.12225  1.93865   3.08353       2.97368         3667.93132  0.00156  0.01561     0.01112  99.72185     18.07507    5883.0603   -56.72289  0.64948   1692.38041  0.00066  55357.87711  51.23245   0.15558  23.01973   55504.1584 
     14.0287  1.53788   2.80324       1.99962         2765.93908  0.15808  0.04634     0.28727  98.88864      20.6365   4400.04497   -44.30301  0.53545   7467.39079  0.24056  55370.29699  52.52126  15.78253  23.02453  55587.57519 
    12.77625  1.62719  19.51856       4.38854         2242.05326  0.27987  0.04201     0.13611  69.43627     18.10722    6455.3309   -43.55337  1.45714   8452.39629  0.00071  55371.04663  52.60605  26.51019  23.13788      55485.3 
    13.72552   1.5386   1.45873       2.89865         5830.18157  0.07796  0.02342      0.0274  96.61761     18.66481   9184.66603   -31.82898  1.45265   1583.22988  0.00257  55382.77102  51.17255    7.7572  23.15896  55492.65263 
    13.51272  1.67003   2.99911       3.09587         3344.69114  0.39002  0.06206     0.01828  42.36031     16.32697   4649.89325  -104.00012  0.55141   2012.86423    1e-05  55310.59988  51.32565  34.15732  22.99279  55541.55213 
    13.75781  1.32784   1.32169       2.31003         5007.30502   0.0016  0.01328      0.0129   98.6776     17.35338   3572.36571   -50.02582  1.36003    1030.8054  0.00013  55364.57418  50.80114   0.15943  23.11878      55498.3 
    14.11444  1.93452   1.84756       2.20057         5904.54248  0.13034  0.04852     0.01734   49.9318     18.96196   4822.26358   -40.28346  0.52444   1528.77508  0.00509  55374.31654  51.09834   11.7251  22.97432  55581.82231 
    13.81744  1.72942   2.46003       1.67398         4268.97794   0.0502  0.08216     0.01117  31.80064     18.27479   6932.57484   -57.49184  1.45686   2474.84147  0.00105  55357.10816  51.48405   4.18795  23.14754      55500.3 
    13.41045  1.67015   8.95558       1.05529          5087.8485  0.22818  0.01855     0.49002  96.31227       17.498   4937.29502   -90.05169  0.04655    2991.0675  0.00017  55324.54831  51.72491  22.69448  22.24277  55797.55539 
    13.76412  1.98312    1.2129       2.14509         5939.84909  0.02323  0.06043     0.02008  78.77689     19.32958   4449.90338   -42.17648   1.5105   1669.26704  0.01187  55372.42352  51.20543   2.24238  23.01049  55530.04637 
    14.78355  2.08268   1.18297       1.52255         5561.38547  0.00576  0.09173     0.18833   61.0467     20.55901   6151.37495   -30.73266  0.12011   2651.49618  0.20125  55383.86734  51.59045   0.53466  23.15791      55500.3 
    13.59854  1.42083   3.24232       4.14962         3119.00934  0.00837  0.13077     0.01197  11.43171     17.98167    3554.4997   -52.82383  1.54754   4287.41771  0.00053  55361.77617  51.87657   0.57435  23.22598  55512.78772 
    12.65306  1.98037   3.85517       1.45942         5698.29248  0.45201  0.03489     0.01287  46.00021     17.43194   7758.15062   -71.46626  1.49436   3790.63981  0.00015  55343.13374  51.88132  40.12476  23.20249   55518.5406 
     14.4565   2.0231    1.3818       1.94183         3173.26546  0.44448  0.10332     0.07209  76.18414     20.15853   5362.68044   -38.01319  0.79106   5359.08367  0.08003  55376.58681  52.21638  42.69952  22.93863  55564.56366 
    14.30661  1.40361   2.00511       2.38503         3512.43119   0.0035   0.0324     0.18105  42.87828     20.98126   5656.82534   -57.24553  0.14834   2659.13966  0.53209  55357.35447  51.56837   0.30752  23.23417      55499.3 
    13.98657   1.8238  20.65751       0.24312         4337.64666  0.40378  0.04586     0.44182  41.04807     17.43891   4667.21049   -43.71339  1.03746   7476.44274  0.00015  55370.88661  52.46315  35.17878  23.22392  55512.78772 
