 texplosion  fnickel    Pspin  log(Bfield)      Mns  thetaPB   mejecta    kappa  kappagamma      vejecta  temperature    alpha  cutoff_wavelength  log(nhhost)      A_V         MJD0   kenergy  mnickel            TSD   log(L0)  Peak_mag     Peak_MJD  log(E_rad)  log(Peak_lum)  Rise_Time    E_fold  tau_1  delta_m15     r_peak     frac 
  -41.91615  0.45822    2.259     14.46458  1.70302  0.53617   4.57275  0.17377     0.34618   7637.01534    6276.8521  0.68968         2782.71851     19.73855  0.03043  58955.65956   1.59093  2.09533    94995.25222  46.81453  19.15028  59006.47539    51.21138       44.50573   22.45028  37.41714   61.5    0.19638  -20.88524  0.94565 
  -12.55243  0.29842  2.56034     14.69121  1.51206  0.51427   9.81149  0.04029     0.46671   8796.42096   4491.13443  0.43065         5286.63648     17.04166    6e-05  58985.02328   4.52871  2.92794    38155.07045  47.05027  19.32875  59016.07663     50.8903       44.04042   18.70857  52.38399   50.5    0.37238  -21.06488  0.89382 
  -36.77648  0.13468  0.88354     14.66979  1.94259  0.83599  28.87891  0.04046     0.48325   9175.63684   5814.79393  0.88642         3484.94317     19.51967  0.01838  58960.79923  14.50375  3.88937     6442.76074   48.8557  19.28807  59011.27601    51.01432       44.21639   18.70857   48.3413   80.5    0.16687   -20.6591  0.99599 
  -20.94328  0.20212  2.70239     14.32553  1.52727   1.3199   10.2764  0.05006     0.44472   7004.42863   8632.58221  1.15276         4724.55541     18.27106  0.00104  58976.63243   3.00756  2.07705   231298.60313  46.22509  19.20883  59016.07663    51.05214       44.38847   11.22514  31.37347   41.0    0.27795  -21.14894  0.91333 
   -9.67592  0.39976  0.81592     14.96356  1.18299  0.35946  12.97271  0.03757     0.47081  11509.17439   6065.21088  3.30624         2171.52444     16.85067    4e-05  58987.89979  10.25053  5.18594      864.92056  49.58155   19.2658  59011.27601    51.02923       44.23748   15.51367  40.61204   83.0    0.33459  -21.03044  0.99531 
   -15.6686    0.424  1.83906     14.72689  1.89134  1.04466   10.5278  0.07194     0.49651  10957.08258   6662.59417  0.95404         4128.79203     19.90169   0.0443  58981.90711   7.53971  4.46377    20892.60243  47.69643   19.2245   59008.8757    50.91611       44.16246   22.45028  44.90057   55.0    0.30914  -21.26141  0.96117 
   -6.67474  0.21677  0.92539     14.53478  1.13495  1.11532  15.89744  0.03841     0.38744  10306.77036    5046.1919  1.89825         4239.42293     18.80535  0.00355  58990.90097  10.07395  3.44602     7689.06152   48.5053  19.19682  59011.27601    51.04162       44.29454     13.096  34.87365   45.5    0.37413  -21.16468  0.99437 
  -15.20994  0.30093  1.02092     14.91823  2.15514  1.15498  18.11287  0.05725     0.36501  15830.18615   5613.67185  0.30878         3643.03922     17.01022    6e-05  58982.36577  27.07612  5.45077     3039.52894  49.10153  19.10165   59008.8757    51.05011       44.32649     13.096  33.24432   63.5    0.32952  -21.25882  0.99778 
  -15.58488  0.37498  1.91352     14.68389  1.00344  0.28665   7.77179  0.03575     0.22012   5539.80388    5835.1569  1.40341         4919.45105     17.09085    7e-05  58981.99084   1.42278   2.9143    14627.96832  47.54149  19.23234  59006.47539    50.89741       44.11724   24.32114  44.90057   49.5    0.36038  -21.17291   0.8916 
  -17.69926  0.33909  1.02738     14.79065  2.14046  1.14196  10.09496  0.11769     0.22025  12336.12149   6253.56156  1.08642         2712.74765     18.24222  0.00097  58979.87645   9.16408  3.42311      5501.5525   48.8354  19.35715  59018.38885    51.01526       44.14612   18.70857  52.38399   46.0    0.22569  -21.12648  0.99744 
  -20.82592  0.37206  1.96754     14.43118  1.55919  1.39432   6.98816  0.16133     0.45403  10937.32819   6713.56206  1.98426         3272.57815     17.21656    9e-05  58976.74979   4.98669      2.6    76950.42842  46.98768  19.25621  59013.67632    51.13626       44.40463   28.06285  38.61536   45.0    0.24278  -21.10403  0.94891 
  -31.48926  0.29185  3.53369     14.47448  1.85769  0.68563   7.11672  0.07265     0.06716   7781.62447   7519.30235  0.67674         3594.51842     19.33452    0.012  58966.08645   2.57068  2.07699   242260.09917  46.05708  19.20934  59011.27601    50.95727       44.13863   16.83771  44.90057   54.0    0.24578  -20.96857  0.89028 
  -18.46966  0.20909   0.8237     14.39988  1.14981  0.90502  15.43671  0.08984     0.15959  11658.19901   3890.88365  2.34162         2989.23145     17.52884  0.00019  58979.10605   12.5154  3.22769    11487.51386   48.4377  19.30183  59020.87725     50.9039       44.18128     13.096  32.55985   44.0    0.24511  -21.34757  0.99248 
  -12.32418  0.17533  0.90774     14.55014  1.51052  1.04739   9.43309  0.22907     0.30938  14561.16366   6399.43246   3.6176         3020.10158     18.90138  0.00443  58985.25153   11.9309  1.65391     9174.54935  48.56946  19.28139  59011.27601    51.00179       44.25528   20.57943  46.34187   40.5    0.22082  -21.12316  0.99756 
  -35.04781   0.4119  1.35734     14.30725  1.52036  1.44454   6.38415    0.142     0.45976   7276.55144   7362.12829   1.1697         3414.67754     17.33972  0.00012   58962.5279   2.01642   2.6296    63187.31476  47.38478  19.19874  59016.07663    50.95857       44.37536   14.96686  28.29747   64.0    0.17567  -20.59034  0.97533 
  -25.32163  0.40967  1.97871     14.62039  2.12471  1.27494   8.30177  0.13533     0.47803  10402.23832   4987.16008  0.17571          5053.5638     17.72406  0.00029  58972.25408    5.3586    3.401    44371.53493  47.35628  19.29608  59020.87725    50.99703       44.27605   14.96686  33.47243   56.0     0.2161  -20.89274  0.96109 
  -21.12592  0.35576  0.72872     14.80298  1.95138  1.14768  14.72882  0.08208      0.4995  13909.52564   5386.14946  0.07804          3428.1889     17.14738    8e-05  58976.44979  16.99886  5.23995     2384.08112  49.45674  19.17006  59016.07663    51.08287       44.37391     13.096  33.67542   73.5    0.24498   -21.0237  0.99905 
  -30.02551   0.1698  0.98722     14.62961  1.86781  1.05556  21.08615  0.07159     0.48488  10844.69779   5968.50908  4.51282         2162.66986      18.3458  0.00123   58967.5502   14.7931  3.58034      9305.6173  48.58261  19.25348  59016.07663    50.98384       44.19874   20.00605   46.9796   76.0    0.16942  -20.65482  0.99499 
  -53.61274  0.15564  0.70332     14.45585  1.76488  0.86861  20.03489  0.07133     0.15746   7903.96354   7178.82192   1.0911         2347.11569     16.90471    4e-05  58943.96297   7.46627  3.11814       9934.206  48.82412  19.25068  59011.27601    51.06574       44.33535   18.70857  39.28799   74.5    0.10035  -20.43674  0.99689 
  -16.43422  0.49685  1.18014     14.52886  1.56438  1.43162   7.02132  0.21086     0.07633  15432.22682   6863.76002   1.3209         2081.20647     19.49001  0.01717  58981.14149   9.97477  3.48852     17713.2046  48.07103  19.24333  59016.07663    51.03211       44.32076   14.96686  34.36155   36.0    0.30187  -21.38589  0.98838 
  -23.32339  0.38634  1.38994     14.22838  1.19034  1.41318   9.20257  0.11704     0.43347  10706.58909   6852.38968  0.39131         3906.04283     20.10603  0.07092  58974.25232   6.29272  3.55528    74597.22987   47.1858  19.23624  59016.07663    50.98126        44.2288   14.96686  35.34329   56.5    0.22875  -21.00372  0.95002 
   -8.95098  0.18721  1.47049     14.92882  1.78188  0.58007   20.2199  0.01672     0.10437   7885.80253   7284.06728  0.93421         5818.34419     16.78954    3e-05  58988.62473   7.50063  3.78528     4965.68872  48.48882   19.3094  59016.07663    50.95952       44.13517   16.83771  44.90057   45.5    0.40329  -21.35828  0.98427 
  -11.22157  0.22387  1.10202     14.84863  1.49465  0.60682  13.86115  0.08983     0.46063  12648.09356   6182.50801  4.06328         3267.31836     18.25402    0.001  58986.35414  13.22746  3.10308     3384.42243  48.82952  19.01538  59004.07508    51.20208        44.5383   20.57943  31.41059   46.5    0.25474  -21.09443  0.99413 
  -45.97834  0.40843  0.83358     14.35518  1.79588  1.45365   7.97995  0.13767     0.20703   7889.20643   7099.76993  2.36564         2013.16783     17.49004  0.00017  58951.59737   2.96274  3.25925    22574.55146  48.32761  19.28217  59018.47694    51.01644       44.27308     13.096  36.98758   71.5     0.1585  -20.59533   0.9944 
  -22.88939  0.45514  1.18872     14.74001  2.06466  1.32869   8.60131   0.1264     0.44034  10244.39011   6229.54071  1.35786         3771.11564     19.06361  0.00643  58974.68632   5.38473  3.91482     8970.17128  48.48073  19.22824  59017.60301      51.018        44.3656     13.096  30.16832   71.5     0.1951  -20.85164  0.99433 
  -18.79778  0.18851  1.17899     14.72482  2.10099  1.42894  24.04894  0.03181     0.03819   11420.6179   6813.94696  1.22916         2133.70118     16.69692    3e-05  58978.77793  18.71123  4.53343     9629.81021  48.46463  19.20415  59013.67632    51.07899       44.39711   19.25538  32.69751   59.0    0.30319  -21.13132  0.99347 
   -9.41336  0.15473  0.82893     15.06836  2.08365  1.27364  33.53258   0.0183     0.03003  14321.37505   6911.11396   3.9819         3279.56143     19.98528   0.0537  58988.16235  41.02642  5.18848      970.39989  49.76369  19.15085  59013.67632    51.04474       44.37071     13.096  32.03918   31.5    0.49443  -21.94897  0.99957 
  -31.18346  0.20606  1.08405     14.52782  1.46705  0.89784  22.53096  0.03956     0.20236   9290.15344   6331.96044  2.78757         3150.54766      16.0283    1e-05  58966.39225  11.59986  4.64282     14083.4827  48.21648   19.2578  59017.60301    51.03646       44.28267   14.96686  39.28799   83.5    0.18496   -20.8351  0.98315 
  -21.85057   0.3151  3.92334     14.38512  2.00876  1.47195    3.3264   0.1379     0.45541   6906.92464   8554.77306  0.89153         5641.38113     18.50235  0.00177  58975.72514   0.94661  1.04814   487312.45625  45.69666  19.27129  59016.07663    50.89171       44.22187   14.96686  38.85844   38.0    0.30791  -21.22009  0.93627 
  -15.15316  0.48509  1.21208     14.55984  1.56918  1.19736   7.75914  0.11343     0.47339  11916.88403   5737.46426  1.44473         3117.69967     20.18361  0.08479  58982.42255   6.57304  3.76386    16250.48425  48.08659  19.18335  59017.60301    51.06712       44.32094   14.96686  35.54628   45.5    0.31939  -21.26678  0.98645 
  -24.45528  0.49434  2.01068     14.82402  1.93707  0.53507   6.57114  0.17845     0.31161  11564.18373   7475.88942  1.22234         3186.91254     19.75148  0.03135  58973.12043   5.24201  3.24838    16353.53244  47.73569  19.14644   59008.8757    51.01346       44.29339   18.70857  41.35598   50.0    0.23012  -21.03308  0.95317 
  -12.84083      0.5  0.86725     14.93608  1.82949  0.65375   7.38908  0.12757         0.5  13943.94381   7788.75753  2.02295         2007.48274     18.18261  0.00085  58984.73488   8.57015  3.69454     1715.03609  49.42062  19.25439  59016.07663    51.05618       44.34825     13.096  29.50261   42.0    0.33948  -21.06783  0.99837 
  -22.32212  0.34044  2.77044     14.83466  2.12672  0.74211   8.71696  0.06662     0.07689   6034.74795    3581.8454  2.56257         4118.49041     18.04608  0.00062  58975.25359    1.8937  2.96758    32456.08672  47.20016  19.11912   59008.8757    50.88969        44.1544   14.96686  39.28799   59.5    0.21869  -20.94203  0.92828 
   -7.53089  0.32831  0.81885     14.93403  1.79075  1.01102   12.6007  0.06568     0.01375  10340.36504   4841.69847  2.98913         3732.67262     18.68487  0.00269  58990.04482   8.03699  4.13697     1510.74634  49.51628  19.11992  59004.07508    51.11606       44.38947   24.32114  41.15885   47.5    0.24452   -21.1126  0.99924 
  -35.72941   0.4218  1.01567      14.3335  1.75067  1.50336   4.53448  0.27497     0.31889   9124.78078   7626.58385   1.7173         2720.62895      20.3696  0.13012   58961.8463   2.25216  1.91263    36102.48585    47.941  19.27041  59016.07663     50.9295       44.16326     13.096  37.11616   50.5    0.19662   -20.7349   0.9933 
  -33.47308  0.43601  1.79642     14.29423  1.25099  0.89328   8.10737  0.14158     0.45485   9734.88398   6378.63718  4.10735         2533.08267     18.30762  0.00113  58964.10263    4.5832  3.53491    96699.68664  46.87186  19.24992  59018.47694    51.06148       44.44948   11.28021  24.56025   68.5     0.1896  -20.81738  0.91481 
  -17.01892  0.42655  1.05257     14.72966  1.35647   0.5208   8.09203  0.13161     0.49664   12103.8345   6523.74318  0.76141         2265.41533     18.99991  0.00555  58980.55679   7.07181  3.45168     4846.27699  48.67134  19.26609  59016.07663    51.04537        44.3833   11.77195  31.25776   43.5    0.29298   -21.1624  0.98859 
  -19.79606  0.32161  0.79725     14.57775  1.59098  1.11717  14.18567  0.05421     0.30267  11995.04628    6198.2523  1.46184         2098.50865     16.92553    5e-05  58977.77965  12.17534  4.56223     6564.01235  48.85015  19.20526  59016.07663    50.94943       44.31577   13.15106  26.42661   59.5    0.29058  -21.18183  0.99663 
  -23.37479  0.33309  1.27761     14.64586  1.54427  0.86179  12.96809  0.05186     0.43963   8819.52973   6234.99572  2.43517         3334.52958     17.34124  0.00012  58974.20092    6.0172  4.31953    11956.74264  48.16716  19.25118  59016.07663    50.93447       44.19067   14.96686  38.45052   78.5    0.22899  -20.91084  0.98105 
  -20.12437  0.49011  1.83772     14.67069   1.6173  0.69614   8.31145  0.09281     0.04227  10713.01115    4956.8361  0.39296         4086.23524     19.31696  0.01153  58977.45134   5.69019  4.07352    23109.11651  47.58529  19.20831  59011.27601    50.94717       44.24277   14.96686   40.2276   50.0    0.28554  -21.13393  0.94053 
  -21.14113  0.39777  1.15279     14.61475  1.53518  0.81379  11.75826  0.05703     0.35311   10951.3947   4956.60611  0.87851         3109.51569     18.50975   0.0018  58976.43458   8.41219  4.67712    11168.16991  48.28352  19.26421  59011.27601    51.12047        44.3797   20.52436  38.91196   62.5    0.28543  -21.10961  0.98291 
  -19.41084  0.48749  1.27157     14.93049  1.98477  0.74063   9.28648  0.10864     0.49951  11669.57092   6847.88458  3.92054         3232.37844     19.97869   0.0529  58978.16487   7.54377  4.52706     4104.14699  48.74465  19.18548  59006.47539    50.98184       44.22726   20.57943  44.47101   43.5    0.29016  -21.65387  0.99257 
   -24.6742  0.46918  1.70866     14.56131  1.79041  1.49949  11.03686  0.06007     0.48626   11008.3722   6298.13127  0.29339         3596.12412     17.91213  0.00045  58972.90151   7.97846  5.17826    36598.43819  47.49303  19.38312  59016.07663    51.00765       44.26419   16.83771  41.15885   81.0    0.24741  -21.01815   0.9518 
  -14.18061  0.38458  0.85671     14.72242  1.80054  1.18111   7.25905  0.08035     0.13393   6846.66139   9466.71884  1.51492         4611.16474     16.89587    4e-05   58983.3951   2.02985  2.79165     4406.05054  49.01453  19.31685  59011.27601    50.90099       44.10406   18.70857  46.77142   41.0     0.2796  -21.03029  0.99864 
  -13.47578  0.40201  1.57108     14.83521  1.78606  1.28761  12.66542  0.05081     0.47515  11777.22281   6642.96224   4.0282         3004.38656      18.2282  0.00094  58984.09993  10.47931  5.09167     8743.47273  48.18666  19.24745  59016.07663    50.94785       44.25689   16.83771  33.00279   62.5    0.34248  -21.28806  0.98519 
  -25.55752  0.46137   1.4045     14.29404  1.30193  1.40947   8.36839  0.12982     0.09453  11402.43194   6167.20824  1.12467         2222.55983     17.23287    9e-05  58972.01819   6.49029  3.86089    61569.93937  47.29902  19.30841  59016.07663    50.93518       44.08169   18.70857  52.38399   61.5    0.23038  -20.95623  0.95363 
  -18.61826  0.36493  1.26495      14.9185   1.9789  1.01818   16.1945  0.04487     0.34285  12441.78912   4307.50889  1.20499         3113.96012     18.03937  0.00061  58978.95745   14.9541  5.90988     4279.47473  48.72973  19.11239  59006.47539    50.94172       44.16307   20.00605  42.19223   67.5    0.28272  -21.17952  0.99354 
    -20.197  0.39221  1.03547     14.64794  1.81682  1.11684   8.15684   0.1468     0.23111  10814.84805   7415.17138  2.14248         2636.88564     19.06698  0.00648  58977.37871   5.69102  3.19916     9151.92197  48.53637  19.30598  59016.07663    50.99213       44.24666     13.096   35.4742   48.5    0.20867  -20.97324  0.99528 
  -20.13058  0.38013  1.61671     14.65231  1.79737  1.38754  10.90787  0.09789     0.44874  11734.72773   7259.17694  3.21608         2973.32484     17.20948    9e-05  58977.44513    8.9601  4.14643    21631.80902  47.77112  19.07566  58997.57571    51.12187       44.42581   29.93371  37.65625   56.5    0.23483  -21.11333  0.97421 
  -33.68824  0.43244  3.00836     14.43481  1.80415  0.72937    5.6851  0.12534     0.08483   8445.79033   5570.97506  0.26854         2161.65185     19.12344  0.00738  58963.88747   2.41906  2.45844   204706.03637  46.25733  19.23937  59013.67632    51.08878        44.3966     13.096   31.6305   58.5    0.21809  -20.92781  0.90081 
  -14.65806  0.43552  0.87877     14.98962  2.14509  0.74126  11.97915  0.05164     0.47583  13065.68033   6664.68528  0.61844          2520.9801     19.89853  0.04398  58982.91766  12.19881  5.21716     1613.51872  49.50477  19.18041   59008.8757    51.15103       44.44071   16.83771  39.11393   65.5    0.37908  -21.20774  0.99845 
   -22.5405  0.45012  1.23154     14.87604  1.47424  0.35928   9.86424   0.0907     0.48826  11303.17778   5809.30813  0.16787         3814.33747     18.45164  0.00157  58975.03521   7.51782  4.44005     3674.51591  48.69132  19.23406  59017.60301    50.90726       44.19718   14.02774  37.26039   67.5    0.25277  -21.02453  0.97546 
  -26.03792  0.45153  2.04346     14.55425   1.1266  0.30154   4.13178  0.19271     0.23218   9267.13561   4724.66663  0.36084         5406.24318     16.16187    1e-05  58971.53779   2.11668  1.86562    34027.01342  47.16806  19.32913  59016.07663    50.84413        44.0964   19.58525  44.02389   45.0    0.25715  -21.09029    0.928 
  -23.46556  0.31624   1.2594     14.28469  1.16035  1.20633     7.835   0.2444     0.48558  11645.04645   6381.70168    4.334         3382.39964     17.68103  0.00027  58974.11016   6.33795  2.47774    46062.18169  47.46976  19.29659  59018.47694    50.99826        44.3152   14.96686  35.54628   57.0    0.18389  -20.83385  0.97364 
  -13.31377  0.43506  0.86518     14.66982  1.57435  0.98391    9.0856  0.13537     0.46492  12694.57169   6418.00872  2.73247         3198.93376     20.45746  0.15929  58984.26194   8.73407   3.9528     5005.89253  48.89226  19.26269  59016.07663    50.96412       44.21449   16.83771  39.60476   51.5    0.24389  -21.20137  0.99689 
  -13.07269    0.169  0.96341     14.86319  1.86333  0.74484  30.37741  0.01382     0.05903  10988.16122   5464.81721  2.03501         2008.10328      19.7645   0.0323  58984.50302  21.87902  5.13389     3015.47691  49.09216  19.18919  59013.67632    51.02456       44.33421   14.96686  35.54628   74.5    0.36485  -21.15294  0.99616 
  -18.58449  0.37649  1.07784     14.63052   1.7583  1.07006   6.80811  0.24167     0.44488  14515.45569   6806.34878  1.44782         3145.13053     19.71562  0.02886  58978.99122   8.55688  2.56319    10398.41264  48.43187   19.3065  59017.60301    50.98071       44.28245   14.96686   36.7445   37.0    0.27752  -21.35301  0.99505 
  -18.92627   0.4863  1.03077     14.66576  2.03785  1.27074   5.77608  0.21829     0.49975  12340.74339   7056.84258   0.0547         2851.68387     16.00604    1e-05  58978.64944   5.24738   2.8089     9371.16919   48.5799  19.25101  59011.27601    51.01381       44.29434   21.12624  38.06855   33.5    0.32423  -21.38884  0.99667 
