 log(Bfield)      Mns     Pspin  cutoff_power  cutoff_wavelength  fnickel    kappa  kappagamma   mejecta  log(nhhost)  temperature  texplosion  thetaPB      vejecta      A_V        MJD_0   log(KE)      M_Ni  Peak_mag     Peak_MJD 
    14.08004  1.55392   2.32471       0.98411         3241.67918  0.06133  0.10331     0.12956   15.6655     17.36016   6007.85044    -52.3323  1.37948   7750.73814  0.00013  58945.24341  52.41877   4.48865   19.0553  58998.29969 
    14.20903  1.80059   4.96083       3.10832         2823.85606  0.24072  0.07384     0.30684   8.62318     17.87912   3024.40438   -29.33504  1.15612  10659.72254  0.00042  58968.24067  52.64107  15.54063  18.93598   58992.5965 
     15.0245  1.65547   3.43711       4.98503         2476.45321  0.11827  0.02206     0.22297    37.044     19.29001   5832.82234   -26.85903   0.2373  10717.72545  0.01083  58970.71668   52.7685  10.12803  19.19002  59017.60301 
    14.41085  1.98485   4.34429        0.3931         4027.75087  0.04086  0.02491     0.03931  20.11432     18.55183   8857.11752   -40.64692  0.49033   9926.50908  0.00198  58956.92879  52.65462   3.13821  19.25206  59018.46795 
    14.89173  1.50565   6.54968       2.98709         3047.68143  0.38578  0.05239     0.43441  13.14444     18.54351   6016.66996    -9.79197  0.42342  16404.90883  0.00194  58987.78374  53.05471  27.25707  19.18921  59015.40924 
    14.12634  1.92174   3.06019       0.15459          5979.9018   0.0637  0.04417     0.18295   9.21539     20.11216   6729.44376   -38.34275  1.32045   7790.90082  0.07193  58959.23296  52.37517   4.17319  18.99463  58998.29969 
    15.05422  1.66439   7.26289       2.71721          2629.7985  0.22169  0.02204     0.17702  29.12921     19.20107   6132.86763   -13.89096  0.37973  16921.46063  0.00883  58983.68475  53.14717  18.21459   19.1808  59017.60301 
    14.46184    1.603   5.25024       4.71754         2669.65558  0.11028  0.01852     0.01592  37.26463     19.15543    5364.6314   -20.03335  0.91427   9901.30829  0.00795  58977.54236  52.70012   9.45379  19.21103  59015.40924 
    14.77175  1.66734   3.75212       3.44326         2263.10124  0.10636   0.0302     0.21792  19.80002     19.85597   8511.70084   -22.11796  0.33195   8430.93131  0.03987  58975.45776  52.51149   8.14497  19.28371  59012.55765 
    14.83735   1.7908  11.18133       3.20704         2988.22891  0.26794  0.01957      0.0596   22.2076     18.73459    5162.5761   -15.61675  0.48093  13840.37911  0.00302  58981.95896  52.95134  20.96312  19.11634  59007.60017 
    14.31698  1.77352   7.52581       2.71539         3216.57123  0.16643  0.02309      0.0152  18.32908     17.72043    5641.7252   -13.26891  0.93767  11052.15126  0.00029   58984.3068  52.74025  12.55918  19.24812  59017.60301 
    14.99587  1.63865   5.20535       0.20029         4192.75902  0.15376  0.03772     0.06629  21.16666     19.80421   6211.22302   -23.31298  0.14884  13001.42391  0.03539  58974.26273  52.89316  11.92322  19.01716  59001.15128 
    15.01065  1.95914   6.23425       0.56916         3410.65595  0.15863  0.02253     0.21265  31.01235     18.49106   6257.36577   -12.48842  0.41996  14293.11468  0.00172  58985.08729  53.00532   13.1767   19.2653  59015.40924 
     14.9325  1.63711   4.89408        4.8017         2329.32516  0.45583  0.03313     0.43207  14.55757     18.11243   5773.75606    -8.06419  1.39073  18726.19786  0.00072  58989.51152  53.17865  32.87955  19.22806  59007.60017 
    14.47507  1.99326  10.61242       2.14493         2632.17171  0.39481    0.038      0.2284   12.7325     17.33451   5432.01057   -10.40595  1.49724   16469.6056  0.00012  58987.16976  53.05529  27.71285  19.14942  59006.85446 
    14.96306  1.44941   4.53395       0.90887         3868.59269  0.20707  0.02142     0.01792  31.16626     18.61588    3038.5618   -14.68926  0.41614   16217.9149  0.00229  58982.88645  53.11543  17.21596  19.07452  59004.00287 
    15.10557  1.54748  28.69255       4.74123         3119.77535  0.20841  0.01725     0.04563  34.98639     19.72067   4597.01923    -10.7618  1.44189  18306.02899   0.0292  58986.81391  53.22927  17.67569  19.21299  59017.60301 
    14.89633  2.01149   6.77064       2.00425         2739.24208  0.13434  0.01917     0.28441  37.78222      16.7935   5495.13938    -17.9284  0.44424  14064.11231    3e-05  58979.64731  53.00596  11.54261  19.30104  59021.11243 
     14.4879  1.86793  13.12093       1.34934         2269.91739  0.26111  0.01706     0.01297   29.3241     19.74367   5336.85275   -12.64629  0.94884  18745.29321  0.03079  58984.92942  53.23659  21.47827  19.21658  59015.40924 
     14.6915  1.70081   3.43969       0.06637         4215.37065   0.2819  0.02677     0.01499  22.62551       16.285   6608.37509   -19.31753  0.93979  13155.48516    1e-05  58978.25818  52.90876   22.1312  19.26304  59018.46795 
    14.41755  1.65954   7.87414       2.62784         2577.23244  0.46121  0.06015     0.04398  10.85423     18.92211    3164.7195   -12.21739  1.20238   16903.9268  0.00464  58985.35832  53.06338  31.30973  19.25806  59021.11243 
    14.67601  1.64585   4.87712       3.17207         2625.45894   0.2035  0.02823     0.09424  20.97829     19.15528   4188.55681    -9.71872  0.80506  13597.62512  0.00794  58987.85699  52.93138  15.75368  19.16178  59015.40924 
    14.18885  1.83138    1.6503       0.68995         3446.94147  0.12419  0.10497     0.40269   10.1352     19.05957   7178.68919   -78.58735  0.79705   5900.84603  0.00637  58918.98836  52.14284   8.30757  19.18296  59015.40924 
    14.09696  1.68473   5.91869        4.0398         2944.13235  0.09088  0.03353     0.06496  15.66249     18.50178   5376.31421   -15.54561  1.30633  15143.58994  0.00176   58982.0301  53.00053    6.6515   19.2388  59015.40924 
    14.79596   1.6366   4.89231        3.7333          2987.3613  0.14781  0.01803      0.0312  38.87184     19.86488   6672.65741    -8.40096  1.01137  15562.83657   0.0407  58989.17475  53.09599  12.76119  19.29573  59015.40924 
    14.63171  1.66266   5.79268       3.74795         2412.40439  0.16462  0.01589     0.07459  26.74646     16.60405   6888.20735   -13.79913  0.66586  11254.87458    2e-05  58983.77659  52.78641  13.32247  19.19497  59012.55765 
    13.96409  1.50018   2.14659       2.67554         2578.17596  0.06515  0.04392     0.01204  25.23311     18.94366   6308.37868   -72.37473  1.31658   5371.76517  0.00488  58925.20098  52.13942   5.21748  19.23878  59018.46795 
    14.53567  1.88126    0.8078       2.55257          3082.7623  0.01608  0.03778     0.29788  53.86023     18.44771   8518.77877   -68.80703  0.58675   6066.53253  0.00156  58928.76868  52.30079   1.46443  19.16679  59015.40924 
    15.14192  1.90368   1.14298       2.09233         2080.91228    0.451  0.05406      0.1994  15.30609     19.93974   7773.41092   -12.93002  0.59389  17037.35929  0.04836  58984.64569   53.1009  32.85805  19.07465  59009.70606 
    14.93847  1.70049  13.98028       2.96371         3094.36169   0.4875  0.05369     0.10274  14.40241     18.11912   3237.10776   -16.15046   0.5846  16293.60539  0.00073  58981.42526  53.05685  35.08828  19.19699  59012.55765 
    15.06566  1.49447    4.7056       0.21033         5342.04763  0.15409  0.01182     0.47326  38.87458     16.56128   6579.14832   -12.64207  0.30182  16325.13056    2e-05  58984.93364  53.13753  13.30328   19.1021  59006.85446 
     14.5822  1.90274   2.85474       0.23734         4720.67159  0.22681  0.02168     0.07905  16.36263     18.19039   6795.05011   -26.58739  0.63275    9994.7091  0.00086  58970.98832  52.64335  16.74336  19.13229  59015.40924 
    14.65091  1.58719    2.4631       1.55708         3373.43641  0.09948   0.0111     0.17755  55.55919     16.26903   4756.93631     -15.785  1.38307  11866.16788    1e-05  58981.79071  52.88567   9.10229  19.38936  59018.46795 
    14.44136  2.09579   4.23029       0.09982         3855.55014  0.11523  0.02567     0.02742  25.36809     20.44529   4542.74418   -21.93747  1.04942   9785.79815  0.15489  58975.63825  52.66079   9.23711  19.22672  59017.60301 
    15.00736  1.49321   4.81344       3.49887         3134.82334  0.14737  0.03244      0.0281  26.99052     16.13385   3243.71938   -31.31014  0.14844   9390.33446    1e-05  58966.26558  52.62979  11.94592  19.21837  59012.55765 
    14.96199  1.91644   8.80685       1.05702         3698.43901  0.29038  0.03173     0.06717   19.8149     17.59747   3697.59528   -15.25781  0.49529  14314.41908  0.00022   58982.3179  52.97135  22.24035  19.11574  59009.70606 
    14.51066  1.69887   9.02317       3.19465         3382.65037  0.29642  0.03012     0.03742  14.46222     19.56934   7692.72016    -9.83228  1.32105  11528.43988  0.02061  58987.74343  52.75672   21.3531  19.10327  59006.85446 
    14.80975  1.77176  19.24509       3.05698         3272.82504  0.19838  0.01178     0.08523  33.56441     19.43448   4349.71162    -11.4672  1.07621  16040.12995  0.01511  58986.10851  53.11142  16.70582  19.01961   58995.4481 
    14.76685  1.68875   6.15944       4.55343         2556.53544  0.34819   0.0448     0.24096  17.21777     18.29276   5913.22913   -12.05996  1.42716  16879.55975  0.00109  58985.51576  53.10284  25.95999   19.0843  59001.15128 
    14.95601  1.84506   4.02206       2.57157         2758.63703  0.40386  0.03371     0.04455  16.26588     19.01119   5549.33684   -10.98588   1.2356  15513.49092   0.0057  58986.58983  53.02472  29.77858  19.21228  59012.55765 
    15.09086  1.71265   1.10012        3.5282         2208.93207  0.03773  0.02178     0.20378  77.72732     18.61039    7295.7345   -31.55586  0.22753   9931.54974  0.00227  58966.01985  52.75354    3.6357   19.1386  59012.55765 
    15.05956  1.53141   5.90327       1.33259          2891.1922  0.49456  0.03155     0.29784   11.5857     17.48185   7402.99309   -10.16227  0.34445  14984.22973  0.00017  58987.41344  52.96467  34.03983  19.29537  59017.60301 
    14.85126  1.55971   1.93873       4.81067         2345.94912  0.23516   0.0216     0.06929  25.85983     18.16475   5069.00162   -10.60635  1.19005  15309.98214  0.00081  58986.96936  53.05105  18.91653  19.16223  59007.60017 
    14.26085  1.76009   6.73603       0.43193         3368.29264  0.35875  0.05106     0.28218   9.57813     18.01393   5055.00095    -18.1273  0.73828  17102.70639  0.00057  58979.44841   53.0618  23.70491  19.18627  59012.55765 
    14.87635  1.61935   5.08158       2.85844         2225.44089  0.34638  0.07416     0.05274   7.43972     19.41059   7217.44306   -27.47263  0.15199  10671.17063   0.0143  58970.10308  52.62739  21.62214    19.281  59017.60301 
    14.43674  1.73243   4.81238       0.13912         3800.79091  0.07709  0.02335     0.18143  17.75698     18.03335   5674.76427   -23.53203  0.50478  10662.94856   0.0006  58974.04368  52.70647   5.78222  19.18958  59009.70606 
    14.14761  1.68503   4.86498       2.48375         2043.46616  0.03813  0.01994     0.30656  28.65063     16.68731   6460.08442   -22.42698  1.11295  10549.25742    3e-05  58975.14873  52.73547   3.12402  19.29773  59017.60301 
    14.77715  1.91497   2.51373       1.21735         3590.46538   0.2541  0.03847      0.1085  24.32226     20.14821   4745.74372   -25.75098   0.7768  12443.02777  0.07815  58971.82474  52.86614   20.2146  19.17891  59012.55765 
      14.146  1.60262   3.50412       1.00002         3129.92415  0.21925  0.03769     0.43315   14.7611     17.36111   6129.91943   -37.22198  1.50238   8687.19224  0.00013  58960.35373  52.51271  15.85879  19.17174  59015.40924 
    14.69036  1.78424   5.78716       3.16722          3070.4547  0.07034   0.0123     0.16654  73.19097     16.82443   6848.21132   -14.07807  0.96427  15054.34962    4e-05  58983.49764  53.11089   6.71695  19.16621  59007.60017 
     14.8256   1.0789   2.53666       0.96248         3718.81911  0.14754  0.01174     0.01609  41.22013     17.38025   5750.75042    -6.02791  0.73718  17037.62049  0.00013   58991.5478  53.17888  12.86289  19.18797  59012.55765 
    14.68645  1.58801   4.05743       4.78159         2230.49866  0.28063  0.03561     0.01091   23.8352     17.35687   3927.11157   -18.45253  0.95467  13901.45742  0.00013  58979.12318  52.96081  22.24331  18.93108  58998.29969 
    14.66219  2.13446   3.39924       0.61761         5172.66572  0.06848  0.04169     0.04452  28.69352     19.39383   6270.78408   -16.76262  0.83843  11125.40303  0.01376  58980.81309  52.78178   5.61188  19.31548  59018.46795 
      14.849  1.44534   4.58564       4.95846         2707.37935  0.11847    0.011     0.04616  55.21329     17.05808   4603.19569    -13.9438  0.71298  14889.83801    6e-05  58983.63191   53.0824  10.82899  19.16475  59012.55765 
    14.67483  1.33689   5.14016        2.6328         3651.22536   0.2788  0.03467     0.01114   14.9133      16.5623   4270.18063   -16.32913   0.5056   9177.88121    2e-05  58981.24658  52.56133  20.20756  19.16715  59009.70606 
    15.06417  1.43064   5.46035       2.17479          3162.8499  0.38702  0.02997     0.02815  19.31011     18.96557   3655.37498   -13.57247  1.04745   17071.0003  0.00513  58984.00324  53.12219  29.49709  19.15691  59015.40924 
    15.08204   1.6232   1.02553       1.74817         3456.97847  0.32339  0.02364     0.38586  18.69586     18.11546   3583.87158     -6.7071  1.49459  16501.02802  0.00072  58990.86861  53.09003  24.49681  19.16626  59017.60301 
    14.07397  1.80522   2.96681       3.82589         2238.40547  0.31648   0.0753     0.12219   8.22041     20.95779   7428.68025   -30.83102  1.12704   9701.09157  0.50411  58966.74469  52.55454  20.21206  19.08665  59012.55765 
     14.8221  1.81329   5.03732       0.09801         5147.21713  0.29621  0.02272     0.03353  19.18592     19.31235    3191.0501   -10.96862  0.80139  13792.34569   0.0114  58986.60709  52.93642  22.54827  19.20927  59012.55765 
    15.00841  1.56459   1.31126       3.88619         2537.90209  0.03509  0.10377     0.11584  21.11078     18.49418   7295.82015   -16.77167  0.23902  11963.81309  0.00173  58980.80405   52.8207   2.71996   19.2628  59015.40924 
     14.6308  1.60167   1.29056       1.78974         3137.71916  0.10286  0.02468     0.16415  40.51984     18.65012   8030.01488   -57.45157  0.43395   5243.32499  0.00248  58940.12414  52.15404    8.9418  19.21567  59012.55765 
    14.04996   1.3816   4.38722       0.05119         2394.27558   0.0996  0.01944     0.08606  29.99768     17.83472   5346.60129   -28.43283  0.91264  15592.69441  0.00038  58969.14288  53.07838   8.22539  19.13523  59015.40924 
    14.47186  2.12359   5.98663       3.96027         2133.24053  0.19049  0.05672     0.08288  13.93432     16.78814   4975.36136   -14.01179  1.48772  12594.19977    3e-05  58983.56392  52.83026  13.61935  19.04185  59001.15128 
    14.73036  1.91062   1.89203       4.76365         2748.69344  0.40942  0.09986     0.17012  10.81264      18.3692   3770.67591   -15.87493  1.28312  12593.87905   0.0013  58981.70078  52.80737  27.77105  19.20333  59015.40924 
    14.41596   1.8233   2.91019       0.27583         5977.72969  0.18333  0.02019     0.34565   17.9633     17.43643   7285.26464   -23.49079  1.05073   8185.36598  0.00015  58974.08492  52.47775   13.7813  19.21822  59009.70606 
    14.25798   1.8248   3.20985        4.3539         3676.58557  0.09122  0.03125     0.01967  21.00834     19.05822   5157.12687   -58.70213  1.08175    3759.3064  0.00635  58938.87358  51.81478   7.06367  19.17598  59012.55765 
    14.30016  1.60735   5.76765       1.68633         2308.15849  0.19176  0.02011      0.4222  22.85458     17.73695   5485.98088   -18.11133  1.51572  12738.51078   0.0003  58979.46439  52.88158  15.08297    19.198  59017.60301 
    14.96642  1.85405   3.21901       3.10633         2276.96505  0.19259  0.01468     0.18956  34.36804     16.40329   5318.57158   -11.17066  1.24897  16762.63147    1e-05  58986.40505  53.15145   16.2844  19.18168  59015.40924 
    14.41449  2.16914   6.36345       0.21817         4215.29836  0.32412  0.06591     0.21447   9.84546     18.10718   6578.68347   -21.46248  1.49794  12466.64587  0.00071  58976.11323  52.78978  21.54603  19.03918  59004.00287 
    14.82373   1.5433   1.58315       0.27966         4409.66123  0.06153  0.03244     0.03797  29.16621     19.16484   5302.49646    -24.4165  0.33044    7541.3438  0.00812  58973.15921  52.44529   5.05653  19.13664  59012.55765 
    14.75125  2.02973   3.41683       4.08012         2664.43961  0.12361  0.02059     0.11982  38.96025     18.82353   3854.64721   -15.82936   1.3789  11947.89658   0.0037  58981.74635  52.86656  10.67549  19.20546  59012.55765 
    15.01967  1.95797  12.80093       2.22653         3334.08226  0.35435  0.02859     0.29591  18.67779     18.38197   5367.33609   -12.86065   0.7504  16526.61351  0.00134  58984.71506  53.09129  26.83707  19.18621  59015.40924 
    15.16203  1.59641   2.73267       3.19049         2100.46313  0.32549  0.06186     0.06044  14.19827     19.71204    6881.0877    -7.92786  0.30339  16153.93525  0.02863  58989.64786  53.04812   23.3604  19.20329  59009.70606 
    14.29151  1.33697   4.87131        4.5364         3871.45874  0.03024  0.01222     0.23869   22.2585     18.01784   3418.38433   -14.74697  0.71912   4569.22114  0.00058  58982.82874  51.98892   2.36661  19.22755  59012.55765 
    14.31231  1.71579   6.25988       2.88238         2950.11804  0.49665  0.08751     0.03497   8.58585     20.25368   8402.03127   -18.96817  1.32114  12276.95896  0.09964  58978.60754  52.76333  32.03156   19.3104  59015.40924 
    14.31001  1.45519   4.01336       0.23952         3707.74857  0.09717  0.02837     0.03713  19.72892     18.12336    5859.4208   -29.57862  0.53385   9127.07831  0.00074  58967.99709  52.58011   7.43629  19.20709  59015.40924 
    14.23608   1.8445   3.43278        0.5453          5825.2671   0.0913  0.05392     0.01675   6.70552     20.56477   4653.76307   -31.22854  0.74112   6188.92698  0.20394  58966.34717  52.14362   5.56227   19.2141  59017.60301 
    14.81096  1.75953   3.59855       0.62265         2479.42925  0.11181  0.01377     0.01789  55.22272      18.4564   4207.41493    -10.5398  1.49535  17032.25433  0.00159  58987.03591  53.19918  10.22123  19.20295  59015.40924 
    14.98061  1.45909   2.87677       1.72961         3224.40782   0.2789  0.02849     0.02924  21.71448     18.44271   3996.29336    -3.62504  1.35416  19435.98737  0.00154  58993.95067  53.24445  21.73017  18.59695  58975.48695 
    14.77729  1.78385   5.72232       4.25947         2961.35336   0.4826  0.06322     0.03194  13.08942     18.90381   3058.65324   -13.84461  1.12519  15705.32863  0.00445  58983.73111  53.01649  34.06805  19.14215  59015.40924 
    14.41056  1.62825   6.44299       1.40914         2417.19937  0.33413  0.03658     0.04494  14.68698     19.30607   6804.70731   -13.04742   1.2308  15157.76058  0.01124  58984.52829  52.99579  24.14404  19.22833  59017.60301 
    15.03149  1.71421   1.03781       4.57877         2575.33237  0.28005  0.02399     0.02843  21.25307     19.41234    5896.3969    -8.22483  0.98473  13354.36974  0.01436  58989.35088  52.91675  21.73312  19.21253  59012.55765 
    14.71519  1.75023   5.39267       4.69231         3439.25504   0.1874  0.02306     0.09543  23.61656     19.40118   4442.25709   -11.29286  1.26099   9305.07575  0.01399  58986.28285   52.6114  14.82886  18.94719  58981.19013 
    15.00534  2.08915   6.31921       3.69792         2682.36375  0.09915  0.03795     0.02755  13.97274     18.69082   9152.20714   -22.51321  0.15215  11628.73563  0.00273   58975.0625  52.76123   7.09308  18.80827  58978.33854 
    14.37531  1.60723   4.59114       0.80767          5889.8528  0.01801  0.02279     0.01103  11.80229     17.11091   8050.21244   -11.38498  0.62635    7256.2946    7e-05  58986.19073  52.33651   1.24462  19.14641  59012.55765 
