 log(Bfield)      Mns    Pspin  cutoff_power  cutoff_wavelength  fnickel    kappa  kappagamma  mejecta  log(nhhost)  temperature  texplosion  thetaPB     vejecta      A_V        MJD_0   log(KE)      M_Ni  Peak_mag     Peak_MJD 
    14.17579  1.94034  2.07406       0.23449         2447.75783  0.00215  0.29415     0.01092  7.60895     16.07534   8526.95578   -18.33985  1.00726  4920.49094    1e-05  58896.18015  51.95724   0.13513  19.75374  58976.67155 
    14.20982  1.68272  3.17783       0.06231         3620.64027  0.00655  0.23912     0.01019  5.25096     19.08615   6337.85989   -18.91375  0.31998  5086.56471  0.00677  58895.60625  51.94727   0.37583  19.76233  58979.72093 
    14.42925  2.06793  2.52574       0.13501         2099.78336  0.09258  0.33427     0.01171  6.54077     16.11015   5932.71961   -17.44348  0.50149  5113.59323    1e-05  58897.07652  51.97527   5.60674  19.77361  58979.72093 
    13.85892  1.68138  2.89028       0.12316         2087.08249  0.00502  0.19898     0.01111  6.95257     20.39741   6524.22718   -24.02756  0.80057  5256.65631  0.13872  58890.49244  52.00552   0.30845  19.77337  58979.72093 
    14.35006  1.99844  1.70025       0.00999         2448.22079  0.07476  0.32203     0.01543  6.65295     16.25366   4227.65719   -15.32968  0.80994  4795.90209    1e-05  58899.19032  51.92132   4.54561  19.76732   58982.7703 
    14.22187  1.87211  2.66598       0.28385         2127.62774  0.48777  0.33842     0.01569   5.1796       20.083   7176.19267   -19.70944  0.68257  5164.20165  0.06726  58894.81056  51.95892  27.89342  19.78282     58978.14 
     14.0104  1.88192  3.38211       0.03426         5302.49161  0.04643  0.23549     0.01017  6.56699     16.03446   9752.64054   -21.83463  0.81016  4956.25973    1e-05  58892.68537  51.94854   2.81477  19.77817   58982.7703 
    14.41914  1.64165  3.09116       0.09897         2637.27137  0.01915  0.27226     0.01166  5.08376     16.03104    6801.0647   -19.66947  0.20366  5082.44988    1e-05  58894.85053  51.94301   1.09004  19.75883  58979.72093 
    14.96408  2.13357  2.35633       0.02856         3568.08027  0.02827  0.33496     0.01408  7.00765     17.75574   5412.63024   -18.22289  0.15539  5429.74609  0.00032  58896.29711  52.03447   1.74041  19.77555  58979.72093 
    14.32727  1.67345  3.01266       0.01037          3201.7721  0.02172  0.26911        0.01  4.93639     18.21569   3551.68112    -18.6014  0.26758  4894.86039  0.00091   58895.9186  51.90708   1.22705  19.79101  58979.72093 
    14.23599  1.62779  3.16483       0.04902         2254.26712  0.04882  0.22482     0.01183  4.94304     18.25961   7076.09054   -20.48606  0.25883  5170.99012  0.00101  58894.03394   51.9549   2.75887  19.74133  58979.72093 
    14.45738  1.39898  2.69093       0.02068         2455.37253  0.00907  0.22136     0.01039  5.94794     19.47967   7173.81693   -16.43052  0.15854   5199.4324  0.01676  58898.08948  51.97976   0.53676  19.81416   58982.7703 
    14.75135  1.84112   2.8852        0.0709         2054.88426  0.00146  0.28234     0.01021  6.68848      17.4895   8179.13501   -19.73239  0.14997  5116.29971  0.00017  58894.78761  51.97804   0.08896  19.78717  58979.72093 
    14.34454  1.64875  3.20619       0.07201         4584.43061   0.0038  0.25189     0.01216  4.47863      16.3723   9439.35178   -19.11211  0.21698  4962.55112    1e-05  58895.40789  51.90806   0.20915  19.74269  58979.72093 
    14.25151  1.85225  3.21488       0.00021          3409.5302  0.00999  0.31183     0.01224  4.86724     16.53961   7941.08957   -17.22584  0.43468  5116.53287    2e-05  58897.29416  51.94398   0.56215  19.74133  58979.72093 
    14.16723   1.6878  3.24138       0.18468         2049.54357  0.08282  0.27898     0.01175  4.62219     18.09823   9295.20785     -17.287  0.36552  5192.52568   0.0007    58897.233  51.95099   4.60004  19.74187  58979.72093 
    14.48888  1.76803  3.10712       0.17646         2517.70422  0.06161  0.24923     0.01127  6.11277      17.6802   7218.31291   -19.39522  0.23116  5230.71403  0.00027  58895.12478  51.98786   3.67103  19.76947  58979.72093 
    14.23849  1.65427  3.01129       0.00192         5289.33387   0.0049  0.27957     0.01011  4.72818     19.44728   8846.16213   -22.68644  0.26222  4964.80382  0.01556  58891.83356  51.91459   0.27391  19.81026  58979.72093 
    14.68196  1.93028   2.9249       0.01107         3493.67678  0.00115  0.25636      0.0127   5.9118     20.61808   3574.46277   -19.55257  0.14381  5418.68321  0.23057  58894.96743  52.01499   0.06769  19.80913  58979.72093 
    14.24042  1.32569  2.19806       0.15473         2238.53359  0.09585   0.2962     0.01035   5.6135     20.52059   3574.84344   -21.45699  0.22731  5128.13602  0.18421  58893.06301  51.96158   5.59307  19.81053     58978.14 
    14.32193  1.61314  2.14651       0.01239         5790.02609  0.29494  0.28724     0.01141  6.49921     16.83013     8038.341   -16.68069    0.474  4968.68768    4e-05  58897.83931  51.94964  17.83438  19.74316  58979.72093 
     14.5395  1.94112  3.57432       0.16758         3205.13485  0.01279  0.22976     0.01018  5.41672     16.10218   9884.68603   -19.63442  0.18366  5044.85811    1e-05  58894.88558   51.9435   0.73976  19.76003  58979.72093 
    14.51041  1.91597  3.36816       0.02284         3458.35836  0.00338  0.22873     0.01002  6.02405     16.93794   7937.01786   -20.68759  0.21871  5025.19473    5e-05  58893.83241   51.9515   0.20067  19.78238  58979.72093 
    14.50308  2.09193  3.69074       0.04994         3509.60421  0.00419  0.27667     0.01026  4.61118     17.44736   9577.55286   -17.34586  0.22173  5097.06558  0.00016  58897.17414   51.9346   0.23262  19.76149  58979.72093 
    13.89509  1.62625  3.15333       0.00396         3346.09836  0.01883  0.23152      0.0117   5.1083     16.29402   9668.90724   -21.13493  0.65198  4977.66661    1e-05  58893.38507  51.92544   1.07291  19.74949     58978.14 
     14.1507   1.9683  2.59116        0.0154         5815.28411  0.01362  0.31696     0.01016   6.8591     16.17988    8509.4884   -18.76317  0.85376  5122.61036    1e-05  58895.75683   51.9817   0.83408  19.79498     58973.37 
    14.55729  1.92362  3.47315       0.12583         3219.37467  0.00175  0.26501     0.01005  4.61837     17.77241    3078.5769   -15.06123   0.1739  5087.55889  0.00033  58899.45877  51.93315   0.09713  19.77165  58979.72093 
    13.95883  1.53622  2.86996       0.40133         2192.57804  0.00198  0.30484      0.0115  4.75129     16.56388   9509.06401   -18.27429   0.6038  5021.81112    2e-05  58896.24571  51.92505   0.11096  19.76285  58979.72093 
    14.22462  1.56786  3.03388       0.07882         2045.52693  0.00111  0.23797     0.01096  5.16136     17.37831   5559.80284   -22.09208  0.26765  4980.37423  0.00013  58892.42792  51.92705   0.06357  19.76477  58979.72093 
     14.5862  1.85667   3.4355       0.16173         2645.68389  0.03286  0.22335     0.01109  5.81413     18.84883   3340.22581   -16.72207  0.18324  5191.43973  0.00392  58897.79793    51.976   1.93404   19.7979   58982.7703 
    14.38548  1.84687  3.50484        0.1891         2502.03882  0.01373  0.16306     0.01065  6.25962     17.69449   4648.80841   -21.90391  0.27466  4602.90734  0.00027  58892.61609   51.8793    0.8226  19.76928  58979.72093 
    14.59696  1.83708  3.39875       0.05678         2962.91083  0.00595  0.23853     0.01005  4.77565     16.65384   7450.01556   -21.50781  0.13655  4790.28989    3e-05  58893.01219  51.88463   0.33346   19.7991   58982.7703 
    14.42982   1.9331  3.51796       0.02685         3960.26569  0.00157   0.2194     0.01022  4.98997     16.73327   4784.33351   -19.12669  0.20868  5123.89099    3e-05  58895.39331    51.948   0.08869   19.7713  58979.72093 
    14.56974  1.71165  3.28128        0.0123          5074.8111  0.02666  0.24367     0.01292  5.18885     18.52764   8637.71283    -20.7257  0.15031   5078.7255  0.00187   58893.7943  51.94462   1.52544  19.78207  58979.72093 
    14.34311  2.04591  3.67668       0.00612          4166.2425  0.00648  0.29182     0.01417   4.0515      16.9793   6423.87939   -18.19668  0.33951  5008.13681    5e-05  58896.32332  51.90442   0.34758  19.79595   58982.7703 
    14.06925  1.67677  3.08467       0.12879          2825.8551  0.01078  0.27809     0.01057  5.38394     17.05186   8956.81708   -19.07128  0.47308  5294.78302    6e-05  58895.44872  51.98484   0.62227  19.74733     58978.14 
    14.06062  1.88726  3.58598       0.23493         2938.22772  0.01428   0.2124     0.01057  5.22335     18.88376   4269.48996   -17.42351  0.50702  5237.21961  0.00425  58897.09649  51.97204    0.8185  19.77676   58982.7703 
    14.05098  1.42543  2.85811       0.02568         2321.90347  0.03571  0.23674     0.01158   5.3277     16.15923   7137.60909   -16.49758  0.40266  5229.51597    1e-05  58898.02242  51.97293   2.05647  19.77121  58979.72093 
    14.60493  2.07281  3.10766       0.00851         3065.88324  0.00377  0.28415      0.0108  5.47323     20.33414   8063.69597   -21.35671  0.19394  5133.32019  0.11991  58893.16329  51.95973   0.21832   19.7724   58982.7703 
    13.64021  1.43299  2.69524       0.00344         3609.51033  0.00424  0.26139     0.01058  6.15273     16.22565    7690.5528   -27.40648  1.35933  4960.61788    1e-05  58887.11352   51.9425   0.25318  19.79786   58982.7703 
    13.77323  1.53991  2.88404        0.4893         2149.65833  0.14487  0.31509     0.01026  4.51214      18.7229   4194.52637   -17.91593  1.07832  4924.05156  0.00294  58896.60407  51.90214   7.99541  19.76327     58978.14 
    14.01865  1.68049  3.11648       0.52811         2449.86236  0.02834   0.2663     0.01028  5.40834     17.95358   4687.06456   -15.91773   0.6256  5047.14318   0.0005  58898.60227  51.94373   1.63855  19.75594  58979.72093 
    13.89752  1.77764  3.31276       0.01307         5027.87418  0.00832  0.19079     0.01029  5.64416     18.26696   7561.19796    -22.7168  0.73728   4971.1966  0.00103   58891.8032  51.93517   0.48584  19.77311     58978.14 
    14.46986  1.74069   3.2302       0.00992         2694.45151  0.00781  0.20161      0.0102  6.54322      17.4054   7580.23232   -21.19827  0.22605  4749.67851  0.00014  58893.32173  51.91118   0.47322  19.79552  58976.67155 
    14.31035  1.74953   1.7075       0.27755         2589.57281  0.21727  0.21709     0.01003  7.63495     16.17244   9533.90625   -16.48385  0.67522  4365.28207    1e-05  58898.03615  51.85359  13.64396  19.77938  58979.72093 
    13.89507  1.73805  3.22295       0.00094         5914.07886  0.06423  0.21943     0.01066  5.82757     18.97933   9899.55431   -22.49232  0.83317  5013.66574   0.0053  58892.02768  51.94598   3.78264  19.72303     58978.14 
    14.19531  1.94101  3.34583         0.083         3588.42681  0.00149  0.26858     0.01083  5.05299     19.64327   6151.87956   -20.27199  0.44476  5040.55667  0.02443  58894.24801  51.93515   0.08467  19.74677  58979.72093 
    14.61307  1.91299  3.09925       0.02133         3470.80058   0.0013  0.26911     0.01032   5.0709     20.28072    5235.5071   -14.63232  0.17449  5069.88304  0.10603  58899.88768  51.94058   0.07401   19.7578   58982.7703 
    14.19732   1.8335   1.8813       0.02591         3077.63021  0.02416  0.30042     0.01146   7.4572     16.05959   4213.81073   -19.53906  0.86303  4800.73217    1e-05  58894.98094  51.93382   1.50891   19.7436  58973.62218 
    14.10076  1.66084  2.84375       0.00586         3488.20843   0.0144  0.27358     0.01132  5.60141     19.40659   9073.88895   -21.04952  0.52784  4956.80674  0.01417  58893.47048  51.93184   0.83983  19.74796  58979.72093 
    14.34365  2.04073  2.59862       0.01677         3655.23898  0.03602   0.2785     0.01024  7.41442     16.16489   7626.83479   -21.85776  0.57641  4822.78471    1e-05  58892.66224  51.93722   2.24672  19.79339  58979.72093 
    14.58522  1.22763  2.12075        0.5121         2131.22076  0.02959  0.27999     0.01109  5.46139     20.38529   3824.19947   -13.78878  0.10305  5288.02258   0.1349  58900.73122  51.98528   1.71487  19.75731  58979.72093 
    14.14285  2.06999  2.40244       1.43487         2016.58775  0.01047  0.29274     0.01281  7.03486     20.49394   5739.00759   -21.16871  0.92535  4986.55045  0.17325  58893.35129   51.9609   0.64508  19.78004     58978.14 
    14.38442  1.58366  2.99563       0.01638         3891.62261  0.01865  0.22531     0.01043  6.40958     18.82605   6857.41951   -19.89956  0.22072   5206.6453  0.00372  58894.62044  51.98883   1.12391  19.78807   58982.7703 
     14.2343  1.76884  3.01984       0.08196         2753.32563  0.00111  0.21767     0.01071  5.86894     20.37641   3001.37581   -20.08619  0.31584  5224.70237  0.13217  58894.43381  51.98255   0.06574  19.74509  58979.72093 
    13.96086   1.6618  3.09081       0.13924         2982.73227  0.03523  0.24278     0.01107  5.81398     17.55721   9326.97727   -21.21779  0.70185  5001.70391   0.0002  58893.30221  51.94366   2.07335  19.76899     58973.37 
     14.2268  1.78278  3.28214       0.07563         2116.86484  0.04644  0.25558     0.01111  5.18978     17.37594    5167.1126   -15.39584  0.39729  5244.58234  0.00013  58899.12416  51.97255   2.65701  19.77619   58982.7703 
     14.3598  1.71227  3.17972       0.01239         2560.70792  0.01924  0.22438     0.01015  4.95351     18.58598   8552.51954   -19.75359  0.22261  4924.01556  0.00214  58894.76641  51.91263    1.0881  19.77591  58979.72093 
    14.88985  2.08153  2.51746       0.01651         5123.28508  0.00463  0.32501     0.01094  7.13063     16.24032   9550.39436   -20.21075  0.16259  5045.55619    1e-05  58894.30925   51.9725   0.28598  19.76384  58979.72093 
     14.2939  1.55873  3.28346       0.12699          2602.9343  0.28206   0.1986     0.01151  6.50972     18.22649   9247.19873   -21.55694  0.25749  5280.58988  0.00094  58892.96306  52.00269  17.06214  19.78521   58982.7703 
     14.6384  1.54918  2.82354       0.02058         5520.50509  0.05668   0.2423     0.01154  5.94435     19.50645   9272.52531   -18.90907  0.14004  4907.15872  0.01783  58895.61093  51.92945   3.35428  19.74706  58979.72093 
    14.25715  1.67792  3.32771       0.15762         2083.52581   0.0928  0.16857     0.01031  5.48495     16.03725   4194.83891   -18.22698  0.29052  4842.40735    1e-05  58896.29302  51.90929   5.38368  19.80519  58976.67155 
    13.96315  1.51881  2.84381       0.38267         2504.62283  0.00344  0.32603     0.01168  4.68804       16.411   9673.95074   -18.47661  0.60253  4960.99467    1e-05  58896.04339  51.91296   0.19192  19.72936     58978.14 
    14.47299  1.40117  1.44669       0.07495          5717.5861  0.39557  0.26903     0.01112  7.36572     17.63734   5324.30659   -17.41343  0.32329  4941.86422  0.00024  58897.10657  51.95775  24.63546  19.76523  58979.72093 
    13.98653  1.74571   3.2605       0.05509         2305.40025  0.01063  0.20668     0.01044  6.01444     16.73494    8155.8972   -19.99564  0.64839    5044.574    3e-05  58894.52436  51.95468   0.63085  19.77905  58979.72093 
    14.43229   2.0323  3.68674        0.0156         5859.31302   0.0037  0.26089     0.01131  4.84849     16.81154   9520.45738   -21.66907  0.24102  5017.54408    4e-05  58892.85093  51.92658    0.2081  19.78102  58979.72093 
    14.36702  1.33084  2.67129       0.44965         2005.32221  0.00346  0.26402      0.0122  4.73392      18.1187   3096.05622   -20.12449  0.15922  5039.48548  0.00073  58894.39551  51.92769   0.19356  19.76229     58978.14 
    14.37616  2.13374  2.84526       0.11993         3376.33438  0.02968  0.33275     0.01002  6.17921     17.33005   4726.20529   -20.82555  0.52017  4793.14381  0.00012  58893.69445  51.91312   1.77314  19.76144  58979.72093 
    14.02847  1.61279  2.96726        0.3439         2074.51613  0.04007  0.29744     0.01011  4.75737      19.0078   9293.81957    -18.6048  0.53057  4830.05917  0.00566   58895.9152  51.89138   2.24192  19.77003  58979.72093 
    14.31512  1.58236  2.95333       0.22664         2150.86445  0.00916  0.23902     0.01003  5.19402     19.72332   7359.87807   -18.55092  0.21264  5166.35623  0.02938  58895.96908  51.95959   0.52405  19.76058     58978.14 
     14.1771  1.77815  3.40388       0.13783         2791.83917  0.01759  0.16293     0.01012  5.24003     17.55059   5715.02452   -18.41756  0.34494  4915.25156   0.0002  58896.10244  51.91728   1.00894  19.80323  58979.72093 
    14.56113  1.99547  3.61843       0.07165         2466.28979  0.00569  0.23014     0.01064  5.45774     17.05267   7453.20862   -18.75389  0.18655  5149.74206    6e-05  58895.76611   51.9622   0.32947  19.77715  58976.67155 
    13.91587  1.34955  2.45845       0.00443         3528.86076  0.00986  0.20696     0.01159  8.32519     16.00756   7219.41717   -17.45546  0.73049  5253.32466    1e-05  58897.06454  52.02301   0.63133  19.78202   58982.7703 
    14.20278  1.94932  2.01858       0.04326         3473.70464  0.12184  0.21224     0.01099  10.0853      20.1121   6736.49568    -9.12851  1.06523  5657.91915  0.07192  58905.39149  52.10587   8.14144  19.76083  58979.72093 
    14.01697  1.74595  3.26686       0.10421         2017.65437  0.00137  0.24102     0.01144  4.70304     16.67161    4194.1469   -19.08549  0.50622   5174.8847    3e-05  58895.43451  51.94999   0.07655  19.75069  58979.72093 
    14.57829  1.94794  3.37186       0.02391         3254.16682  0.01933  0.24532     0.01064  5.29704     19.93292   5434.44045   -20.81207  0.17089  5046.99094   0.0476  58893.70793  51.94144   1.11158  19.74612  58979.72093 
    13.99071  1.62383  2.98301       0.02733         5826.68428  0.02818  0.27214     0.01027  5.58503     17.90218   8812.10151   -19.60952  0.57266  5213.54885  0.00044  58894.91048  51.97538   1.64213  19.75231     58978.14 
     14.3151  2.13328  2.10298       0.00138         5991.15458  0.01119  0.25005     0.01239  8.27398     16.33197   4783.25399   -15.23324   0.9043   4869.7662    1e-05  58899.28676  51.95655     0.716  19.77033  58979.72093 
    14.26913  1.76944  3.34209         0.185         2149.28268   0.0095  0.24643     0.01306  4.09462     18.53125   3207.18782   -16.26518  0.27081  5287.79654  0.00189  58898.25482  51.95285   0.51119  19.74355  58979.72093 
    14.43287  1.70152  3.14661       0.05415          3467.5147  0.02667  0.24896     0.01022  4.83555     17.06072   5819.27004   -22.52378  0.18218  4853.75872    6e-05  58891.99622  51.89746   1.49858  19.76609   58982.7703 
    13.74256  1.37044  2.50839       0.02183         3641.34717  0.00802  0.28622     0.01008  5.94019     19.31826   8986.16205   -24.67369  0.92669  4873.20849  0.01156  58889.84631  51.92334    0.4746  19.79473  58979.72093 
    14.21172  1.70245   3.2346        0.0413         2918.96229   0.0797  0.29437     0.01366  4.51795     17.01237   9117.31418   -18.23478  0.36159  5272.54703    6e-05  58896.28522  51.96168    4.4002  19.72023     58978.14 
    14.26348  2.03622   2.2384       0.00835         5400.91564  0.33905  0.24513     0.01049  8.43598     20.30563   9390.28487   -14.80279  0.86354  5545.90624  0.11229  58899.71721  52.07138   21.7807  19.75272   58982.7703 
    14.57875  1.65881  1.05527       0.10258         3148.22411  0.48266  0.32841     0.01345  7.20153     16.44264   6614.50089   -18.76255  0.39939  4996.88382    2e-05  58895.75745  51.96508  29.90189  19.76867  58979.72093 
    14.02082  1.95669   3.6576       0.02278         4485.43837  0.05881  0.19157     0.01079  5.12744      17.7718    6041.4692   -20.23472  0.56173  5100.64459  0.00033  58894.28528  51.94705   3.35455  19.79132  58979.72093 
    14.26016  1.78249  3.30617       0.35781         2127.05518  0.00441  0.23723     0.01092  4.75626     17.35345   7300.75933   -19.64685   0.3042  4889.18122  0.00013  58894.87315  51.90192   0.24657  19.76657  58979.72093 
