 texplosion  fnickel    Pspin  log(Bfield)      Mns  thetaPB   mejecta    kappa  kappagamma     vejecta  temperature    alpha  cutoff_wavelength  log(nhhost)      A_V         MJD0  kenergy  mnickel            TSD   log(L0)  Peak_mag     Peak_MJD  log(E_rad)  log(Peak_lum)  Rise_Time    E_fold  tau_1  delta_m15     r_peak     frac 
   -3.70666  0.00456  1.88102     14.15021  1.77381  0.15447   7.48353  0.30737     0.01044  6412.36602   4086.28315  2.52234         2915.80042     18.75543  0.00316  58334.90541  1.83557  0.03415   291799.68189  46.50388  17.93438  58427.59932    51.50216       44.54849    64.9549  67.03555   77.0    0.07868  -22.08767  0.99933 
   -4.82071  0.03854  1.66928     13.76143  1.68333  0.28661   7.03905  0.33891     0.01008  6685.61115   3995.07752  3.09573          2596.8188     18.49833  0.00175  58333.79136  1.87682  0.27125  1306735.45266  45.93377  17.93778  58429.39118    51.52733       44.56448   67.47713  68.03291   79.0    0.07477  -22.08877  0.99533 
   -4.19289  0.03633  1.59232     13.68487  1.51085  0.30664    7.4626  0.29963     0.01012  6589.42241   4238.34441  2.72284         2712.24886     19.15208  0.00789  58334.41918  1.93291  0.27115   1518279.5435  45.86266  17.92165  58429.39118    51.51868       44.55424   66.25132  69.58218   78.5    0.07778   -22.0894  0.99503 
    -4.6274  0.00407  1.95347     13.87132   1.8254  0.29757    7.7978  0.26358     0.01013  6261.09149   4254.88691  2.34488         3001.98208     17.05492    6e-05  58333.98467  1.82347  0.03176  1169900.64742  45.88044  17.94649  58428.39276    51.49765       44.53865    65.5835  67.95454   79.5    0.07798  -22.07429  0.99934 
   -3.81553  0.00108   1.7708      13.9965   1.5167  0.19806   7.87978  0.27339     0.01134  6217.18112   4252.23633  2.32316          3023.3465     16.61007    2e-05  58334.79654  1.81689  0.00851    448801.6609  46.30135  17.91533  58428.39276    51.50575       44.54439    65.5835  67.24545   76.5    0.07669  -22.06683  0.99981 
   -4.34682   0.0963  2.13708     14.14754   2.0295  0.21539   7.92567  0.30843     0.01001  6245.00871   4830.00701  2.38626         2969.16399     16.80225    4e-05  58334.26525  1.84386  0.76328   436286.78272  46.27682  17.94345  58428.39276    51.49373       44.53318   67.47713  67.24545   77.0    0.07631  -22.06271  0.98457 
   -3.43656  0.28341  1.75355     13.92759  1.58164  0.21682    7.3809  0.31272     0.01023  6331.84998   4182.73821  2.48745         3007.80844     16.33464    1e-05  58335.17551  1.76522  2.09179   630339.89428  46.18054  17.95252     58429.23    51.50466       44.54211   67.47713  68.03291   78.5    0.07805  -22.09046  0.95889 
   -4.14651  0.00285  1.68092     13.84849  1.50684  0.25001   7.61063  0.29674     0.01149  6463.09455   4112.90573  3.55588         2636.38662     19.24092  0.00967  58334.46556  1.89639  0.02172   794326.59396  46.09582  17.94199     58429.23    51.50913       44.54409   68.00401  68.03291   78.5     0.0761  -22.09071  0.99956 
    -3.7491   0.0167  1.58176     14.01392  1.44172  0.15453   7.32608  0.33503     0.01102  6634.14006   4488.35263  2.57513         2817.11436     18.38316  0.00134  58334.86297  1.92339  0.12234   314153.94374   46.5323  17.94671  58428.39276    51.50278       44.54288   66.84853  67.87406   76.5     0.0794   -22.1042  0.99768 
   -4.13832  0.00401  1.78261     13.88714  1.67202  0.25586   7.43214  0.31324     0.01021  6404.65169   4390.89563  2.63367          2828.3346     18.51575  0.00182  58334.47375  1.81858  0.02982   829656.75431  46.07108  17.91474  58428.39276    51.52045       44.55936   67.23846    68.011   77.0    0.07979  -22.07304  0.99942 
   -3.90393  0.00115  1.88913     13.91315  1.83757  0.25613   7.26204  0.31144     0.01066   6528.9028   4314.20643  2.53297         2887.35108     16.91192    5e-05  58334.70814  1.84657  0.00832    908429.8604  46.02227  17.92609  58427.59932    51.51572       44.55583   64.81795    68.011   78.5    0.07796  -22.09468  0.99984 
   -4.98775  0.03855  1.76156     13.86301  1.62395  0.25828   7.71483  0.30812     0.01002  6216.64689   4203.79015  2.73922         2919.82946     18.18033  0.00084  58333.62432  1.77855  0.29744   879371.99873  46.04345  17.94853  58428.39276    51.50937       44.55192   64.93905  67.05141   80.0    0.07487  -22.07387  0.99412 
   -4.78119  0.13837  2.10455     13.78949  2.05625  0.42168   7.66066  0.27533     0.01038  6335.64465   4175.21179   2.9003         2794.40003      18.6516  0.00249  58333.83088  1.83432  1.05998  2229576.56029  45.58738  17.94511  58428.39276     51.4945       44.53554    65.5835  67.95454   79.0    0.07505  -22.08648  0.97911 
   -4.35473  0.27962   2.1412     13.91253  2.03242  0.36443   7.67808  0.33343      0.0106  6269.72603    4339.8922   2.1621         3128.42427     16.68558    3e-05  58334.25734  1.80043  2.14694  1294425.90024  45.80347  17.93963  58427.59932    51.50996       44.54797   67.09499  68.15447   77.5    0.07603  -22.08849  0.95749 
   -3.79084   0.0016  1.33766     13.46325  1.15989  0.35816   7.45648  0.28395     0.01015  6508.44735   4236.80163  2.93752         2733.02654      17.2329    9e-05  58334.82123  1.88415  0.01195  2282506.32604  45.72216  17.92479  58427.59932     51.5118       44.55482    64.9549  67.03555   79.5    0.07951  -22.07949  0.99977 
    -3.1916  0.00101  1.72126     13.94911  1.53181  0.21305   7.82555  0.27942     0.01012  6256.61574   4192.44848  3.28601         2715.08292     18.84894  0.00392  58335.42047  1.82735  0.00787   532711.43161  46.25587  17.93994  58427.59932    51.51849       44.55589   66.56811  68.15447   77.0    0.07957  -22.06574  0.99984 
   -3.59174  0.01042  2.11998     13.91091  1.98296   0.3318   7.83703  0.26814     0.01074  6290.79235   4575.44648  2.53375         2955.80369     18.23374  0.00095  58335.02033  1.85008  0.08166  1247287.92999  45.81753  17.93638  58427.59932    51.51324       44.55568   66.56811  67.31597   78.5    0.07969  -22.07648  0.99827 
    -3.5915  0.05806  1.81855     13.81591  1.65665  0.30628   7.47685  0.29883     0.01186  6593.33776    4626.3891  3.09229         2677.76877      17.6895  0.00027  58335.02057   1.9389  0.43407  1187602.17731  45.89395  17.93574  58428.39276    51.50805       44.53804   67.47713  70.24999   78.0     0.0779  -22.08355  0.99117 
   -3.70424  0.00182  1.68332     13.77525  1.55758  0.27815   6.92365  0.32021     0.01068  6513.32062   4417.76867  2.10131         3112.75104     18.04201  0.00061  58334.90783  1.75213  0.01258  1153694.38327  45.94687  17.93695     58429.23    51.50509       44.54154    65.5835  67.95454   77.5    0.08275  -22.09511  0.99975 
   -3.37212  0.01542  1.81978     13.78737   1.6241  0.31111   7.68204  0.25651     0.01066  6230.34438   4133.64601  2.31626          3035.9657     18.75161  0.00314  58335.23995   1.7788  0.11849   1329599.2263   45.8357    17.922  58428.39276    51.51285       44.55297    65.5835  67.95454   78.5    0.07806  -22.07592  0.99748 
   -3.15749  0.01881  1.78087     13.94933  1.60203  0.21897   8.13171  0.25507     0.01004  6210.85397   4100.44961  3.02554         2767.59089     18.60668  0.00225  58335.45458  1.87116  0.15294   595782.72082  46.19717  17.95456     58429.23    51.50379       44.55133    64.9549  67.03555   78.5    0.07593  -22.07622  0.99686 
   -3.83171  0.01274  2.12733     13.92815  2.09964  0.32679   7.61323  0.29345     0.01003  6360.86078    4440.9965  2.35142         3034.99477     18.40092   0.0014  58334.78036   1.8375  0.09701  1228382.87818  45.84599  17.94398  58428.39276    51.50137       44.54143    65.5835  67.24545   77.5    0.08124  -22.10126  0.99809 
   -4.42916  0.00462  1.76575     13.76228  1.67333  0.33696   7.48956  0.33442     0.01034  6485.29705   4504.42708  2.52288         2942.10728        18.61  0.00226  58334.18291  1.87907  0.03461  1447759.35099  45.83787  17.95775  58427.39221    51.48617       44.53558   64.67448  66.56811   78.5    0.07556  -22.09442  0.99934 
    -3.6749  0.30591  1.89965     13.86742  1.68175  0.28837    7.9987   0.2626     0.01021  6256.80815    4295.2454  2.64646          2915.0107     18.17819  0.00084  58334.93717  1.86789  2.44686  1037751.64597  45.92117   17.9453  58427.59932    51.49048       44.52471   67.47713  68.03291   78.5    0.08035  -22.07771  0.94918 
   -4.82151  0.00598  1.68208     13.71429  1.55086  0.30826    7.5339  0.28354     0.01038  6340.41807   4123.19555  2.37443         2932.38247     16.28046    1e-05  58333.79056  1.80669  0.04507  1518791.42104  45.82622  17.95227  58428.39276    51.51737       44.56103   66.56811  66.56811   80.0      0.077  -22.07235  0.99911 
   -3.99126   0.0703  1.81131     13.87182  1.68991  0.25988    8.0122  0.28348     0.01042  6550.50947   4068.88521  2.61758         2847.88538     17.73096   0.0003  58334.62081  2.05083  0.56329   929005.89169  46.01271  17.94065  58428.39276     51.5079        44.5528   64.67448  67.31597   78.0     0.0778  -22.09642   0.9889 
   -4.49822  0.00975  2.08604     14.01484  1.97201  0.25956   8.81808  0.25435     0.01021  6305.91655   4020.24187  3.26887         2728.42354     18.58309  0.00213  58334.11385  2.09169  0.08599   744220.39323  46.05341  17.93958  58428.39276    51.50036       44.54057    65.5835  67.95454   80.0     0.0758  -22.08231  0.99822 
    -4.0978  0.00617  2.02602     14.05092  2.01864  0.21413   7.90725  0.27123     0.01001  6431.80259   3965.48415  3.14413         2674.07598     17.22715    9e-05  58334.51427  1.95127  0.04881   608587.70741  46.17629  17.93756  58428.39276    51.49144       44.52693   66.22697  67.38945   80.5    0.07483  -22.08954  0.99906 
   -4.44221  0.00261  2.01189     13.98121  1.97546  0.26854   7.73895  0.31175     0.01006  6324.35358   4096.42863  2.11532         2972.65967     18.67902  0.00265  58334.16986  1.84647  0.02017   809608.05767  46.04903  17.93224  58428.39276    51.49832       44.53508   67.47713  68.03291   77.5    0.07469  -22.07821  0.99961 
   -4.22859  0.13194  2.00696     13.88082  1.91699  0.31315   7.74323  0.28949     0.01014  6294.36605   4106.45772  2.58022         2919.26606     17.66652  0.00026  58334.38348  1.83001  1.02166  1241269.98359  45.85252  17.94712  58428.39276      51.507       44.54249   66.84853  67.87406   80.0    0.07862  -22.08072  0.97975 
   -4.84013  0.00275  2.07888     13.70211  1.99468  0.48032   8.21761  0.23064     0.01062  6214.68703   3900.81616  2.12016         3030.65018     18.44795  0.00156  58333.77194  1.89326  0.02261   3155919.8051  45.43393  17.90696  58427.39221    51.50777       44.55153   63.78176  67.46083   81.5    0.07785  -22.08465  0.99953 
   -4.36137  0.00345  1.82096     13.78465  1.66689  0.33807   8.27896  0.25009     0.01011  6159.66376   4322.24133  2.65624         2741.40269     17.59139  0.00022   58334.2507  1.87377  0.02857   1383601.4081  45.82914  17.94165  58427.39221     51.5186       44.56386   63.78176  67.46083   79.5    0.07465  -22.06191  0.99942 
   -3.98935  0.21669  1.48415     13.81665  1.56899  0.81245  10.91068  0.23861     0.01115  5500.70595   5685.05968  0.87296         4128.07655     19.12239  0.00736  58334.62272  1.96932  2.36428   746590.84133  46.24843  17.93311  58427.59932    51.49578       44.54085    64.9549  67.03555   69.5    0.06633  -21.96683  0.96887 
   -2.67231  0.03142  1.50086     13.86422  1.54891  0.57501  11.09182  0.23587     0.01148   5569.9877   5316.30121  0.91758         4133.20218      19.6694  0.02595  58335.93976  2.05276  0.34848   605465.36933   46.3241  17.93116  58428.39276    51.51619        44.5506   66.84853  68.66152   70.5    0.06535  -22.05565  0.99506 
   -3.97606  0.02685  1.93092     13.96972  1.79301  0.26359   7.71297  0.32222     0.01042  6454.03437   4550.15508  2.14949         3042.15874     16.34741    1e-05  58334.63601  1.91651   0.2071   713657.72882  46.09741  17.95733  58429.39118    51.51248       44.54724    68.1206  67.38945   75.0    0.08138  -22.07535  0.99583 
   -4.79476  0.01693  2.20963      13.9379  2.10893  0.35681   7.81949  0.29203     0.01057  6171.60276   4699.28805   2.5901         2881.31019     16.01812    1e-05  58333.81731  1.77665  0.13238  1272680.40453  45.79955  17.94549  58427.39221    51.49859       44.53882    64.9549  67.87406   78.0    0.07456  -22.05005  0.99724 
   -4.11881   0.0106  2.07964     13.96289  1.98136  0.29347    8.0648  0.28899     0.01021  6369.35721   4507.87732  2.53256         2919.82418      18.3176  0.00115  58334.49326   1.9517  0.08549   944023.62625  45.95485  17.91432  58427.59932    51.50472        44.5526   64.67448  66.56811   78.5    0.07822  -22.07583  0.99826 
   -3.69411  0.02109  1.89333     13.95386  1.75802  0.25749   7.59129  0.30137     0.01038  6308.34759   4845.07722  2.00555         3048.31777     16.86077    4e-05  58334.91796  1.80208  0.16007   723735.89482  46.09984  17.93371  58430.40025    51.50503       44.53949   66.25132  69.58218   76.5    0.07875  -22.07533  0.99679 
   -5.32682   0.0062  1.91969     13.89481  1.72334  0.25372   8.32863  0.21961     0.01046   6064.4863   4122.57465  1.88572         3303.73711     16.98918    5e-05  58333.28525  1.82721  0.05163   957259.24457  45.95773  17.93856  58428.39276    51.52961       44.55775   66.84853  68.66152   80.5    0.07711  -22.08394  0.99887 
   -3.94644  0.04709  1.52203     13.69917  1.39259  0.29015   7.37131  0.33433     0.01011  6493.34325   4447.53386   2.4469         2890.47888     17.35125  0.00012  58334.66563  1.85399  0.34713  1197124.77791  45.96968  17.94724  58428.39276    51.49553       44.53832    65.5835  67.24545   78.5    0.07917  -22.09147  0.99355 
   -4.80148   0.1964  1.88096     14.04456  1.80001  0.19321   7.42926  0.32526     0.01015  6488.20636   4497.97922  3.05149         2693.25993     17.46579  0.00016  58333.81059  1.86562  1.45911   481660.43404  46.29262  17.94137     58429.23    51.50931       44.55128   66.83268  67.88991   79.0    0.07699  -22.06614  0.97238 
   -3.86385  0.00735  1.84294     13.71426  1.65036  0.41351   7.78472  0.29263     0.01055  6313.18841   4248.96777  2.41019         3008.12594     18.17102  0.00082  58334.74822  1.85084  0.05723  1940403.77539  45.66751  17.93803  58428.39276    51.51477       44.55126    65.5835  67.95454   76.5    0.08091  -22.06912   0.9988 
   -3.74365  0.00335  2.01782     13.88821  1.99438   0.3169     7.378   0.3067     0.01023   6517.1055   4200.63781  3.32768         2677.18458     17.41087  0.00014  58334.86842  1.86928  0.02473  1261709.86752  45.85793  17.93296  58428.39276    51.51698       44.56002   66.56811  67.31597   77.5    0.07936  -22.07485  0.99952 
    -3.8233  0.00315  1.86035     13.87563  1.75444  0.28547   7.32344  0.32875     0.01099  6600.19583   4676.29026  2.32664         2985.05816     17.04274    6e-05  58334.78877  1.90307  0.02309   999721.00164  45.97391  17.91496  58428.39276    51.51008       44.55429    64.9549  67.03555   77.0    0.08159  -22.09794  0.99955 
   -4.05573  0.00352  1.94047     13.93729  1.92624  0.23971   7.56066  0.26353     0.01002  6454.94006   4038.19901  2.95492         2717.36577     18.90017  0.00441  58334.55634  1.87919  0.02662   899014.67536  46.02398  17.93421  58428.39276    51.50066       44.53747   66.84853  67.87406   81.0    0.07738  -22.07827  0.99949 
   -4.39193  0.01488  1.65322     13.91549  1.42349  0.18883   7.94708  0.25386     0.01016  6217.35852   4149.57044  1.95384         3195.27495     16.15652    1e-05  58334.22014  1.83251  0.11825   533154.15266  46.25868  17.94237     58429.23     51.4995       44.53531   66.22697  67.38945   79.0    0.07827  -22.06776  0.99747 
   -3.60203  0.02139  1.99418     13.83952  1.80687  0.34383   8.50786  0.24613     0.01016  6131.33434   4107.87001  2.62428          3043.9567       18.082  0.00067  58335.01004  1.90791    0.182  1397137.35867    45.781  17.93148  58427.59932    51.52297       44.55074   64.93905  68.67737   80.0    0.07889  -22.08965  0.99608 
   -4.02314  0.02474  2.06364     13.99057  2.03332  0.28581   7.42312  0.32946     0.01004  6355.26765   4375.22596  2.71222         2765.61325     18.29641   0.0011  58334.58893  1.78847  0.18365   839758.95775  46.02363  17.95167  58428.39276    51.50018       44.54353    65.5835  67.24545   76.5    0.07658  -22.05942  0.99648 
   -3.79584  0.02708  1.74556      13.9392  1.60692  0.20763   7.19784  0.30524     0.01042  6407.10971   3942.81616  2.06758         3106.45406     16.26162    1e-05  58334.81623   1.7626   0.1949   601550.06028   46.2117  17.95747  58428.39276    51.50783       44.55128   66.71158   67.1725   77.5    0.07858   -22.0873  0.99613 
   -4.22642  0.01592  1.63618     14.08301  1.39691  0.12776   8.38493  0.24266     0.01069  6385.71895   4162.13584  2.44492         2876.22044     16.52011    2e-05  58334.38565   2.0396  0.13345   236932.82131  46.61173  17.92814  58428.39276    51.51225       44.55081   66.83268  67.88991   78.5     0.0806  -22.06842  0.99714 
   -4.96094   0.0021  1.76221     13.71282  1.66006  0.34445    7.5278  0.28516     0.01028  6396.09277   4073.16911  2.48658         2964.98767     18.91904  0.00461  58333.65113  1.83706  0.01582  1796432.31132  45.74244  17.94507  58427.59932     51.4949       44.53757   64.81795    68.011   79.5    0.07916  -22.09482  0.99969 
   -3.91664  0.00134  1.93838     13.98067  1.82368  0.23531   8.03991  0.28411     0.01024  6450.42222     4318.569  2.23265         3067.88034     18.03002   0.0006  58334.69543  1.99551  0.01077   695523.16565  46.11261  17.93711  58428.39276     51.5076       44.53841   67.47713  68.03291   76.5    0.07914  -22.09779  0.99978 
   -4.70632  0.08935  1.87011     13.80904  1.76402  0.33958   8.06591  0.30248     0.01037  6438.90486   4067.13809  2.12455         2977.19636     16.70433    3e-05  58333.90575  1.99482  0.72066  1380266.90512  45.83165  17.94351  58428.39276    51.50786       44.54088   67.47713  68.03291   77.0    0.07776  -22.09067  0.98598 
    -3.8505  0.00579   1.7396     13.89869   1.6867  0.23792   7.24665  0.33746     0.01001  6496.91528   4240.98886  2.41124          2910.3983     16.67338    3e-05  58334.76157  1.82465  0.04195   755724.04177  46.13662  17.94085  58428.39276    51.50112       44.54498    64.9549  67.03555   78.5    0.07689  -22.09553  0.99923 
   -4.42192  0.01666  1.56945     13.82275  1.39027  0.20777   7.74766  0.25891     0.01018  6298.96348   3977.21931  3.09937         2773.91463     16.26695    1e-05  58334.19015  1.83373  0.12904   719319.13244  46.16353  17.94747  58427.59932    51.49873       44.54308   64.67448  67.31597   79.5    0.07698  -22.07622   0.9974 
   -4.05021  0.00469  1.72608     13.92456  1.65268  0.22625   7.37743   0.3399        0.01   6488.4446   4528.13167  2.89404         2725.18351     18.14336  0.00077  58334.56186  1.85274  0.03462     647160.831   46.2019  17.93245     58426.32    51.51381       44.56207    63.5484  66.67449   78.5    0.07651  -22.07495  0.99936 
   -3.85401    0.102  2.15724     13.96326  2.06175  0.29957   8.15937  0.25891        0.01  6178.15542   4282.50673   2.6297         2917.89911     16.44928    2e-05  58334.75806  1.85781  0.83226  1055204.52921  45.89195  17.95099  58428.39276    51.50322       44.54199   66.84853  67.87406   79.5    0.07458  -22.07894  0.98292 
   -3.84435  0.03796  1.74006      13.7201  1.60663  0.36483   7.64155  0.29474     0.01032  6384.74238   4512.29236  2.29453         2915.69264     18.99152  0.00545  58334.76772  1.85821   0.2901  1639274.08515  45.77898  17.94054  58429.39118    51.51472       44.54912   66.22697  67.38945   78.5    0.07965  -22.08997  0.99434 
    -3.8118  0.00139  2.13477     14.20576  2.04997  0.17854   7.56271  0.29347     0.01034  6318.19121   3996.53773  2.35512         2985.54299      16.1508    1e-05  58334.80027   1.8009  0.01048   336310.02897  46.39515  17.95068     58429.23    51.49348       44.52842   66.22697  67.38945   75.5    0.08051  -22.08046  0.99979 
