 log(Bfield)      Mns    Pspin  cutoff_power  cutoff_wavelength  fnickel    kappa  kappagamma   mejecta  log(nhhost)  temperature  texplosion  thetaPB     vejecta      A_V        MJD_0   log(KE)      M_Ni  Peak_mag     Peak_MJD 
    14.22393  1.43628  3.86078       2.40204         3781.65282  0.01399   0.1421     0.04624   9.17868     16.82061   3116.41689   -22.54334  1.33495  4522.44402    4e-05  57334.78266  51.90235   0.91565  19.59138    57386.748 
    14.60568  1.77003  2.61865       2.80566         4053.34087  0.02089  0.08091      0.3026  17.75783     16.09505    3740.8429   -18.77134   0.8576  4064.10599    1e-05  57338.55466  51.86865   1.56721  19.56476  57381.80624 
    14.27095  1.61968  4.72879       1.85467         3814.16204  0.01566   0.1639     0.04528   7.11562     16.46225   4971.17617    -34.5925  0.92941  4125.75488    2e-05   57322.7335  51.79747    0.9674   19.6207  57387.50711 
    14.24365  1.81313  4.95643       0.39611         4270.12538  0.00176  0.09961     0.48485  10.24944     16.71474   5096.11086   -36.18135  1.30298  4071.10891    3e-05  57321.14465  51.82149    0.1183  19.59338  57384.65668 
    14.26755  1.82982  5.78291       0.74401         4771.78698  0.08546  0.13084     0.01022   6.58324     16.62174   5101.63125   -33.91832  1.09614  3999.25375    2e-05  57323.40768  51.76244   5.18347  19.63571  57384.65668 
    14.21999  1.67391  4.21245        0.8431          4610.5829  0.00874  0.13784     0.20101   7.88374      20.2201   7233.67611   -30.50341  1.36138  4076.73996  0.09222  57326.82259  51.79739   0.55267  19.59049  57384.65668 
    14.48171  1.60767  2.38634       3.99283         3835.53181  0.04944  0.12313     0.03566  13.00112     19.41961   6851.89831   -23.14355  1.04743  4269.98558   0.0146  57334.18245  51.88464   3.48536  19.46877  57384.65668 
    14.54857  2.02317  2.13187       0.09484         5307.63001  0.05181  0.07102     0.06228  19.41423     18.82214   7245.64646   -31.28457  1.44276  4416.31554  0.00369  57326.04143  51.94824   3.95275  19.58696  57384.65668 
    14.43234  2.00378  5.74679       0.76115          5019.7305  0.00305  0.08746     0.26414  10.38914     16.54471   4514.99262   -28.21339  0.85114  4167.93666    2e-05  57329.11261  51.84318   0.20524  19.56079  57381.80624 
    14.48981  1.60169  1.81646       0.44899          4803.7789  0.08714  0.10429     0.02436  13.06578     17.13133   6350.48781   -19.80337  1.26343   4772.5865    8e-05  57337.52263  51.98174   6.14926  19.50468  57381.80624 
    14.56202  2.00099  1.40154       0.11541         5975.95144  0.00119  0.16033     0.09829   8.75387     20.86438   6325.48941    -36.1611  0.70202  3926.43285  0.40654   57321.1649  51.77503   0.07691  19.57512  57381.80624 
    14.47354  1.87196  1.96896        0.5113         5110.09751   0.1046  0.10853     0.44479  10.96652     20.45578   4572.28526   -26.93537  1.56889  4215.10226  0.15868  57330.39063  51.85797   7.11642  19.50321  57384.65668 
    14.56475  2.05379  2.01281       0.78386         4991.89555  0.05491  0.13336     0.11142   8.99993     18.30253   4281.20554   -30.23867  1.35378  3441.57844  0.00111  57327.08733  51.66323   3.57854  19.61451    57386.748 
    14.58373  1.81783  3.17197        0.6103         5013.19733  0.00636  0.04887     0.04889  21.25939     20.48584     5184.369   -25.61986  0.59979  3946.08886  0.17005  57331.70614  51.85786   0.49329   19.5674  57384.65668 
     14.6844  2.07292  1.35814       1.15108         4737.94967  0.07471  0.10933     0.21652  10.11658     16.05483   4301.88152   -25.08242  1.16458  3328.07824    1e-05  57332.24358  51.64523   4.99547  19.54241  57381.80624 
    14.70218  1.97792  1.79697       0.66812         4967.26204  0.05587  0.05429     0.31995  18.20371     18.83622   4409.78151   -19.64204  1.00611  3971.15401  0.00381  57337.68396  51.85062   4.21073   19.6247  57381.80624 
    14.53824  1.92964  1.86885       1.39862         4277.24197  0.00145  0.07031     0.10201   24.7207     17.64676   7424.06734   -24.28488  1.29852  3883.57207  0.00025  57333.04112  51.85603   0.11581  19.61084  57381.80624 
     14.6623   1.5895  0.84816       2.59636         4090.31259  0.02212  0.03478     0.39664  40.44713     17.65738   5014.70165   -11.79718   1.0008  4501.46188  0.00025  57345.52882   52.0214   1.92283  19.57807  57381.80624 
     14.5896  1.75534  1.47213       0.44768         4814.52494  0.10327   0.1461      0.0301   9.59758     16.18277   5960.66839   -22.67252  1.10057  4545.03957    1e-05  57334.65348  51.91094   6.82675  19.56187  57381.80624 
    14.40424  1.84386  3.53303       0.27971          5166.8281  0.01483  0.07746     0.49569  16.47435     17.36148   4651.02847   -41.68413  0.95037  3753.01271  0.00013  57315.64187  51.79315   1.09655   19.4601  57381.80624 
    14.65775  1.64363  1.34695       2.40601         3865.66899  0.03497  0.05858       0.341  28.62236     17.11209   5645.93996   -11.56656   0.9699  5400.94983    7e-05  57345.75944   52.1539   2.86447  19.53975  57384.65668 
    14.63141  1.72293  1.55162       2.90016         4070.55619  0.12767  0.15156     0.05316   8.77245     16.37022   5479.29418   -10.08307  1.52559  4776.89207    1e-05  57347.24293  51.94553   8.27357  19.55647  57384.65668 
    14.44872  1.31158  2.55506       4.37751          3890.5538  0.22657  0.29903      0.0319    4.8501     17.46074   4061.34756   -12.64621  0.92767  4874.85599  0.00016  57344.67979  51.90156  12.74146  19.51561   57378.9558 
    14.22694  1.68551  3.21206       0.13842         4478.93291  0.00113  0.13201     0.05397    8.6858     19.90801   3076.02078   -42.09438  1.49467     3451.35  0.04495  57315.23162  51.66226    0.0728  19.56932  57381.80624 
    14.18844  1.57687  3.50883       0.43152         4972.02047  0.00172  0.08263     0.05623  13.95489      16.2051    5580.2472   -38.31616  1.46357  3674.67273    1e-05  57319.00984  51.76049    0.1231  19.53984    57386.748 
    14.23318  1.69912  4.78459       0.78595         4856.02775  0.00126  0.07274     0.09038  11.33596     16.95085    5195.8322   -34.61556  1.14823  3502.46547    5e-05  57322.71044  51.70015   0.08653  19.55627    57386.748 
    14.13799  1.66302  4.96737        0.1766          4613.9014  0.01515  0.20471     0.42165    4.6824     16.57388   5477.83002   -34.77512  1.47104  4697.36652    2e-05  57322.55088   51.8654   0.84423  19.55404  57384.65668 
     14.7056  1.92058  1.79097         0.766         4631.94391  0.16409  0.21964     0.02677   5.97931     18.37035    4549.3849    -21.8902  0.88766  4356.37003   0.0013   57335.4358  51.82666   9.72464  19.50852  57381.80624 
    14.28276   1.8964  6.28854       2.06996         3842.41425   0.0453  0.10557     0.19987   9.20133     17.24366   4971.38366   -29.36508  1.52097  4742.69195   0.0001  57327.96092  51.94389   2.96725  19.56422  57384.65668 
    14.41847  1.98266  4.29466       0.23007         4074.02908  0.06909  0.11024     0.14002   11.5515      18.0477   6636.62825   -34.13005  1.27742  4644.28841  0.00062  57323.19595  51.94696   4.75207  19.56465  57384.65668 
    14.38395  1.85097  4.18854       0.32443         5052.27949  0.00406  0.18343     0.04666   6.96346     17.49346   5533.00363   -40.06061  0.88224  4174.64042  0.00017  57317.26539   51.8055   0.24985  19.55494  57384.65668 
    14.29812  1.55429  2.80928       1.38141          2649.8215  0.04492   0.2838     0.14658   6.37147     16.56041   4349.05007   -29.41191  1.17398  5063.45144    2e-05  57327.91409  51.96398   2.70325  19.52433  57381.80624 
    14.44901  1.93833  2.14417       0.18556          4719.6291  0.04499  0.19346     0.04195   7.98011     17.77835   7043.91292   -38.07622  1.42869  3755.86004  0.00033  57319.24978  51.72739   2.85407  19.49456  57381.80624 
    14.32829  1.73012  4.25105       1.02877         4695.57284  0.00997  0.08561      0.0275  10.03731     17.06268   3154.39921   -22.06942  1.40746  3687.93625    6e-05  57335.25658  51.73367   0.66552  19.59143  57381.80624 
    14.57796  1.76349  2.90791       1.34551         4681.35931  0.01821  0.08601     0.09878  12.60904     16.16905   5454.81807   -23.34426  0.77513  3449.00017    1e-05  57333.98174  51.69644   1.27546  19.60384  57384.65668 
    14.55191  1.83543  3.59692       1.52999         4355.64316   0.0099  0.18018     0.21573    7.5436     16.64196   4918.71936   -28.50097  0.73688  3842.72752    2e-05  57328.82503  51.74164   0.61985  19.60288  57390.35755 
    14.27717  1.34507  2.05261       0.32401         4865.47755  0.22805  0.28965     0.08022   5.09646     17.15064   3605.19399   -28.91893  1.38443  4752.62682    8e-05  57328.40707    51.885  12.98782  19.57659  57384.65668 
    14.36805  2.06935  4.58016       0.02244         5949.74088  0.01001  0.13803     0.04289  10.65645     17.12734   7647.06194   -37.32795  1.24913  4700.18329    7e-05  57319.99805  51.94993    0.6772  19.58351  57381.80624 
    14.49367  1.68117  3.56361       0.35239         4507.07725  0.03999  0.15488     0.04726  10.96971     16.54978   5383.32397   -34.14854  0.64649  4892.89659    2e-05  57323.17746  51.98751   2.72093  19.53254  57384.65668 
    14.23601  1.74119   5.0968       3.78166         3561.92197  0.00952  0.22299     0.07465   6.31641     17.61942   4614.02872   -30.56663  1.43708  4897.76052  0.00023  57326.75937  51.93418   0.57162  19.56786  57384.65668 
    14.42833  2.08548  5.29983       2.40474         3700.34041  0.01634  0.21994      0.0541   5.84512     16.16102   4890.23537   -30.28692  1.15142  4283.77265    1e-05  57327.03908  51.80965   0.96307  19.56755    57387.335 
    14.67207  1.97186  1.77218       0.70532         5199.99765  0.01949  0.02575     0.05517  45.53413     18.14977   5430.78297   -26.75292  0.92502  3800.15124  0.00078  57330.57308  51.88277   1.72682  19.57075  57384.65668 
    14.45165  1.69922  3.02674       0.86131         4462.79997  0.01929  0.05813       0.029  20.95524     16.84375   6331.70652   -29.19985  0.95838  3802.90504    4e-05  57328.12615  51.82459   1.49331   19.5798    57386.748 
    14.21611  1.51071  3.97807       1.20825         4170.54696   0.0383  0.13113     0.28905   8.74969     17.08824   3726.58786   -31.23685  1.26528  4141.50357    7e-05  57326.08915  51.82131   2.48038   19.5367  57381.80624 
    14.44761  1.45898  2.29047       0.76576         4408.60631  0.05062  0.13835     0.38751   9.20639     18.53961   4031.60226   -21.59466  0.85183  4153.51575  0.00192  57335.73134  51.82873   3.31601  19.57966   57378.9558 
    14.43102  1.69781  3.70209       0.59627         4721.67756  0.04253  0.11443     0.01702  10.24644     16.51877   5059.53116   -27.17178    0.916  4222.25243    2e-05  57330.15422  51.85313   2.85144  19.50662  57381.80624 
    14.45983  1.99317  4.11812       3.78979         4014.85173  0.00744  0.17876     0.12965   7.56078     19.73457     7767.513   -23.71589  1.36857  3876.77602  0.03015  57333.61011  51.74953   0.46644  19.54176  57381.80624 
    14.25013  1.68133  4.88286       2.54734          3510.2789  0.00162  0.18873     0.03571   7.61714     18.37452   3736.30298   -32.99654  1.06504  4756.20347  0.00132  57324.32946  51.92786   0.10164  19.52207  57384.65668 
     14.5665   1.6215  1.49628        1.9083         4312.22708  0.09189  0.13334     0.33594   9.21841      19.5397   4655.54384   -17.37093  1.13832  3952.22646  0.01925  57339.95507   51.7857   6.02074  19.60504  57384.65668 
    14.53467  1.75137  1.29058       0.27003         5371.66999  0.05423  0.09004     0.02635  15.90044     17.40565   4416.37248   -22.11112  1.43502  4572.78204  0.00014  57335.21488  51.96173   3.98055  19.57081  57384.65668 
     14.5887  1.61784    1.953       1.35406         3841.83684  0.11724    0.216     0.04212   7.33891     20.36791   5326.63306   -21.77945   0.7088   4799.9225  0.12961  57335.54655  51.93206   7.29502  19.51803  57381.80624 
     14.5024  1.52505  1.22272       1.66213         4195.50123   0.1378  0.19997     0.04139   7.01586     19.36728    4706.7523   -21.41534  1.17934  4057.10886  0.01294  57335.91066  51.78146   8.48506  19.58756  57384.65668 
    14.39929  1.57185  3.23924       0.88367         4673.37717  0.09556  0.12829     0.08133   7.76603     17.89031   7052.85454    -18.3527  1.21645  4232.79443  0.00043   57338.9733  51.82852   6.02454  19.50952     57386.75 
    14.22632  1.45307  3.51957       0.38551         5293.91808  0.00988   0.1587     0.06154    8.7162     18.58909   6663.46965   -41.25997  0.88548  4144.84886  0.00216  57316.06603  51.82164   0.63935  19.51934    57386.748 
    14.58314  1.68316  2.57683       4.25451         3640.09742  0.00331  0.13046     0.03705  14.41793     16.68001   4855.03188   -20.75191  0.73522  4406.26483    3e-05  57336.57409  51.92105   0.23856  19.60707  57384.65668 
    14.38195  1.96066  4.87983       0.57205         4655.43815  0.00835  0.09658     0.02591   12.3755     17.28563   6025.06011   -32.12257  1.10585  4165.34024  0.00011  57325.20343  51.85867   0.58281  19.55616  57381.80624 
    14.40646  1.85307  4.93934       0.70251          4663.6048  0.00154  0.04725     0.28256  19.36447     19.05342   5197.23603   -28.81128  0.87274  3946.84134  0.00628  57328.51472  51.85041   0.11769  19.60512  57381.80624 
    14.20067   1.4121  3.39761       1.11781         5021.98836  0.00398  0.07732     0.01885  12.08173     19.97693   3591.91542   -27.35924  1.14301  3449.83704  0.05268  57329.96676   51.6928   0.27669  19.53051  57384.65668 
    14.37145  1.40207  1.63756       0.83157         5080.75819  0.03712  0.05087     0.02813  20.36404     17.05203   6408.64493   -27.97388  1.12096  3304.27516    6e-05  57329.35212  51.70019   2.85779  19.58261  57381.80624 
    14.29212  1.85765  5.54263       2.76037         4012.33669   0.0018  0.18284     0.12823   5.36784     16.97886   6609.18598   -28.05228  1.53533  3845.86686    5e-05  57329.27372  51.70681   0.10368  19.56102  57384.65668 
    14.34336  1.53428  2.88488       0.27121         4980.09245  0.06975  0.11401     0.21158  11.66535     18.60702   4961.92403   -35.15976  1.02003  4247.38849  0.00225  57322.16624  51.87026   4.80786   19.5208   57378.9558 
    14.48206  1.68834  2.64344       3.79678         4001.80733  0.00374  0.16888     0.02935   8.15089     16.62584    3829.0705   -14.74689  1.16925  3744.01985    2e-05  57342.57911  51.72674   0.23847  19.51873  57381.80624 
      14.337   1.8086  4.38454       0.48607          4824.5809  0.00473  0.15502     0.05133   7.39378     16.24579   7407.37473   -37.16433  0.98362  3888.31396    1e-05  57320.16167  51.74987   0.29455  19.50671     57386.75 
    14.54121  1.72327  1.32657       1.01347         4319.25197   0.1368   0.2117     0.08606   6.62446     20.14275   4788.19907   -15.60324  1.54757  4763.84191  0.07718  57341.72276  51.91505   8.30983  19.54643  57384.65668 
    14.48728  1.64281  2.41539       0.34725          5281.9068  0.00886  0.10846     0.11606  13.02817     18.53803   3915.25461   -41.32074  0.66991  3598.39796  0.00192  57316.00526  51.73619   0.62517  19.58083  57381.80624 
    14.55505  1.64881  1.00557       0.86015         4487.07571  0.04736   0.1064      0.1001  13.13897     17.50691   4034.85009    -18.6811  1.23843  4208.85011  0.00018   57338.6449  51.87305   3.34618  19.60499  57381.80624 
    14.68982  1.81794  1.80724       4.02625          2697.1499  0.17729  0.27332     0.11797   6.88695     17.62732   4585.21102   -13.80557  0.94892  6106.09488  0.00024  57343.52043  52.13466  10.86897  19.55639    57386.748 
    14.26398  1.57056  4.07716       0.66463         5377.27303  0.00965  0.05462     0.06795  14.60488     16.64821   6285.22968    -33.4462  0.97222  3330.34851    2e-05   57323.8798  51.67901   0.69621  19.57652  57384.65668 
    14.40396  1.75884  4.19301       0.47421         5350.44867  0.00657  0.16962     0.21236   6.66013     20.06735   5537.76389   -36.20105  0.72262  4017.58915  0.06488  57321.12495  51.76762   0.39931  19.57538  57381.80624 
    14.28081  1.56229  4.46089       1.64534         4135.83956  0.10681  0.18185     0.23326   5.83717     19.06007    4351.7885   -26.05547  1.27757  4314.81653  0.00638  57331.27053  51.81577   6.29295  19.53414  57384.65668 
    14.32175  1.77587   5.6654       3.34821          3630.6496  0.06287  0.16664     0.01903   6.63236     17.07696   6757.84555   -29.45128   1.0542  4360.81563    7e-05  57327.87472  51.83839   3.82019   19.5307  57381.80624 
     14.1688  1.32504  3.28547       0.81921         4383.40577  0.00716  0.09442     0.22077  11.41653     19.51565   5360.26433    -37.7973  0.95583  3536.36304  0.01821   57319.5287  51.70917   0.49121  19.62602  57387.50711 
    14.36221  1.66145  3.15548       1.27838         4307.74123  0.04904  0.09761      0.1182  12.78157     16.72107   7668.51894   -33.63324  1.22556  3716.08882    3e-05  57323.69276  51.76244    3.4452  19.58726  57381.80624 
    14.70655  2.03952  2.23824       0.09854         5636.57681  0.09471  0.11179       0.055    12.397     18.47604   5832.75464   -28.83557  0.83491  4676.60103  0.00166  57328.49043  51.95939   6.61154  19.56668  57381.80624 
    14.37231   1.7313  2.51608       0.81857         4530.74467  0.01227  0.09702     0.28832  14.91204     16.94208   5613.47569   -40.70731   1.1653  3482.49511    5e-05  57316.61869  51.71962   0.88957  19.53604    57377.654 
    14.41501  1.58546  2.25962       0.49571         5151.80812  0.01493  0.03665     0.16353   31.3045     16.51136   6037.33054   -32.59907  0.96394  3557.08986    2e-05  57324.72693  51.79796   1.24243  19.61172  57384.65668 
    14.27546   1.6485  3.47821       0.72011         4311.36992  0.01817  0.10748     0.17437   11.2608     19.90305   5008.06233    -33.1045  1.30525  3808.24145  0.04444   57324.2215  51.77224   1.24347   19.5665  57384.65668 
    14.09448  1.26388  3.48574       1.83928         4434.85814  0.00152   0.0635      0.1575   14.0937     17.25554   9529.84849   -28.93048  1.35332  3307.25033   0.0001  57328.39552  51.66985   0.10868   19.5219  57384.65668 
    14.48078  1.62133  2.31252       1.09071         4413.13315  0.10446  0.13518     0.32492   9.70738     18.01741   4429.16739   -18.78854  1.34985   4804.0335  0.00058  57338.53746  51.96016   6.92233  19.56689    57386.748 
     14.4154   1.7822  3.75855       0.42046         4613.15084   0.0021   0.1686     0.23161   8.03197     17.84144   5644.18579   -37.41262  0.80105   4050.5873  0.00039  57319.91338  51.79365   0.13314  19.66577  57384.65668 
    14.40365  1.73481  2.90972       2.71034         4070.43049  0.00158  0.13513     0.03388    11.995      19.1702   6286.35059   -24.92935  1.31699  4075.37639  0.00822  57332.39665  51.83689   0.10926  19.56314  57381.80624 
    14.19465  1.48831  2.84112       0.58709         4755.75356  0.05171  0.11997     0.06332  10.33947     20.13251   4271.70456   -39.02843  1.53416   3669.9032  0.07538  57318.29757  51.73219   3.47374  19.54256  57384.65668 
    14.47443  1.42093  1.30802       1.24969         4522.38438   0.0853  0.10136     0.20804  11.10617     16.49681   3819.29401   -15.30883   1.2469  4115.17687    2e-05  57342.01717   51.8383   5.81925  19.56279  57384.65668 
    14.32447  1.38025  2.91127       0.47617         4552.24093  0.06153  0.09573     0.02418  12.00266     20.06859   4342.34924   -27.43394  0.85115  4499.61184  0.06506  57329.89206  51.92296   4.26626  19.56288  57384.65668 
    14.58589  1.94105  2.88854       0.58759         4976.51349  0.00582  0.03443     0.19477  37.51098     16.22252   5535.43536   -30.46938  0.80871  3824.67336    1e-05  57326.85662   51.8744   0.49921  19.53495  57384.65668 
     14.6291  1.39914   1.3391       3.31001          4120.3165  0.01593  0.03616     0.26163  42.25241     20.23116     4784.375   -12.29868  0.65192  4488.14807   0.0946  57345.02732  52.02197   1.39496  19.57802  57384.65668 
