 texplosion  fnickel    Pspin  log(Bfield)      Mns  thetaPB   mejecta    kappa  kappagamma     vejecta  temperature    alpha  cutoff_wavelength  log(nhhost)      A_V         MJD0   kenergy  mnickel           TSD   log(L0)  Peak_mag     Peak_MJD  log(E_rad)  log(Peak_lum)  Rise_Time    E_fold  tau_1  delta_m15     r_peak     frac 
  -14.03484  0.00182  0.83179     14.48412  1.49618  1.55826  13.21228  0.12578     0.13223  4151.65963   5662.61812  3.42388         4284.71766     18.43437  0.00151  57343.29116   1.35846  0.02409   10341.32936  48.58923  19.47862  57382.82509    50.56655       43.71761   22.79129  65.42707   56.0     0.1089  -20.51757  0.99997 
  -25.10708  0.00473  1.29897     14.49482  1.71258   1.1933  14.24989  0.20327     0.01224  6197.66397    5517.1558  1.15374         4223.21691     17.70314  0.00028  57332.21892   3.26509  0.06747   27479.95627  47.83628    19.547  57387.62417    50.61923       43.75889   29.76238   64.3372   54.5    0.10301   -20.4014  0.99963 
  -35.09205  0.00168  3.06189     14.30545  1.53385  0.88336   9.54516  0.22621     0.01192  5353.38859   5297.62365  0.88895         4253.75013     18.77428   0.0033  57322.23395    1.6318  0.01606  327097.26519  45.96797  19.56176    57387.335    50.68968       43.84031   27.73875   60.4796   54.0     0.1037   -20.1769  0.99905 
  -20.82787  0.00134  2.50346     14.80274  2.19642  0.67617   22.1902  0.12397     0.01387  6390.87463   5016.07072  1.97222         4025.74132     16.42019    1e-05  57336.49813   5.40641  0.02966   31705.14164  47.31235  19.50707  57385.22463    50.57774       43.70422   27.44571  62.73305   55.5    0.11892  -20.39983  0.99938 
  -26.67678   0.0101  1.90936     14.25616  1.34561  1.35542   12.8184  0.12884     0.29335   4537.2247   5633.83025  1.72578         4438.47899     19.95889  0.05054  57330.64922   1.57413  0.12953  140022.53051  46.68979  19.59605  57385.22463    50.80451       43.93254   31.36653  64.69346   57.0    0.10428  -20.33194  0.99657 
  -29.31905  0.00185   1.7096     14.53947  1.84817  1.02592  36.28111  0.04217     0.01122  4168.74713   6426.06567  0.98473         5236.34226     19.21096  0.00903  57328.00695   3.76113  0.06705   41822.99156  47.44838  19.61152  57387.62417    50.71707       43.83926   24.78985  68.89542   56.5    0.10578  -20.05694  0.99924 
  -19.81762  0.00895  0.95825     14.69074  1.91617  0.97563  48.03155  0.05469      0.0613  6281.88455   4685.89033  1.64301         4198.60096     19.56034  0.02019  57337.50838  11.30664  0.43003    6787.84525  48.75659  19.50033  57380.42555    50.67612       43.79282   31.65957  63.98611   56.0    0.08277  -20.35184  0.99954 
  -30.88996  0.01632  0.87162     14.60554  2.05249  1.24225  10.93431   0.1368     0.15877  3931.88174   6306.92321  0.89387         5300.16653     20.20602  0.08928  57326.43604   1.00837  0.17842    8905.79711   48.7508  19.55981  57385.22463    50.66233       43.76193   32.56392  63.49607   60.0    0.10124  -19.80296  0.99985 
  -19.48088  0.02907  1.84975     14.62428  2.04303  1.49581   8.00292  0.19703     0.07187  4480.85072    5357.6975  2.32989         4359.37688     18.81606  0.00364  57337.84512   0.95851  0.23261   36622.69243  47.48114  19.52307  57385.22463    50.66605       43.81425    25.4853  62.73305   55.0    0.10092   -20.4594  0.99774 
  -24.58889  0.02095  1.25984     14.46374  1.60312  1.43374  20.45352  0.07828     0.19534  4587.23201   5458.55677   1.4864         4701.64018     17.43996  0.00015  57332.73711   2.56742  0.42843   27921.84376  47.82724  19.61685  57385.22463    50.75178       43.85206   34.55839  68.92892   58.0    0.09235  -20.46474  0.99777 
  -33.48707  0.00194  2.09412     14.36934  1.61226  1.17805  24.51197   0.0809     0.01616  4810.12142   5311.24269  1.05755         4762.16292     19.52114  0.01844  57323.83893   3.38312  0.04745  119831.97763   46.7557  19.54059  57385.22463    50.58663       43.69689   41.16857  62.73305   58.5    0.10671  -19.97542  0.99884 
  -27.41722   0.0088  2.74955     14.42464  1.78942  1.52819  32.37702  0.04951       0.439   4851.5023   5147.05673  1.08444         4658.07438     18.73838  0.00304  57329.90878   4.54586  0.28501  177733.91819  46.39326  19.54978    57386.748    50.67023       43.79188   31.36653  60.77264   54.5      0.111  -20.26734  0.98961 
  -22.92348  0.00681  1.13683     14.53459  1.73512   1.3427   28.4944  0.06492      0.0288  4676.10116   5651.87047  1.83796         4389.96582     19.65622  0.02517  57334.40252   3.71667  0.19405   17756.52403  48.14743  19.48508  57382.82509    50.64788       43.79394   27.44571  62.31874   57.5    0.08466  -20.58262  0.99944 
  -23.27042  0.01975   3.3934     14.37401   1.6654  1.38824  12.06355  0.10565     0.10069  4503.45361   5797.06815   1.6805         4603.10466     16.52605    2e-05  57334.05558   1.45947  0.23822  318110.64628  45.92652   19.5933    57386.748    50.71875       43.82739   35.28734  60.85714   54.5    0.11965   -20.4209  0.98501 
  -27.51568  0.00716  1.03406     14.43701  1.58958  1.49822  17.36014  0.11445     0.08628  4688.29661   5386.32234  1.38894         4526.97105     16.10443    1e-05  57329.81032    2.2762  0.12432    21094.3641  48.11687  19.56755  57385.22463    50.71082       43.84136   31.36653  64.69346   57.5    0.09994  -19.96725  0.99964 
  -17.87213  0.00113  1.32257     14.65986  1.84774  0.93756  40.59771  0.05668     0.20118  5651.14603   5047.52141  2.06077         4253.11094     17.98957  0.00054  57339.45387   7.73396  0.04592   14373.59607  48.13509  19.63134  57387.62417    50.80934       43.94174   24.28212  65.89665   55.5    0.08744  -20.64716  0.99981 
  -24.83374  0.00929   1.7575     14.44663  1.70053  1.39614  13.48347  0.12254     0.04361   4682.3151    5484.2001  1.18832         4738.13613     16.07152    1e-05  57332.49226    1.7634  0.12526   62363.69631  47.21471  19.52626  57385.22463    50.72479       43.86318   27.44571  60.77264   54.0     0.1048  -20.40029  0.99827 
  -19.03843  0.00978  1.19986     14.55166  1.63009   1.1611  50.11732  0.02956     0.21095  4445.96968   5672.39824  1.99797         4515.09554     17.78852  0.00034  57338.28757   5.90946  0.49005   17178.04364  48.08782  19.51569    57386.748    50.64638       43.79873    28.1864  60.03195   58.0    0.11378  -20.48065  0.99821 
  -36.62185  0.00483  2.98027     14.49206  2.10032  1.05907    13.191  0.19762     0.01022  5820.97688   5480.39875  0.40284           4746.402     19.32763  0.01181  57320.70415   2.66622  0.06372    179679.986  46.38812   19.5246  57382.82509    50.60203       43.72233   27.80361  66.29597   54.0    0.10871  -20.05102   0.9978 
  -21.66704   0.0042  1.03254     14.70816  1.74804  0.72877   31.2509  0.05984     0.22122    4615.461   5155.24915  1.83488         4644.43061     17.01492    6e-05  57335.65896   3.97118  0.13119    6635.37204  48.66172  19.54529     57386.75    50.54728        43.6852   31.36653  63.94889   57.0    0.09079  -20.43083  0.99974 
  -16.13436  0.04051  1.49878     14.50684  1.56421  1.28225   14.5574  0.10874     0.17041   5032.4176   5253.63168  2.09581         4377.88215     16.81334    4e-05  57341.19164    2.1992  0.58971    31616.2242  47.61176  19.53488  57380.42555    50.54697       43.66561    23.5531  70.54648   57.0    0.11049  -20.41727  0.99498 
  -13.05108  0.04022  1.07081     14.54669  1.52583  1.20634  15.09555  0.12605     0.06268  5647.01228   5326.43533  2.71971         4202.68835     17.52782  0.00019  57344.27492   2.87153  0.60707     13103.055  48.27556  19.55821  57382.82509     50.7093       43.82939   27.20978   66.8898   55.5    0.11239  -20.49017  0.99852 
  -23.57938  0.08654  1.41436     14.51065  1.72549  1.46461   7.44626  0.32631     0.14916  6332.86763   4708.85348  1.48869         3989.79711      18.3351   0.0012  57333.74662   1.78142  0.64441   30516.93935  47.72009  19.48842  57385.22463    50.61585       43.77267   27.44571  60.77264   55.0    0.09328  -20.45538  0.99593 
  -32.23741  0.00242  1.25954     14.43635  1.69152  1.51483  12.10726  0.16623     0.16067  4682.16867   5665.24714   1.0255          4752.8872     16.69635    3e-05  57325.08859   1.58331  0.02927   33405.96461  47.77288  19.65504     57386.75    50.81461       43.91665    25.4853  70.57468   59.0    0.10195  -19.76339  0.99984 
  -39.00524  0.00176  2.94324     14.25421  1.51049  1.06505   8.08294  0.19767     0.01644   4351.4259   5491.54195   0.9589         4980.16291     17.75948  0.00032  57318.32076   0.91298   0.0142   376852.1306  45.93414  19.52798  57382.82509    50.66188       43.77802   39.20816  62.73305   58.5    0.10468  -20.07222   0.9992 
  -33.21213   0.0016  2.30892     14.48739  1.70211  0.84755  10.39566  0.13513     0.23041  3987.06097   5878.03422   1.0867         5033.73482     19.31668  0.01152  57324.11387   0.98579   0.0166   89296.70895  46.82218  19.58004  57387.62417    50.70119       43.81603   29.69916  65.58088   57.5    0.10409  -20.02554  0.99954 
  -29.55574  0.00738  2.17638     14.43809  1.78193  1.44573  19.93729  0.08353     0.02255  4448.36689   5594.60649  1.21826         4777.93059     18.13334  0.00076  57327.77026   2.35339  0.14712  104231.45748  46.82627  19.44432  57382.82509    50.67688       43.81066   36.02803  56.11114   57.0    0.10584  -20.08919  0.99675 
   -23.3778  0.06202  1.23762     14.53794  1.60662  0.99451   9.99153  0.19916     0.01312  5493.84994   5713.97599  0.99549         4630.33412     17.89067  0.00043   57333.9482   1.79892   0.6197   19187.79768  48.00656  19.51726  57385.22463    50.59105       43.70498   27.14178  64.99739   51.0    0.10099  -20.55888  0.99698 
  -26.10887  0.07976  2.82849     14.51604  1.92448  1.45513  13.55793   0.1509     0.01024  5914.18974   4939.90783  1.31501         4397.25476     17.36397  0.00013  57331.21713   2.82886  1.08137  132790.05433  46.52688  19.54754  57385.22463    50.72354        43.8364   24.75635  68.92892   54.0    0.10484  -20.40466  0.96416 
   -30.2327  0.00418  3.15181     14.37244  1.68037  1.07036   10.1974  0.19499     0.03301   5391.3568   5174.17298  1.75023         4186.84082     19.67578  0.02633   57327.0933   1.76812  0.04259  278908.35798  46.05167  19.54854  57385.22463    50.72827       43.88465   21.56449  62.73305   56.0    0.11051  -20.28925  0.99768 
  -32.19244  0.00213  0.94607     14.38155  1.42467  1.10405  54.27086  0.03084     0.02131  4226.36948   5591.68982  1.02126         4830.39316     19.71242  0.02865  57325.13356   5.78268  0.11562   20430.44284  48.16044  19.51255  57385.22463    50.67473       43.80376   29.40612   62.3212   59.0    0.10516   -19.7579  0.99964 
  -19.99137  0.11424  1.47874     14.58021  1.75255  1.16173   9.43912  0.25117     0.01868  6947.96077   5240.01218  0.93048         3777.82053      16.1446    1e-05  57337.33463   2.71815  1.07836   24594.80363  47.78189  19.57271    57386.748    50.68601       43.81662   23.28896   66.8898   51.5    0.12799  -20.45804  0.99295 
  -29.82473  0.07157   2.5109     14.54692  1.90604  0.92543   8.51151  0.19278     0.02318  5177.13957   5174.30679  0.66976         5072.51304     20.11345  0.07214  57327.50127   1.36086  0.60913   89899.64579  46.79556  19.56952  57385.22463    50.59059       43.70161   34.98178  66.95943   55.5    0.11301   -20.2659  0.98348 
  -20.01867  0.00145   1.5142     14.66374  1.66619  0.67292   7.43896  0.28915     0.47838  5536.09494   5482.27834  1.68332         4308.81879     18.36555  0.00129  57337.30733   1.36002  0.01075   16688.86716  47.90778  19.53605  57385.22463    50.69368       43.81953   27.73875  62.44001   54.0    0.11686  -20.46487   0.9999 
  -34.41278  0.01033  2.29745      14.5364  1.83463  0.88806  18.95924  0.11692     0.05054  5204.91777   5025.45868  1.05905         4407.36705     16.92434    5e-05  57322.91322   3.06391  0.19589   76041.11563  46.92885  19.50045  57385.22463     50.5765       43.70978   31.36653  61.09885   60.0    0.10214  -19.91862  0.99529 
  -10.36841  0.00115  0.96416     14.65739  1.61041  0.88165  21.65365  0.09449     0.44829    5222.239   5444.16281  3.26435         4215.30266     16.00153    1e-05  57346.95759   3.52267  0.02497    6733.88752  48.67922  19.55841    57386.748    50.69814       43.85634   23.52489  62.81755   54.0    0.10744  -20.23454  0.99996 
  -14.88874  0.00955  1.80834      14.6166  1.67691  0.81364  15.94959  0.15672      0.1338  6541.28605   5034.67781   2.8623         3916.12775     17.38283  0.00013  57342.43726   4.07102  0.15224   29763.15122  47.50511  19.55128  57387.62417    50.66421       43.80458    25.4853  63.91352   55.0    0.11074  -20.48414  0.99782 
  -12.26544  0.00291  1.42942     14.64749  1.86853  1.09866  13.94873  0.18412     0.10373  5999.06361   5177.58745  4.13159         3970.96979     16.69333    3e-05  57345.06056   2.99453  0.04055   17974.47716  47.97537  19.56328    57386.748    50.62555       43.74263   31.36653  65.05479   60.0    0.09212   -20.3577   0.9998 
  -30.83506  0.11411  0.86534     14.42539  1.28201  0.86329   6.64346  0.32392     0.02118  5142.68148    5133.4581  1.21677         4356.84932     17.34947  0.00012  57326.49094    1.0481  0.75808   12569.03185  48.40306  19.49763  57382.82509    50.57795       43.71642   23.52489  65.04826   60.0    0.09716  -19.82071  0.99802 
  -14.00302   0.0073  1.62799     14.56042  1.70532  1.05552   7.58547  0.26895     0.01305  5133.88489    6117.5745  3.53094         4140.78717     19.69018  0.02722  57343.32298   1.19262  0.05534   31775.68062  47.57525   19.5306  57385.22463    50.53451        43.6707   29.40612  63.94889   56.0    0.08222   -20.5075  0.99944 
  -21.29737  0.01509  2.68251     14.51157  1.79904  1.12313  10.87004  0.16729     0.02047  5067.97666   5401.59725  3.28516         4116.75605     18.67619  0.00264  57336.02863   1.66543  0.16398  113971.40337  46.61001  19.52431  57385.22463    50.65782       43.84244   21.56449  60.18358   55.5    0.10246  -20.48081  0.99442 
   -22.1073  0.00654   2.0535     14.61338   1.8829  0.97602  45.59602  0.03259     0.29993  4481.23218    5493.1758  1.52362         4682.06983     17.20449    9e-05   57335.2187   5.46197  0.29821   43738.90178  47.27781   19.5982  57385.22463    50.73026       43.83206   31.36653  66.73837   56.5    0.09528  -20.41653  0.99512 
  -27.99798  0.00165  1.54471     14.69515  1.73627  0.59972  48.59049  0.03863      0.0129  4918.96906   5647.74696  1.20299         4863.95893      17.3316  0.00012  57329.32802   7.01337  0.08027   15661.21738  47.93594  19.59771  57385.22463    50.64797       43.74378   41.16857  66.65387   56.5    0.10684  -20.15966  0.99924 
  -26.71757  0.02529  1.48303     14.42329  1.56313  1.34265  16.35109   0.0861     0.03734   4250.6714   5555.13957  1.18981           4947.984     16.65535    3e-05  57330.60843   1.76234   0.4135   45450.46276  47.46301  19.55917  57382.82509    50.82657       43.93005   31.36653  68.03604   56.5    0.11222  -20.18935  0.99592 
  -21.58902  0.00324   3.7645     14.58353  2.10498  1.04704   9.81488  0.23449     0.06233  6263.21031   5374.80726  2.84057         3760.07754     18.40045   0.0014  57335.73698   2.29671   0.0318  188542.94341  46.16527  19.57749    57386.748    50.63074       43.74084   33.04959  63.37173   54.0    0.10628  -20.40227  0.99825 
  -24.91038  0.00386  2.04517     14.63375  1.90633  0.82819  16.02771  0.08391     0.06187  4175.90923   6310.21161  1.08814         5097.33292      17.0592    6e-05  57332.41562   1.66725  0.06181   39992.21287  47.32561   19.5217    57386.748    50.61989       43.76037   35.28734  59.80435   54.0    0.11231  -20.43497  0.99897 
  -38.82298  0.00291  3.82996     14.35547  1.93597  1.45818   6.97858  0.26939     0.02579  4770.41356   5139.95646   1.4512         4448.59239     18.20657  0.00089  57318.50302   0.94734  0.02034  513065.48544  45.67918  19.57192  57387.62417    50.65967       43.81157   27.73875  64.40042   59.0    0.10169  -20.08942  0.99867 
  -31.41152  0.00282  1.50612     14.28603  1.35896    1.319   10.9249  0.15945     0.02418  4495.67693   5886.46083  1.37813         4531.09638     17.63108  0.00024  57325.91448   1.31715  0.03085   76678.53257  47.16166   19.5449  57382.82509    50.65396       43.77072   30.15378  61.98539   58.5    0.10488  -19.92696  0.99955 
   -11.0537  0.03946  1.19205     14.75027  1.79362  0.90751  17.37079  0.07844     0.10803  4608.21325   5636.58135  2.87449         4348.07327     19.50422  0.01774   57346.2723   2.20045  0.68545     7474.7669  48.49639  19.60011    57386.748    50.70353       43.82036    25.4853  68.61428   56.0    0.13447   -20.4986  0.99856 
  -25.69753  0.02556  1.17826     14.50658  1.72814  1.54414   18.2875  0.10276     0.03278  5321.67646   5251.05937  0.94389         4963.09536     18.63971  0.00242  57331.62847   3.08943  0.46737   21613.13021  48.02922  19.64305  57390.02371    50.65796       43.78173   32.10558  66.27614   54.0    0.11414  -20.29022  0.99839 
  -13.41636  0.00802  2.38395     14.66863  1.83284  0.83206  14.57821   0.0968     0.12014  4580.53999   5685.08673  2.56908          4360.1306     17.79096  0.00034  57343.90964   1.82459  0.11685    44491.4576   47.1291  19.53083  57385.22463    50.70298       43.84648    25.4853  64.69346   53.0    0.12331  -20.43934  0.99715 
  -27.99511  0.03337   2.3343     14.41095  1.74791  1.41413   9.60859  0.25867     0.01503  5865.90886   4999.12765  1.34931         3922.89767     18.96968  0.00518  57329.33089   1.97223   0.3206  133272.22803  46.65031  19.50195  57380.42555    50.61996       43.73985   27.44571  63.72517   52.0    0.09735  -20.21304  0.99143 
  -22.27254  0.00164  1.34197      14.5534  1.86246  1.31002  43.28239  0.05888     0.06027  5674.83777   4988.24402  1.66252         4327.38635     17.03829    6e-05  57335.05346   8.31467  0.07087   24355.23985  47.89686  19.52695  57385.22463    50.59193       43.74042    25.4853  62.73305   55.5    0.10307  -20.38506  0.99967 
   -19.2987  0.00105  0.84445     14.53611  1.73153  1.42708   36.1597  0.06915     0.01054  5762.92331   5507.68936  1.46997         4289.82408     17.28015  0.00011   57338.0273    7.1637   0.0379    9708.98617  48.66696  19.59685  57385.22463    50.59584       43.71384   26.22436  71.79604   55.5    0.12443  -20.30298  0.99997 
  -10.90379   0.0112  0.98102     14.61348   1.5443  0.90289   21.2557  0.11137     0.01049  6089.91217   5278.05146  2.99788          4068.8273     16.33863    1e-05  57346.42221   4.70245  0.23814    8183.57459  48.56128   19.5208  57385.22463    50.73425       43.89604    25.4853  58.81224   55.5    0.11678   -20.8224  0.99957 
  -24.07683  0.00171   1.0645     14.47198   1.6695  1.46715   7.44065  0.28424     0.22558  5480.10347    5782.6354  0.88944         4675.84118     18.68885  0.00271  57333.24917   1.33296  0.01272   19986.66236   48.1364  19.51622  57385.22463    50.64011       43.77477   27.44571  60.77264   52.5    0.12887  -20.45535  0.99996 
  -32.52386   0.0017  0.83069       14.429  1.70583  1.45528   8.47108  0.25977     0.01839  4858.89298    5634.8203  0.85563         4652.77686     20.30645  0.11251  57324.80214     1.193  0.01441   15157.63341  48.48127  19.51521  57382.82509    50.58961       43.74852   23.52489  62.73305   57.5    0.09919  -19.77238  0.99998 
  -25.49448   0.0219  1.55238     14.48596  1.80559  1.44572   6.87869  0.33163     0.02258  5749.78103    5792.9395  0.98732          4418.0271     19.31308  0.01142  57331.83152   1.35655  0.15067   43102.64277  47.50897  19.53265  57385.22463    50.61928       43.74216    28.1864  66.27451   52.5    0.10888  -20.36448  0.99869 
  -26.57919  0.00292  2.16053     14.53728  1.97948  1.28833  32.33955  0.05057     0.03205  4574.40303   5547.39252  1.19423         4750.21672     17.52697  0.00019  57330.74681   4.03673  0.09438   72265.94287  47.03734  19.57218  57385.22463    50.55271        43.6584   33.32693  64.69346   55.5    0.11132  -20.26347  0.99832 
