 log(Bfield)      Mns     Pspin  cutoff_power  cutoff_wavelength  fnickel    kappa  kappagamma   mejecta  log(nhhost)  temperature  texplosion  thetaPB     vejecta      A_V        MJD_0   log(KE)      M_Ni  Peak_mag     Peak_MJD 
    13.10218   1.7423    21.717       1.42945         2980.85675  0.47716  0.01963     0.01019  64.89737     18.04818   3604.99485   -23.48007  1.46144  4287.07494  0.00062   59087.9197  52.01191  44.73222  19.51079  59206.23625 
    13.44402  1.35856  28.24591       2.79971         2923.55069  0.44493   0.0233      0.0117   71.5879     17.12706   4751.44907   -24.25589  0.85737  4110.16383    7e-05  59087.14388  51.98183  42.34197  19.48689  59204.19836 
    12.36164  1.32471   5.96213       1.65734         2759.15402  0.46698  0.02813     0.04739  70.63192     17.64173   4205.05266   -24.71602  0.45551  5574.67499  0.00024  59086.68375  52.24566  44.34992  19.43182  59213.12231 
     12.9105  1.75027  24.61581       4.45832         3059.05456  0.42185  0.01824     0.01766  64.84028     19.73715     3203.357   -24.38289  0.35407  3463.43185  0.03033  59087.01688  51.82654  39.54173  19.44488  59209.25887 
    12.28435  1.65585  27.18269       3.34517         3063.94243  0.37243  0.02073     0.02422  84.96358     16.23541   4779.43321   -22.21973  0.33146  4631.11086    1e-05  59089.18004  52.09664  36.36567  19.50879  59209.25887 
    14.56215  1.93522   9.68848       4.72361         2875.51947  0.35867  0.02163      0.0429    75.338     17.83917   4007.95777   -22.04093  0.59386  4390.71758  0.00038  59089.35884  52.04254  34.39788   19.4778  59204.19836 
    14.50608  1.83957  25.71637       4.29379         3168.14832  0.38406  0.02467     0.02409  77.02131      18.2652   3705.30354   -21.28388  0.99227  4433.54075  0.00102  59090.11589  52.05241  36.95589  19.49973  59205.39542 
    14.38394  2.11392  17.43507        3.2649         3064.15202  0.33915  0.01846     0.03538  85.67027     17.50797   3680.56376   -25.85965  0.04348  4179.73818  0.00018  59085.54012   52.0081   33.1567  19.43249  59210.28084 
    14.46148   2.0382  27.05935       3.85676          2833.9042  0.39893  0.01946      0.1243  72.58752      17.2887   3552.04781   -19.83385  0.10583  4466.29661  0.00011  59091.56592  52.05492  38.04458  19.44542  59206.23625 
    13.63677   1.4749  26.17269        4.0665         2884.05305  0.40012  0.01542     0.11834  66.52033     17.65274    5136.4323   -21.09539  0.77615  3777.67706  0.00025  59090.30438  51.90369  37.65301  19.52528  59204.19836 
    15.12762  1.75237  17.58835       4.30369         3033.07194  0.32237  0.01529     0.01401  88.26031     17.56638    3127.1171   -30.34257   0.0049  3231.37042   0.0002   59081.0572  51.78649  31.65492  19.48256  59205.39542 
    12.20357  1.85914  16.32323       4.88729         2835.73421  0.41759  0.02324     0.30187   69.9092      19.2919   3792.41906   -24.44669  0.32256  4451.07936  0.01088  59086.95308  52.04947  39.59753  19.48984  59206.23625 
    13.97628  1.83567  20.61879       4.40347         2700.56767   0.4863  0.02227     0.25191  57.66167     16.72551   4584.00531   -30.28328  0.81572  3623.26025    3e-05  59081.11648  51.85779  44.75778  19.51184  59206.23625 
     14.3922  1.52936  26.74981       1.23725         2893.69283  0.34091  0.01748     0.01597  97.17449     18.12471    3602.9453   -28.90479  0.40133  4706.02515  0.00074  59082.49497  52.11913  33.95015  19.43951  59206.23625 
     13.8219  1.76612  29.67174       4.55119         2473.58936  0.49584  0.02464     0.03506  64.88547      16.6294   3933.06479   -24.53575  1.08435    4354.567    2e-05  59086.86402  52.02546  46.48203  19.57723  59200.32729 
    14.39651  1.80606  13.58968       2.86347         2258.61856  0.41724  0.01723      0.0952  73.89621     19.19856   4770.84606   -28.44612  0.56443  4210.74682  0.00878  59082.95365  52.00492  39.89877  19.42988  59209.25887 
    14.29291  1.64819   6.92478       3.71144         2183.20195  0.37264  0.02316     0.16874  80.12212     17.33984   3596.07347   -28.68813  0.62277  4738.11617  0.00012  59082.71164  52.11269  36.06986  19.47057  59204.32422 
    12.23255   1.8897  13.30245       1.71624         2677.48283  0.36557  0.01385     0.06458  82.17591      16.8912   3661.09199   -21.85483  0.92807  4240.32891    4e-05  59089.54494  52.01792  35.51914  19.49052  59206.23625 
    14.96305  1.52433   4.42248       4.41212         2922.21016   0.3505   0.0208     0.01167  88.05633     19.17499   3037.46006    -19.7278  1.56688  5172.76335  0.00831  59091.67197  52.19501  34.40487  19.47225  59209.25887 
    12.81025  1.56848   9.00777       4.35062         2783.76813   0.4169  0.02354     0.13882  73.91398     18.93382   3431.78315   -28.35177  1.06648  4041.66527  0.00477    59083.048  51.96934  39.86713  19.50912  59206.23625 
    14.15108  1.60438  18.88801       3.57155         2716.09319  0.49345  0.02339     0.01074  66.04092     19.40356   3050.83455   -24.07064  0.36592  4503.52008  0.01407  59087.32913  52.05586  46.38458  19.49333  59210.28084 
    15.09781   1.2697  26.14362       3.39549         2852.37982  0.49013  0.02588     0.07693  61.60313     17.67287   4152.80107   -24.42409  1.16173  4317.32841  0.00026  59086.97568  52.01451   45.5794  19.42863  59213.12231 
    14.57882  1.29995   9.24188       2.10705         2122.49087   0.4696  0.02618     0.33266  73.35176     18.41161   3079.96096   -27.62469  0.77578  5399.45151  0.00143  59083.77507  52.22041  44.85535  19.50643  59201.53197 
    13.70394  1.38036  27.73839       2.07018         2045.11297  0.44321  0.01625     0.43741  72.46114     16.85745   4194.59723   -23.38836  0.40925  4700.80966    4e-05   59088.0114  52.09925  42.25664  19.46426     59210.21 
    14.09554  1.79322  18.43892       2.76089          3011.9132  0.44667   0.0207     0.42886  61.41112     18.22388   3872.49055   -22.65516  0.12239  4320.95709  0.00093  59088.74461  52.01503  41.51765  19.50781  59206.23625 
    12.78039    1.353   8.45026       4.21649         2487.26672  0.43724   0.0211     0.02057  70.32009     18.21038      3792.34   -25.31209   0.8972  3885.69198   0.0009  59086.08768  51.93187  41.49762   19.5491  59204.32422 
      12.431  2.15145   9.94083       1.42669         2638.52525  0.34598   0.0173     0.23976  91.91727     17.40258   3194.42763   -26.41993  1.12413  4939.09397  0.00014  59084.97984   52.1576  34.17638  19.53344  59202.25832 
    13.94914  1.71134  28.67155       4.62298         2789.36375  0.33644  0.01917      0.3285  87.04097     17.62245    3094.6533   -25.31591  0.35642  4515.13438  0.00023  59086.08386  52.07616  32.96876  19.48816  59210.28084 
    12.41335  1.81229   8.71111       3.67916         3059.56882   0.3346  0.01788     0.07408  90.97553     18.25787   3844.07242   -25.61675  0.60337  4147.55714  0.00101  59085.78302  52.00523  33.00282  19.53707  59206.23625 
    12.50292  1.37367  26.55028       3.88574         2224.29208  0.41862  0.01737     0.28227  74.58665     16.92233   3201.15105   -20.67774  0.43061   4851.0327    5e-05  59090.72203  52.12848  40.08686  19.52921  59204.32422 
    13.18702  1.74912  24.81969       3.30299         2821.78005  0.43389  0.02408     0.11083  74.80039     18.48285   3788.01632   -27.58704  1.41739  4478.72873  0.00169  59083.81273  52.05931  41.56719  19.50395  59204.19836 
     12.7644  1.84061  13.57058       4.32509         2947.15603   0.3788  0.02002      0.1006  77.00797     17.01873   3138.33318    -28.1623  0.29802  4144.09175    6e-05  59083.23747  51.99376  36.44873  19.42509  59200.32729 
    13.93579  1.77878  27.45308       3.65967         2987.78603  0.34879  0.01914     0.01554   89.1404     18.05243   3238.45941   -29.57389  0.15306  4317.28252  0.00063  59081.82588  52.03877  34.29914  19.48444     59210.21 
    14.96886  1.63196    19.755       1.05224         3100.70494  0.33585  0.01663     0.01104  90.06278     16.64962   3007.10772   -22.39833  0.08513  5106.89559    2e-05  59089.00144  52.18532  33.07684  19.47513  59202.25832 
     14.2486  1.72249  20.63036       2.38351         2543.29688  0.34771  0.02115     0.02111  95.36678      19.1911   3493.26361   -36.95382  0.91711  4379.67761  0.00863  59074.44595  52.05552  34.53209  19.53437  59206.23625 
    14.30884  1.48166  14.87679       4.88693         3014.01418  0.37323  0.01888     0.15465  73.42578       18.032   3683.94948   -27.09001  1.38595  3563.52432   0.0006  59084.30976  51.85954  35.65569  19.48517  59216.12897 
    14.81566  1.80876   6.84051        1.9386         2994.76637  0.44034  0.03523     0.27257  66.98544     16.52468   3305.95531   -29.48794   0.1629  4827.04655    2e-05  59081.91183  52.11706  41.48192  19.50658  59210.28084 
    13.21601  1.68092  27.88977       3.43514          2372.6573  0.45812  0.02682     0.01321  73.16728     17.79037   3628.28162   -25.50828   0.6785  5107.71002  0.00034  59085.89149    52.172  43.74213  19.54093  59204.19836 
    15.13486  1.58849  12.57967       4.38524         2731.44117  0.46023  0.02906     0.41955  69.30254     19.89776   3117.18076   -23.97541  0.22167  4952.53642   0.0439  59087.42435  52.14162   43.5822  19.50025  59206.23625 
    12.57806  1.35087  17.96548       4.37491         2649.30282   0.3175  0.01779     0.14803  99.85276     16.83837   3920.72651   -27.60455  0.58463  4369.03104    4e-05  59083.79522   52.0563  31.74351  19.39881  59218.19356 
    14.26342  1.83557   5.34531        1.8538         3074.11556  0.37702  0.02855     0.18552  73.82683     18.79846   3080.35403   -28.33053  0.62278  4544.78445  0.00349  59083.06924  52.07116  36.04772  19.40798  59213.12231 
    14.34765  1.47691  28.58119       3.92567         3027.60192  0.46412  0.02151     0.03853  65.77594     19.97828    3760.3136   -21.08347  0.77782  3741.74333  0.05285   59090.3163  51.89463  43.60018  19.51806  59209.25887 
    12.63102  1.75021  19.57401       1.96879         3071.09741  0.41215  0.02072     0.04196  78.46106     19.16599   4181.08763   -24.40221   0.8662  4020.89991  0.00814  59086.99755  51.96876  39.76951  19.43336  59210.28084 
    14.36394  1.52476   4.56595        1.0719         2789.12915  0.49217  0.02275        0.04  63.76523     19.77087   3537.14736   -28.21396  1.52233  4234.38829  0.03278  59083.18581  51.99999  46.01382  19.56717  59204.19836 
     12.9426  1.61648  20.91671       3.73664         2218.62011  0.41366   0.0258     0.11994  85.48616      16.4629   3648.30452   -23.00839  1.10176  5578.49714    2e-05  59088.39138   52.2587  40.42788  19.43821  59205.39542 
    12.72841  1.78546   14.5113       4.06965          2578.3447  0.48974  0.02944     0.13863  69.15765     17.88937   3452.13477   -25.76717  0.02005  4789.04676  0.00043   59085.6326  52.11232  46.36247  19.49492  59209.25887 
    13.81567  1.70664  28.45362       3.70849         2924.75936  0.49575  0.02556     0.01416  59.03138     16.37302    3857.9462   -27.47449  0.27795  4058.29558    1e-05  59083.92528  51.95788  45.79577   19.4983     59210.21 
    12.92713  1.40284  27.18028       2.07326         2564.39181  0.38763  0.01813      0.0106  85.29019     19.54507   3398.54984   -23.63151  0.01768   4781.2116  0.01949  59087.76826  52.12459  37.87069  19.49283  59217.28986 
    14.75234  2.06604   18.4223       3.30039         3009.44456  0.44096  0.02533     0.16095  69.69149      19.2216    3793.4093   -24.29212  0.67504  4337.75309  0.00925  59087.10765  52.02686  41.79369  19.49153  59213.12231 
    12.86456  1.53922   9.42507       4.59012         2900.23782  0.46324   0.0191     0.18161  60.94267     19.26892   4497.13647   -17.34405  1.50397  3912.45045  0.01032  59094.05572  51.92825  43.00603  19.52906  59206.23625 
    14.39456  1.54697  14.35641       3.96878         3016.24887  0.34971  0.02171     0.01964  83.44765     17.96484   3958.25746   -18.01498  0.50976  4832.67271  0.00051  59093.38478  52.13249  34.05593  19.51333  59209.25887 
    14.68298  1.70236  12.25961       2.51747         3042.01496  0.37683  0.01539     0.01272  71.93207     16.53966   3944.70266   -19.77524  0.25221  3736.49478    2e-05  59091.62453  51.89935  35.88796  19.52809  59206.23625 
    12.30907  1.48377   9.51453       3.51722         2863.09731  0.38705  0.02325     0.07865  80.24757     16.95303   3556.27602    -20.0749    1.222  5481.61821    5e-05  59091.32487   52.2394  37.47307   19.5029  59210.28084 
    15.12597  1.91378   9.00852       4.82557         2749.99504  0.38548  0.02075     0.11252  73.98308     17.19439   4261.24145   -26.49574  1.46019  4054.00421    9e-05  59084.90402  51.97204  36.86779  19.41622  59216.98576 
    14.42412  1.69072  17.05237       4.86836         2620.22242  0.35387  0.01743      0.4639  81.96615     16.55754   3551.77937   -17.70318  1.52575  4452.90465    2e-05  59093.69659  52.06024   34.3689  19.49861  59210.28084 
    12.73764  2.15696  28.61736       3.75473          2896.0201  0.48719  0.01799     0.30031   58.7126     17.23342   3088.60068    -21.5373  1.06376  3558.43876   0.0001  59089.86247  51.84334  44.96668  19.50838  59205.39542 
    14.80096  1.48805   6.68147       2.95411         2536.29955  0.30096  0.01881     0.02085  92.11727     18.45067   3037.78622   -22.66569  0.12403  4756.49158  0.00157  59088.73408  52.12501  29.73847  19.51985  59204.19836 
    12.66425  2.19812  28.59221       3.08027         2822.07018  0.35209  0.01817     0.47469  84.40578     16.15037   3027.36479   -28.40448  0.33793  4062.71746    1e-05  59082.99529  51.98248  34.34541  19.55096  59204.19836 
    14.54586  1.71081  10.60785       1.07164          3056.7148  0.44523  0.02502      0.0983  71.77408     17.73233   4006.87682   -26.50857  1.01598  5083.40016   0.0003   59084.8912  52.16659  42.38799   19.4592  59206.23625 
    14.85687  1.69455   8.81105       0.83572         2510.45588  0.37887  0.01576     0.02658  91.95162     19.11094   3404.28145   -29.92562  0.46639  4609.81605  0.00717  59081.47415  52.09769  37.42762  19.47155  59210.28084 
    14.20437  1.31019  12.11767       2.59574          2795.1697   0.3668  0.01642     0.13278  79.59884     16.43956   4682.01982   -23.87181  0.70964  4114.03745    2e-05  59087.52796  51.98959   35.4696  19.55457  59204.19836 
    13.11465  1.84015  26.61345        0.6669         2853.31559  0.42551  0.01995     0.37983  79.76582     18.24052   3823.16906   -35.94399  1.55728  4606.19302  0.00097  59075.45578  52.08787  41.16018  19.34741  59213.12231 
    13.23545  1.70887  25.25605       4.03695          2854.1592  0.47796  0.02247     0.01048  61.16707      18.8943   3146.01224   -16.91687  0.28053  4690.18487  0.00436   59094.4829  52.08598  44.39845  19.49106  59204.19836 
    12.72048  1.66622   9.90172       4.86113          3078.2461  0.37881  0.01703     0.34585   73.6581     18.02239    3297.8524   -20.94687  0.00536   3754.4927  0.00058   59090.4529  51.90509  36.20586   19.5124  59204.32422 
    14.30619  1.29782  12.34435       3.89995          3111.0836  0.49394  0.02133     0.01471  57.82715     19.90065    5352.4313   -24.91118  1.07702  3578.17265   0.0442  59086.48859  51.84711  45.48189  19.54039  59206.23625 
    14.30469  1.60422  22.89926        3.7457         2848.67346  0.31089   0.0138     0.02341  91.25217      17.3091   4011.60855   -16.95873  0.79496  4233.06908  0.00011  59094.44104  52.02315  30.67767  19.46148  59209.25887 
    12.45145  1.61347  15.84023       1.08356         2826.94311  0.43403  0.01813     0.08003  67.10695     16.20469   3241.97562   -22.73037  0.37443  4959.74428    1e-05   59088.6694  52.14074  40.89928  19.56548  59198.30244 
    14.94935  1.89217    9.5641        0.1857         2164.18786  0.36225  0.01633     0.07816  99.89536     17.66923   4812.00199   -34.35906  1.49122  4580.99857  0.00026   59077.0407  52.09748  36.21905  19.44617  59213.12231 
    14.72528  1.71569  26.57364        2.5013         2613.32775  0.40167  0.02163     0.48186  84.18988     16.96866   3194.75728   -25.19648  0.88259  4843.56282    5e-05  59086.20329  52.13501  39.16764  19.53281  59209.25887 
    12.48803  1.44266  20.16078       4.52453         2757.78141  0.32696  0.01456      0.0124  91.55969     18.34902   3655.21487   -28.23389  1.39962  3614.13469  0.00124  59083.16588  51.88606  32.27856  19.49629  59206.23625 
    15.11987  2.01255   2.86446       0.49216         3214.34929  0.47804  0.02483     0.03016  76.83008     19.21346   3369.44013   -31.85118  1.49006  4918.24441  0.00908  59079.54859  52.14237  45.98132  19.46955  59206.23625 
    12.78908  1.26912  14.01887       2.64092         3226.56948  0.34571   0.0219     0.08439  83.26052     17.55856   3796.36136   -24.53849  1.42188  4710.32376   0.0002  59086.86128  52.11007  33.65549  19.57415  59201.53197 
    12.25115  1.82403  23.23799       0.87756         2350.65344  0.43271  0.02167     0.01636  86.21232       16.511   3375.54385   -31.15204  0.06516  4655.30933    2e-05  59080.24773   52.1021  42.34232  19.48441  59213.12231 
    14.00166  1.96476  20.89014       0.03962          3902.8552  0.37974  0.01733     0.13508  85.17976     17.41526   4062.12818    -29.1512  1.24254  4810.83398  0.00014  59082.24857  52.12987  37.09352  19.41844    59218.345 
    12.47684  1.62402  11.02082        4.8679         2606.31664  0.45998  0.02293     0.03915  64.59109      17.9549   3417.44961   -32.67338  1.04144  3632.54461   0.0005  59078.72639  51.86769   43.0908  19.59069  59206.23625 
    12.49001   1.3388  26.82108       0.71815         2090.86208  0.48013  0.02621     0.01097  76.69455     16.11149   3020.03795   -23.58492  1.49435  5420.36185    1e-05  59087.81484  52.22669   46.1706  19.55444  59209.25887 
    12.52018  1.78114  25.14798       2.96036         2645.90585  0.40164  0.02323      0.0118   81.5156     17.72107    3408.9432   -30.98344  1.55081  4489.39041  0.00029  59080.41632  52.06697  38.97713  19.43846  59206.23625 
     14.3637   1.6899   13.4272       4.67268         3085.48981  0.37541  0.02426     0.02264  74.33303     17.98362    4291.0269   -30.44814   0.8028  4028.39956  0.00053  59080.95163  51.96685  35.93057  19.49571  59209.25887 
    13.97903  1.45299  19.95888       4.72576         3023.36686  0.48958  0.02736     0.22856  59.21685     19.62982   4240.94365   -20.60041  1.23729  4217.90632  0.02369  59090.79936   51.9916   45.2481   19.4356  59209.25887 
    12.16908  1.48754   7.90594       4.59393         2987.74522  0.49489     0.03     0.09827   60.9681     17.72208   3073.74854   -18.22732  1.21565  4805.58104  0.00029  59093.17245  52.10687  45.94761  19.52853  59204.23389 
     14.0954  1.66515  28.53204       4.08842         2435.62147  0.30845  0.01282     0.02094  99.12153     16.90251   3780.68759   -24.94457  1.47005  4370.07314    4e-05   59086.4552  52.05605  30.80515  19.52893  59200.32729 
    14.62338  1.91052  17.79149       2.52838         3084.28487  0.40544   0.0213      0.0126  76.11828     17.79704   3508.70838   -26.28197  0.28783  4203.77022  0.00035   59085.1178  52.00542  38.94422  19.57039  59213.12231 
    12.31498  2.11366  13.13765       4.96893         3029.79685   0.4676  0.02354     0.01878  59.64498      17.8689    3081.0897   -24.69442  1.04695  3690.72981  0.00041  59086.70535  51.87612  43.26554  19.50195  59206.23625 
     12.8136   2.0159  11.79335       3.49166         2831.25485  0.43011  0.02108     0.01197  66.56959     17.99398   3359.54397   -26.97292  1.29635  4029.33338  0.00055  59084.42685  51.95975  40.47939  19.50445  59206.23625 
    14.35164  1.34513  13.89955       4.66241         2441.91051  0.47357   0.0215     0.33447  62.91806      17.9794   3017.65033   -27.66382  1.45612  4170.72885  0.00053  59083.73595  51.98593  44.18385   19.4515  59209.25887 
