 texplosion  fnickel    Pspin  log(Bfield)      Mns  thetaPB   mejecta    kappa  kappagamma      vejecta  temperature    alpha  cutoff_wavelength  log(nhhost)      A_V         MJD0  kenergy  mnickel            TSD   log(L0)  Peak_mag     Peak_MJD  log(E_rad)  log(Peak_lum)  Rise_Time    E_fold  tau_1  delta_m15     r_peak     frac 
   -9.76195   0.0087  5.32753     14.37079  1.71206  1.46479   6.39538  0.03703     0.01481    7522.1078   6525.02921  2.65251         2186.09992     18.93862  0.00482  59719.57473   2.1586  0.05565   818097.71726  45.13651  19.12726   59748.3575      50.677       44.20567   15.01844  22.33928   36.5    0.41254  -20.50301  0.99157 
    -8.7667  0.01826  3.60244      14.5521  1.63607  1.03591   4.86026  0.07642     0.02216   8333.51428   8887.70314  0.98527         3043.68483     18.22928  0.00094  59720.56998  2.01346  0.08873   155100.11929  46.17884  19.10209  59751.27529    50.63278       44.06229   15.41385  29.06904   24.0    0.47479  -20.57318  0.99358 
   -9.31078  0.00498  4.62424     14.39961  1.65106  1.42745   5.40091  0.04349     0.03129   8733.98855   8189.42487  0.69861         2738.09982     18.67652  0.00264   59720.0259  2.45765  0.02692   520513.89218   45.4401  19.12294   59747.3122     50.8167       44.40636   12.44034  18.31611   28.0    0.54139  -20.57696  0.99676 
   -6.83231  0.00287  3.56377     14.42767  2.00114  1.45066   2.94376  0.03361     0.01054   6990.26327   3823.78944  0.56321         2977.04544     20.40909   0.1425  59722.50437  0.85806  0.00845   329286.41594  45.94873  19.06818   59747.3122    50.96195       44.62526   10.87908  15.78778   35.0     0.5317  -20.65591  0.99955 
   -9.08373  0.01494  2.23218     14.26598   1.5243  1.35318   9.19873  0.01516     0.01825   7224.40131   4263.84865  0.15878         4822.43931     20.50536  0.17786  59720.25295  2.86391  0.13742   207201.55679  46.43806  19.06388  59747.27804    50.84113        44.4326   12.92085  18.29132   42.0    0.51008  -20.70269  0.99574 
  -10.41933  0.08619  2.85276     14.66659  1.76823  0.80494  11.64781  0.01931     0.11826   5941.14743   6545.29636   0.6366         3619.08608     18.98235  0.00533  59718.91735  2.45252  1.00391    62045.84959  46.81314  19.09996   59747.3122    50.94376       44.53855   11.63434  18.37318   44.0    0.41223  -20.43208  0.96227 
   -10.1308  0.00115  3.33488     14.50896  1.98712  1.56024   6.53147  0.02335     0.01149   5142.76191   7071.99653  0.50957          4932.5911     16.29992    1e-05  59719.20588  1.03046  0.00751   196917.07624  46.22663  19.08008   59748.3575    50.97337       44.64163    9.09027  16.67937   35.5    0.46822  -20.46726  0.99965 
   -9.00224   0.0019  4.01125     14.65148  1.73153  0.62549   2.84174  0.05753     0.05515   8814.09735   9269.55375  0.04567          4150.7589     17.57701  0.00021  59720.33444  1.31694   0.0054   128777.08983  46.19088  19.07251   59747.3122    50.97545        44.6318    9.26866  18.22913   26.0    0.60563  -20.53404  0.99954 
   -7.87251  0.01148  4.31973     14.71774  1.63847  0.60225   3.87268  0.09025     0.05008   8759.31752   8522.24859  2.31887         2467.78824     16.46429    2e-05  59721.46417  1.77247  0.04444   104154.29346  46.19469  19.07743  59746.74249    50.74879       44.35289    12.4733  18.32655   25.5    0.49148  -20.57951  0.99531 
  -13.17054  0.00213  4.01216     14.57311  1.79633  0.68118   3.37063  0.05908     0.01563   7406.39318   9143.40689  0.10766         4229.73305      16.2094    1e-05  59716.16614  1.10294  0.00718   191753.47066  46.03373  19.24179  59749.29919    50.52765       43.82072   19.48741  43.08825   27.5    0.45377  -20.49801  0.99942 
   -9.65162  0.00108  1.85451     14.63335  1.40273   0.5111   7.88649  0.02301     0.04194   6247.04865   3292.73743   0.2758         4851.83251     18.23413  0.00095  59719.68506  1.83595  0.00851    24240.62165  47.49482  19.04836  59746.38986    51.02677       44.73748    9.09027  14.36175   30.5    0.57006  -20.51832  0.99981 
   -7.39701  0.29701  2.11671     14.58847  1.47389  1.29721   5.71205  0.04803     0.18658   8349.50915   4081.99238  1.67038         2097.63333     17.90268  0.00044  59721.93967  2.37542  1.69654     40800.6167  47.17532  19.08514   59748.3575    50.77586       44.32912   11.63434  20.77839   46.0    0.47337  -20.47249  0.96569 
   -8.65546  0.09076  2.00208     14.52157  1.61043  1.56038  13.44079  0.01586     0.07714   8013.43006   7768.99574  0.19707         3427.36036     17.44547  0.00015  59720.68122  5.14859  1.21983     54272.4943  47.13825  19.06404   59747.3122    51.05771       44.74872    8.36891  16.54283   34.5    0.57965  -20.54697  0.97817 
  -12.29433  0.01458  2.59927     14.46663  1.84682  1.36861   8.81318  0.02223      0.1112   6946.53208   9573.44449  0.01523         5173.76693     19.12169  0.00735  59717.04235  2.53686  0.12849   135106.41826  46.57489   19.0249  59747.27804    50.97004       44.63029    9.54632  16.28971   28.0    0.46743  -20.39262  0.99604 
   -9.20092  0.00815  4.59501     14.42609  1.86539  1.22837   4.73019  0.02603     0.01592    8163.6479   7505.35259  0.26181         2679.25244     19.30721  0.01127  59720.13576  1.88051  0.03854   514025.85653  45.50406  19.08533  59749.29919    50.66314       44.20215   13.37209  23.25431   36.0    0.47997  -20.52096  0.99617 
  -10.83881  0.00324  4.99493     14.24792  1.46905  1.42128   5.03464  0.03524     0.01203   7937.78524   8788.47329  0.70185         3347.51998      18.6441  0.00245  59718.49787  1.89232  0.01631   1086607.2442  45.00275  19.05147  59747.27804    50.54308       44.03292   16.68269  22.99265   29.0    0.49462  -20.54176  0.99724 
  -13.95066  0.00593  0.95283     14.83252  2.10297  0.89127  22.74348  0.02143     0.05641   7492.86906    8630.3086  0.05284         3234.92841     18.04288  0.00061  59715.38602  7.61694  0.13494     3833.83605  49.05001  19.12816  59746.74249     50.5298       43.93589   20.85855  27.71006   25.0    0.43297  -20.03861  0.99992 
   -9.49053  0.00616  4.07166     14.21557  1.35017  1.40141   6.86062  0.02411     0.40733    7481.5737   9329.23612  0.39258         4252.55756     17.48457  0.00017  59719.84615  2.29074  0.04225   770197.15925  45.29309   19.1175  59747.27804    50.81901       44.41987   11.63434  18.37318   31.0    0.49879  -20.54034  0.99465 
   -7.22622  0.07268  1.20575     14.63115  1.77457  1.21431    9.9775  0.02178     0.03959   8302.11351   5713.35791  0.24262         2490.20568     16.14695    1e-05  59722.11046  4.10229  0.72516     13095.3042  48.23831  19.11737  59746.74249    50.94477       44.59558    9.98497  16.59666   28.0    0.67986  -20.60452  0.99811 
  -10.12399   0.0235   4.3195     14.38866  1.63249  1.30386   6.21694  0.03615     0.03052   8037.06166   9842.64929  0.43478         3401.79143     18.32019  0.00116  59719.21269  2.39551  0.14608   472298.90908  45.53661  19.08886   59748.3575    50.84688       44.45267   11.63434  18.37318   25.5     0.5138  -20.56632  0.98456 
  -11.50712  0.00251  4.97902     14.46493  1.95581  1.53178    4.4948  0.05134     0.22566   7855.49074   3114.71875   0.6798         2407.71604     18.76198  0.00321  59717.82956  1.65457  0.01128   529134.58279  45.44232  19.03495  59747.27804    50.68949       44.24221   11.74232  19.93227   36.5    0.46274  -20.50198  0.99877 
   -7.44628   0.0126  5.01064     14.56297  2.01581  1.47176   9.30958  0.02422     0.03831   7793.30514   7495.75242  1.91407         2242.54952     17.20269    9e-05   59721.8904  3.37288  0.11728   351644.35345  45.62741  19.07653   59748.3575    50.58506       44.10601   10.09597  24.91627   31.0    0.51191  -20.51812  0.98784 
  -10.40201  0.00117  3.55042     14.54182  2.01538  1.23926   6.13953   0.0319     0.03105   7156.70482   9317.35226  0.19624         3377.05702     18.62386  0.00234  59718.93467  1.87581  0.00717   194579.45863  46.18355  19.12587   59747.3122    50.70549       44.20534   10.97316  23.84778   27.5    0.52712  -20.47712  0.99963 
   -6.85977  0.25049  2.82772     14.95632  1.66596  0.49558   6.96839  0.02618     0.01918   6334.60545   6698.45003  1.77694         2697.99098     19.05099  0.00625  59722.47691  1.66801  1.74549    15125.38983  47.40793  19.31069   59748.3575    50.66949       43.94667    16.7466  40.88021   52.5    0.46521  -20.44363  0.93879 
  -11.74638    0.053   2.3055     14.43075  1.61628  1.40558   10.2681  0.02222      0.0497   7590.94484   9282.13268   0.0303         3854.39258      18.4979  0.00175   59717.5903  3.52947  0.54416   109739.84493  46.71147  19.08618  59749.38886    50.64535       44.15355   20.85855   22.6575   28.0    0.49073  -20.43868  0.98456 
   -7.56581  0.00477  1.07887     14.39645  1.60957   1.2713   8.66069   0.0225     0.02008    6319.9104   6877.40908  0.62206         2631.00889     20.66827  0.25882  59721.77087  2.06349   0.0413    28026.71372  47.96205  19.12007   59747.3122    50.79531       44.36558    13.6761    19.991   28.5     0.5403   -20.7895  0.99983 
   -7.90638  0.00178  5.51805     14.55475  1.96523  1.42975   3.01132  0.07738     0.05313   7395.85905   9084.87736  1.53611         3103.23528     19.37641  0.01322   59721.4303  0.98257  0.00536   431822.27904  45.44338  19.15024   59748.3575    50.57543       44.06699   15.78267  23.89267   26.0    0.53117  -20.56346  0.99929 
   -6.11079  0.04406  2.83507     15.11104  1.94127  0.44061   8.15133  0.05171     0.01149   8220.10533   8768.31802  1.56379          3099.4357     18.69661  0.00276  59723.22589  3.28557  0.35915     8688.40655  47.71286  19.08038   59747.3122    50.96113       44.62418    9.98497  15.85105   24.0    0.48504  -20.54595  0.99027 
  -11.40132  0.03957  2.08755     14.58358   1.7211  1.10812  11.27747  0.02858     0.04027   6764.74768   9844.27139  0.49702          3250.6752     19.25284  0.00994  59717.93536  3.07852   0.4462     47394.8213  47.18965  18.99859  59746.74249    50.70958       44.31755   11.65875  17.42777   25.5    0.41194  -20.34773  0.99169 
   -11.7587  0.00254   3.4563     14.33493   1.5704  1.44076   8.65311  0.02489     0.01766   7014.92043   5323.53073  0.26638          3547.1915     17.85102  0.00039  59717.57798  2.54007  0.02198   372551.78768  45.81644  19.08138  59747.27804    50.80067        44.4345   11.58808  18.14358   36.0    0.46891     -20.46  0.99841 
   -6.08871  0.00972  5.64873     14.73772  1.97744   1.0264   15.4966  0.01345     0.04028   4625.09099   7108.23768  2.73409         3707.69749     17.98248  0.00053  59723.24797  1.97744  0.15065   196055.87589  45.76867  19.04297  59746.74249     50.7477       44.37291   12.44034  17.96452   29.0    0.47515   -20.4722  0.97987 
  -10.23458  0.12147  3.78181     14.76939  1.93067  0.74491   7.17715  0.03801      0.0369   9459.86714   8003.78161  0.05731         3869.29771     19.53499  0.01904   59719.1021  3.83133   0.8718     74154.7845  46.52902  19.06106   59748.3575    50.96997       44.60777    9.98497  16.68188   29.0    0.57039  -20.57763  0.94872 
   -9.06477  0.16809  5.52902     14.61784  1.59092   1.2487  10.59665  0.02083     0.02248   8724.72816   8232.53689  0.63925         3756.71892     17.55365   0.0002  59720.27191  4.81171   1.7812   262467.36303  45.56612  19.07845  59746.38986    50.56189       44.04905   15.87519  23.80014   43.0    0.49566  -20.44866  0.75624 
    -8.7576  0.07051  3.35328     14.58373  2.02216  1.40773   10.3362  0.01516     0.02409    7563.0842   9806.08546  0.19105         4645.14713     16.50761    2e-05  59720.57908  3.52684  0.72878   143582.72038  46.36662  19.05308   59748.3575    50.91498        44.5515    9.98497   17.5095   29.0    0.57957  -20.53315  0.96806 
   -8.88744  0.08643  5.30137     14.43037  1.66166  1.24663    4.8138  0.04499     0.02907   9071.25486   8732.93996  1.56897         2189.56195     18.44564  0.00155  59720.44924  2.36292  0.41604   597575.36338  45.26422  19.09213  59746.74249     50.6215       44.05173   17.41269  24.58026   29.5    0.52237   -20.5554  0.93834 
   -9.10579  0.02235  2.20757     14.53542  1.76402  1.42027  14.79254  0.01299     0.11188   5939.74837   8082.70096   0.4769         4717.98526     18.13219  0.00075  59720.23089  3.11319  0.33057    67810.36468  46.99622  19.11402   59748.3575    50.92065       44.45371    9.52488  24.14223   29.0    0.53695  -20.53641  0.99302 
   -7.97531  0.00285  2.89802     14.45411  1.70772  1.49611    10.933  0.01597     0.09684   7536.62066     8721.065   0.4917         2826.80902     19.84597  0.03897  59721.36137  3.70442  0.03118    164521.3663  46.36084  19.15139  59750.36287    50.66826       44.09187   12.42497  26.97451   27.5    0.60473  -20.55217  0.99864 
   -9.28474   0.0156  6.65971     14.37395   1.6316   0.8467   4.42642  0.04459     0.07356   9368.39463   9401.35186  1.31133         3546.06526     19.85941  0.04019  59720.05194  2.31745  0.06905  1200727.01698   44.7551   19.0828  59747.27804    50.69385        44.2688   15.10024  20.79036   31.5    0.49574  -20.69065  0.98239 
  -11.78622  0.04936  2.71925      14.5367  1.63494  1.07365  16.38071  0.01741     0.26422    6743.1492    5653.5291  0.39291         3861.44905      18.8498  0.00393  59717.55046  4.44309   0.8086    94803.13869  46.63663  19.10662   59747.3122    50.69198       44.25262   13.37209   20.6924   39.5    0.41012  -20.38192  0.96878 
   -8.50841  0.01228  3.86674     14.38541  1.56673  1.08994   3.21447  0.04594     0.03469   6196.11139   9422.13062   0.6413          3964.7923      16.5483    2e-05  59720.82827  0.73616  0.03947   368707.43349  45.72247   19.0337  59746.38986    50.76519       44.35077   13.37209  18.25325   31.5    0.50247  -20.52148  0.99641 
   -9.84374  0.08738  2.96706     14.64044  1.95915  1.16201   6.85978  0.03508     0.02297   7157.25994   6144.47591  0.58945         2904.95461     19.76197  0.03211  59719.49294  2.09619   0.5994    83879.78547   46.6926  19.07506  59746.74249    50.98599       44.62943    9.98497   17.5095   33.5    0.52874  -20.49713  0.97909 
   -7.44636  0.04301   2.8537     14.21883   1.3322  1.37931   7.18714  0.01199     0.03549   7235.60088   7639.43501  0.19359         4365.12111     17.11061    7e-05  59721.89032  2.24457  0.30911   367738.84378  45.91706  19.07709  59746.38986    50.73334       44.33098   13.37209  17.42777   45.0    0.46589  -20.46326  0.98085 
  -10.18602  0.00429  3.94369     14.41199  1.75329  1.39302    9.5806  0.01807     0.01276   7173.39917   6990.84775  0.38085         3310.24493     18.76366  0.00322  59719.15066  2.94083  0.04108   379743.80205   45.7414  19.03415  59746.38986    50.64847       44.18187   14.74259  19.93227   36.0    0.51072  -20.50117  0.99672 
  -10.09435  0.00937    4.669     14.57525  1.97597  1.09911   8.99189  0.02656     0.04138   7607.26062   7639.28027   0.5125         3579.65893     19.45358  0.01579  59719.24233  3.10409  0.08429   282845.19792  45.77463  19.06994   59748.3575    50.56089       44.07238    16.7466  24.13823   30.0    0.51397    -20.545  0.99216 
   -8.12521  0.00106  2.33285     14.41596  1.39956  0.86622   9.99318  0.01184     0.01111   5126.55738   4695.25279  0.53181         5146.84707     17.97718  0.00053  59721.21147  1.56669  0.01057   104149.41373  46.66141  19.18847  59749.52363     50.5669       44.06114   11.48526  27.91422   34.5    0.53893  -20.51141   0.9996 
   -7.99399  0.19583  3.12395     14.74434  2.04196  0.95308    5.9356  0.03211     0.03896   8725.41077   9943.75578  0.19479         2874.97703     17.67511  0.00026  59721.34269  2.69565  1.16234    60060.75791  46.81089  19.12101   59748.3575    50.97893       44.53485   10.98895  20.86491   26.0    0.60329  -20.55991  0.95909 
  -11.05415  0.01539  2.62062     14.49468  1.93471  1.53892   8.18733  0.02152     0.04098   6288.26517   8233.09475  0.21322         3714.36654     18.13502  0.00076  59718.28253  1.93122  0.12598   126436.69456  46.61678  19.09879   59747.3122    50.58229       44.07972   17.82443    23.374   33.5    0.47636    -20.406  0.99634 
  -10.68563  0.01397  1.86114     14.50328   1.5338  1.55616  14.33814  0.02538     0.04332   7589.57679   4612.42546  0.38851         4414.87905     18.60249  0.00222  59718.65105  4.92669  0.20031     48594.6684  47.22847  19.03812   59748.3575    50.78414       44.38103     13.566  18.93592   27.0    0.50062  -20.44354  0.99678 
   -7.87255  0.00127  3.66957     14.23443  1.37347  1.39535   7.28895  0.01975     0.05629   7947.72646   8630.53019  0.85204         2058.68175     16.95743    5e-05  59721.46413  2.74649  0.00926   583446.38351  45.51143  19.03596   59747.3122    50.79416       44.41435   12.44034  16.73006   33.5    0.50579  -20.51075  0.99907 
   -8.05257  0.06836  3.32401     14.72448  2.04458  0.88735   9.63785  0.01748      0.3099   6560.89698   5468.00412  0.59678         3510.23202     16.78591    3e-05  59721.28411  2.47476  0.65886    74607.30604  46.66334   19.0135   59747.3122    50.84393       44.52157   13.36249  15.86014   37.0     0.5456  -20.50723  0.97236 
   -8.86757  0.00886   3.8037     14.51009  1.58662    0.876   5.33618  0.04561     0.01032   7331.68918   7314.24506  1.47581         2314.12072        18.31  0.00113  59720.46911  1.71106  0.04725   203477.97587  46.00039  19.08871   59748.3575    50.94658       44.56831    9.58227  19.12635   29.5    0.48466  -20.49673  0.99594 
   -9.28865  0.00331  1.64258     14.33245  1.69125  1.52043   4.64898   0.0346     0.03095   7760.84057   8681.10831  0.04144         4796.04533     20.58539  0.21385  59720.04803  1.67033  0.01538    91659.49398  47.10382  19.10579   59748.3575    50.96628       44.61632   10.83269   17.4771   32.5    0.55542  -20.77448   0.9998 
   -7.20675  0.01108  6.91005     14.61058  1.67021   0.6712   5.47028  0.04242     0.02288   8914.19613   9546.13572  2.14214         3323.22221     18.43456  0.00151  59722.12993  2.59299   0.0606    445023.9348  45.16427  19.05863  59746.74249    51.18399       44.88704    7.54051  16.61088   25.0    0.57335  -20.61552  0.98403 
  -10.06334  0.12307  0.82899     14.50575  1.54337  1.31895  12.95032  0.01701     0.04982   7378.10856   3228.58523  0.08795         4698.41099     20.03447  0.06014  59719.27334  4.20531  1.59377      9591.3889  48.63834   19.0831   59747.3122    50.89217       44.50585   12.51887  18.29958   49.0    0.50274  -20.49684  0.99837 
  -12.22621  0.00516  3.52832     14.49684  1.65093  0.86357   6.81619  0.03467      0.0361    7372.2156   9584.78147  0.30607         2166.28023     18.18743  0.00086  59717.11047  2.20986  0.03518   193641.37034  46.10444  19.25007   59747.3122    50.71123       44.02626   15.01844  32.44108   26.5    0.46597   -20.4179  0.99755 
   -9.04392  0.03114   1.5838     14.45423  1.45775  1.25025  13.88405  0.01554     0.05191   6890.10359     5050.646  0.31236         4903.72882     18.60972  0.00226  59720.29276  3.93183  0.43237    41920.89209   47.4107  19.13302   59747.3122    50.94924       44.54375   10.41068  19.12557   27.5    0.55984  -20.60554  0.99475 
  -11.12286  0.00288  2.76586     14.48564  1.82066  1.49811  10.17234  0.02238       0.045   7322.59824   3976.86453  0.17468         4101.99598     19.58591  0.02141  59718.21382  3.25371  0.02925   138173.68904  46.50499  19.04438  59746.74249    50.73349       44.34868   13.09624  18.25325   31.0    0.52999  -20.49214  0.99895 
  -11.69508  0.03223  1.25574     14.55719  1.42389  0.92863  18.34159  0.01744     0.04001    7051.5297   8329.23591  0.25717         4435.44182     17.21095    9e-05   59717.6416   5.4404  0.59119    16021.65242  48.01981  19.07332   59747.3122    50.91201       44.51048   12.83248  17.54951   28.5    0.46233  -20.28441   0.9968 
