 log(Bfield)      Mns     Pspin  cutoff_power  cutoff_wavelength  fnickel    kappa  kappagamma   mejecta  log(nhhost)  temperature  texplosion  thetaPB      vejecta      A_V        MJD_0   log(KE)      M_Ni  Peak_mag     Peak_MJD 
    14.45838  1.64923   5.78327       2.63639         2287.60886  0.00491   0.0354     0.02499    5.2562      18.6282   5024.64276     -8.2872  0.93821     6531.186  0.00236  59721.04948  52.16451   0.28156  19.13993  59746.38986 
    14.55189  1.64627    6.0323       4.03965         2011.54007  0.01813  0.02072     0.09875   7.35545     16.81299   3799.02634    -8.08893  0.59727    7487.3552    4e-05  59721.24775  52.31848   1.12891  19.05514  59746.38986 
    14.89474  2.17024   4.05023       2.99348         3633.82674  0.01193  0.02434     0.01013  15.10273     19.95983   9073.88905    -3.07731  1.15879   6082.83681  0.05065  59726.25937  52.20515   0.86669  19.10189   59747.3122 
    14.25362  1.34268   4.21751       1.53914         2753.63476  0.04939  0.02426     0.01745   6.70749     20.13164   8816.23998    -8.85007  1.23764   5298.29057  0.07523  59720.48661  52.00869    3.0092  19.06176  59748.30247 
    14.33475  1.70352   3.39577       0.05497         4359.25815   0.0137  0.02126     0.03462   8.12792     20.67705   6262.90753    -9.02984  1.40921   8204.77217  0.26411  59720.30684  52.40792   0.87296  19.09422  59748.30247 
    14.72449  1.80735   4.01956       0.77297         3561.03514   0.0993   0.0127     0.32912  13.53907     16.44214   4262.67501    -9.12877  0.82157   5081.29044    2e-05  59720.20791  52.03933   7.05824  19.12674  59748.30247 
     14.4604   1.8797   4.54648       0.35126         4508.03449  0.00508  0.03635     0.04214    3.5543     16.07922   7236.41052    -8.66647  1.55306   5497.25679    1e-05  59720.67021  51.96975   0.26291  19.06498  59747.27804 
    14.55183  1.64811   3.87421       0.00775         4450.22332  0.00316  0.03024     0.03503   4.43319     18.39301   9103.10047    -7.90797  0.67877    7014.2471  0.00137  59721.42871  52.20744   0.17369  19.09229   59747.3122 
    14.48168  1.49153    4.8795       1.64414         2869.21385  0.27416  0.06462     0.03568   3.41473     17.04556   8486.11309    -7.00643  1.09413   6642.02565    6e-05  59722.33025  52.12917  14.02643  19.09093  59749.29919 
    14.71742  1.64489   3.11592       0.10301         3278.71496  0.00455  0.02224      0.0137   8.13382     16.69658   8826.94301    -9.77498  0.48386   5842.44997    3e-05   59719.5617  52.11304   0.28978   19.1025  59748.30247 
    14.54544  1.92377   2.95915       0.19053         3184.27089   0.0036   0.0267     0.25002   8.67317      16.0476   5748.93358    -9.70145  1.51255   5539.61741    1e-05  59719.63523   52.0731   0.23258  19.05671  59748.30247 
    14.85067  1.65396   0.91906       2.00326         2525.94734  0.11117  0.01539     0.39592  14.75264     17.06952   3966.82396     -2.8851  1.11128   6136.29953    7e-05  59726.45158  52.21072   8.04022   19.1002  59746.38986 
    14.87467  1.76856   1.59362       0.78549         2583.96658  0.05431  0.01316      0.0357  18.52751     20.24345   7056.02092    -7.16188  0.58133   5648.64176  0.09732   59722.1748  52.15814   4.10647  19.07482  59749.29919 
    14.56501  1.49111   3.50313       0.28525         3813.72291  0.03705  0.01586     0.02478  11.10511     16.17869   9680.78176    -8.54445  0.71023   6057.00861    1e-05  59720.79223  52.17403   2.52749  19.14446   59748.3575 
    14.67525  1.65651   4.44632       0.47216         2571.58619  0.10325  0.03057     0.09425   7.10187     19.13419   9957.98459     -8.2818  0.70541   7503.67566  0.00757  59721.05488  52.31682   6.37566  19.03266  59748.30247 
    14.38576    1.877    6.8115       1.23758         2336.33559  0.04625  0.01664     0.05197   7.53523     17.28327   9701.43605    -8.68817  1.17818    7502.3515  0.00011  59720.64851  52.32265   2.89539  19.08558   59747.3122 
    14.41149  1.70952   4.29798       0.08233         2204.15891  0.00673  0.02002     0.44978   7.63493     16.93898   8011.96135     -8.8628  1.24482   7141.82264    5e-05  59720.47388  52.28119   0.42291  19.06662  59746.38986 
     14.3789  1.28448   4.21511       0.40555         2666.08284  0.03074  0.03134     0.01123   6.08275     17.63063   3753.52947    -8.90192  0.75611   7558.18899  0.00024  59720.43476  52.30706   1.82941  19.09003  59748.30247 
    14.42107  1.79918   5.72536       2.00697         2088.66473  0.01115  0.03654     0.11326   4.58632     16.01843   5241.73811    -9.03406  1.09379   6316.46652    1e-05  59720.30262   52.1203   0.61828  19.15796  59747.27804 
    14.72859  1.82921   7.16719       1.34711          3665.8907  0.10976   0.0106      0.0103  14.20134     17.26937   9546.00906    -6.37758  0.88361   6266.75756   0.0001   59722.9591  52.22567   7.87809  19.11978   59747.3122 
    14.39484  1.63073   5.56345       2.32545         2743.69136  0.00445  0.02562     0.21494   8.82329     16.63372   8177.94869     -7.5186  1.53621   6636.99276    2e-05  59721.81808  52.23174    0.2885  19.08677   59747.3122 
    14.67328  1.58846   2.23361       1.28363         2493.80132  0.05232  0.02271     0.07619  13.87869      18.6417   9469.78921    -4.68597  1.24627   8014.92295  0.00243  59724.65071  52.43737    3.7381  19.03434  59747.27804 
    14.44909  1.62438   3.11141       0.21407         2306.32584  0.06176   0.0485     0.12613   5.39921     19.80237   8037.35793    -9.38627  1.52908   6917.05586  0.03524  59719.95041   52.2173   3.56872  19.02742   59747.3122 
    14.76989  1.43594   2.12781       2.33095         3063.62715  0.16545   0.0456     0.04884   6.89879     18.13147   4903.42895    -3.09187  0.87543   6659.67263  0.00075  59726.24481  52.21021    10.147   19.0976  59744.87916 
    14.38392  1.81143   6.83702       0.83456         3750.08602  0.03612   0.0709     0.01559   2.35004      16.3708    6784.4611    -9.58449  1.33904    7020.4591    1e-05  59719.75219  52.12881   1.65288  19.09898  59748.30247 
    14.70862  1.84601   2.70961       0.65718         2783.38949  0.25729  0.03462     0.01991    5.9066     17.03509    3638.0207    -5.69904  1.40663   6515.90671    6e-05  59723.63764  52.17506  15.20225  19.08459   59747.3122 
    14.48288  1.74541   4.69387       1.59772         3237.70308  0.00396  0.09057     0.34871   2.30201     20.38634   9808.55047    -7.31022   1.2809    5555.3482  0.13523  59722.02646  51.92266   0.18013  19.08667  59747.27804 
    15.14043  1.99529   2.61457       1.78912         2023.62214  0.03624  0.01714     0.10597  22.64373     19.72667   8141.08664    -5.69283  0.44652   8783.09024  0.02961  59723.64385   52.5579   2.84532  19.09702  59746.38986 
    14.57136  1.88023   6.05928       2.26468         2386.29728  0.05818  0.01738     0.05595   9.79754     18.64691   9461.58923    -6.56032  1.04477   6391.60856  0.00246  59722.77636  52.20904   3.86337  19.08679  59747.27804 
    14.40613  1.62348   5.00884       0.24112         2765.50913  0.00712  0.02205     0.02851   8.31463     16.24635   6802.89754     -8.2817  1.12267   7933.30703    1e-05  59721.05498  52.38092   0.45562  19.08308  59747.27804 
    14.59942   1.7596   4.42987       0.81511         3261.41586  0.00898  0.01578     0.01902  12.02138     16.34541   9673.04318    -7.03213  0.90773   5996.28879    1e-05  59722.30455  52.17252    0.6228  19.12776  59747.27804 
    14.67457  1.74225   2.61675        0.0075         3909.68309  0.09688  0.02994     0.07523  10.64884     19.62742   9528.10363   -10.27567  0.99808      7500.48  0.02356  59719.06101  52.35581   6.54969  19.12813  59748.30247 
    15.06212  1.70447   8.33191        1.6741         3076.21957  0.21809  0.01129     0.01058  16.41809     19.64897   5446.73762    -5.56943  1.15157  10478.97486  0.02476  59723.76725  52.68473   16.1102  19.11214  59748.30247 
    14.52271  1.74242    2.8715       0.06222         5013.08054  0.00876   0.0429     0.15626   4.73542     18.01204   9430.13242    -9.48535  1.19991   6262.12677  0.00057  59719.85133   52.1164   0.48971  19.06184   59747.3122 
    14.60373  1.74293   4.21816       0.21344         2080.29512  0.17568  0.03236      0.0335   6.05624     16.44573   7510.29276    -8.71372  0.90795   7382.08914    2e-05  59720.62296  52.28612  10.44399  19.10475  59746.38986 
    14.64724  1.66719   1.70025       0.03189         4930.58528   0.0194  0.01382     0.19635  16.91442     17.55904    7079.8872    -9.62299   0.8457   6063.47026   0.0002  59719.71369  52.21206   1.44167  19.08515   59748.3575 
    14.70153  1.74388   4.90897       1.16577         3148.43582  0.03379  0.01014     0.14316  25.71801     18.37274   9949.40601    -6.89092  0.88567   6932.50387  0.00131  59722.44576  52.36245   2.71514  19.03765   59747.3122 
    14.40443  1.68007   4.22237       0.12728         2703.82141  0.00246   0.0246     0.01174   6.68922     17.35357   8487.23588    -8.96838  1.22736   6919.62227  0.00013   59720.3683   52.2403   0.15003  19.09643  59746.38986 
    14.48642  1.45076   5.02385       2.83074         2447.99321  0.00239  0.03327     0.36059   4.70786     18.24546   6041.83382    -7.58796  0.63144   5169.58852  0.00098  59721.74872  51.94921   0.13359  19.10947  59747.27804 
    14.39548   1.9088   7.89366       2.81841         2227.88079  0.47073  0.07064      0.0183   1.77446     17.71745   5752.91101    -7.61104  1.13711    7711.0252  0.00029  59721.72564  52.16992  19.62676  19.07007   59748.3575 
    14.28337  1.47627   5.04148       0.41597         3209.65019  0.05131  0.07607     0.38848   2.20033     16.65653    9356.2904    -8.48188  1.44943   7672.66774    3e-05   59720.8548  52.19685   2.29882  19.08651  59746.38986 
      14.725  1.43149   3.44134       0.26246         2639.88814  0.10291  0.01123     0.01337  21.41166     18.00201   8411.81551    -7.15003  0.72293   8748.86405  0.00056  59722.18665  52.55001   7.99757  19.04874  59746.38986 
    14.68606  1.89653   5.07679       0.74488         2924.41886  0.04949  0.03718      0.0165   6.94391     17.74855   5026.80674    -7.47137  0.84884   7108.12116  0.00031  59721.86531  52.26748   3.03979  19.10524  59748.30247 
    14.46117  1.65297   2.66747        0.2042           2442.943  0.07605  0.03222     0.20096   5.28175     17.79157   7043.61979    -7.46567  1.52368   6263.31836  0.00034  59721.87101  52.12867   4.37073  19.09092   59748.3575 
    14.69038  1.52907   2.48537       0.23198         4675.18733  0.00215  0.02747      0.0269   6.64645     16.01802    5822.6845    -9.99547  0.50494   4877.38008    1e-05  59719.34121  51.93585   0.13041  19.09458   59747.3122 
    14.80387  1.77324   1.14249       0.03348         4513.46484  0.09023   0.0223     0.04892  15.35856     18.95368   6760.96014   -10.10332  0.96728   7184.54841  0.00499  59719.23336  52.35119   6.57793   18.9757  59751.34884 
    14.50701  1.49599   2.82398       0.01092         4526.88241  0.00619  0.01849     0.09232   9.95627     19.96592   9722.11694   -10.31764  0.69747   6277.16436  0.05136  59719.01904  52.19487   0.41223  19.09581  59748.30247 
     14.5139  1.50652   2.13182       0.00571         3487.17976  0.06219  0.01958     0.05078  12.23419     17.71008   8012.99519      -9.034  1.24878   6894.77738  0.00028  59720.30268  52.29538   4.32963  19.04567  59746.38986 
    14.57848  1.88644   4.13637       0.86989         2079.27292  0.00181  0.03972     0.05273   3.71779     19.67572   6191.18919    -7.95922  0.85361   5763.01842  0.02633  59721.37746  52.01618   0.09459  19.05558  59747.27804 
    14.44318  2.15563   7.26985       1.94133         2247.94601  0.01839  0.03961      0.0415   3.68643     16.30188   8569.43165    -9.61156  1.53456   6401.58136    1e-05  59719.72512  52.10644   0.96105  19.07393  59749.29919 
    14.39969  1.54029   5.83578       2.02621           2864.262  0.00993  0.04401     0.07665   4.10368     18.04394   4787.98329    -9.00323   0.8226   6051.13518  0.00061  59720.33345  52.07023   0.53469  19.08146   59747.3122 
    14.35832  1.76105    1.3838       0.07449         3976.75016  0.00134  0.03382     0.02675   5.59992     20.90928   8047.50111    -9.60317  1.56479   6792.61616  0.45082  59719.73351  52.20548   0.07807  19.05308   59747.3122 
    14.32036  1.54727   5.74797       0.47705         2425.47399  0.01857   0.0437     0.03429   3.56256     16.57437   8631.63566    -6.95813  1.22546   9743.56247    2e-05  59722.37855  52.46717   0.96121  19.08808  59746.38986 
    14.67238  1.51022   3.39487       0.64881          2673.1148  0.16677    0.051     0.04965   4.23242     18.43658   5008.37517    -6.76797  0.67571   6925.93228  0.00152  59722.56871  52.19111   9.04999  19.12968   59747.3122 
    14.54996  1.65375   4.79316       0.91122         2251.74718  0.07513  0.01403     0.04625  10.98843     18.54262   9735.67624    -8.49625  0.84833    7001.6418  0.00194  59720.84043  52.29894   5.11351  19.12826  59749.29919 
    14.48474  1.70655   4.54227       0.04838         4919.09672  0.00234  0.06001     0.09076   2.68148     16.07157   9395.69507    -8.96939  0.89896   7165.15842    1e-05  59720.36729  52.16428   0.11156  19.11617   59748.3575 
    14.47408  1.60861    4.2776       0.15202         4026.46156  0.10419  0.01468     0.49211  13.27464     16.53219   5457.35714    -8.82507    1.346   7334.85576    2e-05  59720.51161  52.35642   7.37625  19.08392  59747.27804 
    14.64935  1.94285   3.65671       0.67205          2259.5302  0.01751  0.03126     0.03319   7.95566     17.28458   4968.09517    -9.27979  0.91157   5903.65256  0.00011  59720.05689  52.11991   1.10995  19.13812   59748.3575 
    14.95257  1.92046   16.0593       1.55426         2974.09712   0.3179  0.04528     0.04401  12.75328     18.12855   6833.84961   -12.81984  1.30803  12893.89069  0.00075  59716.51684  52.84284  22.32176  19.08785  59747.27804 
    14.13821  1.26564   5.17202       1.08768         2919.25316  0.00215  0.09567     0.02958    1.5114     19.38068    9811.1418    -8.36721  1.10418    7520.6544  0.01335  59720.96947  52.12334    0.0848  19.10667  59746.38986 
    14.67302  1.64479   3.21266       0.04082         2027.09211  0.04044  0.01439     0.01097  12.16839     18.06759    9905.4812    -8.82507  0.57467   6699.20655  0.00065  59720.51161   52.2699   2.81221  19.08394   59747.3122 
    14.57057  1.93025   6.58654        3.6694         2125.16266  0.06971  0.02285     0.13152   8.25395     18.31438   7256.57363    -5.63702  1.35311   7623.18034  0.00115  59723.69966  52.34557   4.45605  19.08614  59749.29919 
    14.52169  1.93251   7.46104       2.87184         2690.86339  0.00116  0.04268     0.06277   4.77689     17.16681   8165.75918    -8.46103  0.95581   7576.77174    8e-05  59720.87565   52.2829   0.06492  19.10178  59746.38986 
    14.50082  1.32969   3.53411       0.48574         3060.89165  0.03934   0.0105     0.01698  14.01401     20.01947     9117.851    -7.60474  0.56903   6538.23085   0.0581  59721.73194  52.26134   2.81621   19.1185  59748.30247 
    14.39351  1.63461   4.92621       0.42265         3879.82379  0.00294  0.03675     0.01147   3.86387     17.88711    4414.3129    -8.76518  1.06501   6396.01416  0.00043   59720.5715  52.11129   0.15572  19.08574   59747.3122 
     14.3389  1.28198   3.82311       0.76224         3311.80104  0.10096  0.02958     0.04975   7.44821      20.2691   6534.45277      -7.506  1.05408   7479.16767  0.10323  59721.83068  52.31879     6.304   19.0413  59747.27804 
    14.40019  1.36897   4.37541       2.64147         2277.07053  0.00635  0.03933     0.07261   6.62917     18.35252   7818.99425    -7.66888  0.96031   6943.20826  0.00125   59721.6678  52.24233    0.3855   19.1134  59747.27804 
    14.61852  1.98832    4.9886        0.5589         2121.68276  0.00596   0.0169     0.07535   9.95096     19.01903   9902.35754    -7.45965    0.895   7109.02113   0.0058  59721.87703  52.30291   0.39703  19.05531  59746.38986 
    14.84969  2.11483   4.84767       3.40431         2213.48926  0.04648  0.02994     0.01593   7.59732     19.81084   8119.95292    -5.00581  0.73981   6145.94623  0.03594  59724.33087  52.15025    2.9154   19.1064  59747.27804 
    14.67204  1.59131   3.88667       0.37761         3248.05295  0.08979  0.02643     0.07339  12.40996     16.66809   9988.39638    -9.24307  0.75274   7343.00409    3e-05  59720.09361  52.35137   6.26925  19.11656   59747.3122 
    14.44514  1.22514   2.23435       0.29328         2366.07124  0.14563  0.02519     0.13997   8.21195     18.43438    8658.7233    -8.48121  0.86654   6543.30696  0.00151  59720.85547  52.21239   9.29833  19.10732  59746.38986 
     14.7693  2.08799   5.48364       4.01689         2686.56183  0.00115  0.05299     0.03954   5.07479     16.72924   9694.78964    -4.07678  1.08998   6435.21471    3e-05   59725.2599  52.14779   0.06535  19.12459  59746.38986 
    14.49946  1.90778   7.47482        2.7465         2408.80852  0.00871  0.06789     0.24836   2.17339     17.60952   9771.77921     -8.2493  0.79157    8066.6487  0.00023  59721.08738  52.23861   0.38854  19.01802  59746.38986 
    14.41036  1.36488   3.57763       1.43477         2265.73612  0.08889  0.06386     0.16167   4.83729      18.5843   9750.73331    -7.02249  1.36385   7900.71086  0.00213  59722.31419  52.32067   4.99526  19.07782   59747.3122 
    14.74316  1.65072   4.37181       1.80659         2577.09529  0.32692   0.0526     0.01514   6.09035     16.66111   3964.06467    -7.07499  1.16202   8591.75989    3e-05  59722.26169  52.41852  19.46124  19.11861  59747.27804 
    14.53168  1.31488   4.18147       0.58462         3332.82827  0.03308  0.01786     0.01867   8.81325     17.49753   9230.45886    -7.35239  0.54445   6540.93412  0.00017  59721.98429  52.21897    2.1459  19.08501  59748.30247 
    14.49802  1.58398   4.56403       1.04546         2551.18806  0.05889  0.02351     0.09694  11.54097      18.3068   7502.88312    -8.50416  1.07218   6878.39044  0.00113  59720.83252  52.28802   4.05026  19.04309  59747.27804 
    14.50235  1.71391   4.11055       0.01315         2873.24293  0.01135  0.03227     0.07448   6.24212     17.84537   4675.27339    -9.60847  1.01238   7125.49325  0.00039  59719.72821  52.25857   0.67987   19.0697  59748.30247 
    14.70037  1.86408    5.2844       4.90032         2521.47299  0.05506   0.0427     0.06427   5.06941     16.31745   7687.35251    -4.41512  0.90478   5430.42861    1e-05  59724.92156  52.00022   3.13163  19.10101  59749.29919 
    15.17044  2.01659   4.78453        2.0867         2312.14689  0.34207  0.05606     0.01687   5.68717     17.58311   7187.57089    -5.66549   0.4828   9844.49035  0.00021  59723.67119  52.52945  20.02426  19.08354   59748.3575 
    14.76965  1.84821   3.93393       3.55975         2201.47471  0.08422  0.01572     0.01404  18.44753     18.07128   7212.88584    -4.01896  1.47494   8912.24829  0.00065  59725.31772  52.55387    6.3634  19.06685  59746.38986 
    15.14065  1.94075   9.92092       0.98156         3256.28623  0.24045  0.01034     0.02038  16.26685     18.82741   5740.53941    -7.30982  1.16563   9768.35688  0.00373  59722.02686  52.62295  17.73018  19.12204  59748.30247 
    14.23169  1.69723   5.83002       1.58607         2073.14177  0.00154  0.17327     0.01564   1.21126     16.97433   8661.17014     -13.169  0.97807   6970.47732    5e-05  59716.16768  52.02052   0.05575  19.09945  59746.38986 
    14.79908     1.82   3.78694       0.37426         2361.28586  0.07748  0.01096     0.09743  19.71599     18.62035   8581.40584     -7.0836  0.73318   7667.91825  0.00232  59722.25308  52.42874    5.9288  19.05819  59748.30247 
    14.52342  1.82847    7.7932       2.33986         3607.79055  0.02364  0.04662     0.01019   3.52772     18.80208   3341.62064    -9.24699  0.80438   5409.53641  0.00352  59720.08969  51.95486   1.22035  19.09305  59746.38986 
