 log(Bfield)      Mns    Pspin  cutoff_power  cutoff_wavelength  fnickel    kappa  kappagamma  mejecta  log(nhhost)  temperature  texplosion  thetaPB     vejecta      A_V        MJD_0   log(KE)     M_Ni  Peak_mag     Peak_MJD 
     13.1526  1.52921  1.86331       1.78741         2961.52479   0.0026  0.08964      0.0113  3.01519      16.7458   7492.07142       -2.22  1.47163  5475.34185    3e-05   58411.3179  51.94584  0.12824    15.329     58463.82 
    13.76305  1.43387  1.86652       1.67394         3066.34013  0.00138  0.07434     0.01087  3.59228     18.45587   7171.68808    -1.63122  0.25496  5441.29855  0.00159  58411.90668  51.96215  0.07175  15.32981     58463.84 
    13.51416  1.64766   2.0251       1.65906         3032.92451  0.00202  0.08526     0.01165  3.14314     16.18098   8619.40232    -1.73554  0.54061  5464.59546    1e-05  58411.80237  51.94938  0.10115  15.34444     58464.97 
    13.32689  1.85587  2.23859       1.59572          2981.5711  0.00223  0.12812     0.01857  2.16935     19.22349    5102.9828    -2.06514  1.39844  5625.20636  0.00929  58411.47276  51.92524  0.09935  15.33575     58464.97 
    13.45727  1.34685  1.62882        2.0421         2809.72774  0.00131  0.10349     0.01205  2.78101     18.67225   4376.92596    -1.77757   0.3839  5655.72905  0.00261  58411.76033  51.96358  0.06332  15.32211     58463.82 
    13.21663  1.49541  1.88099       1.61619         2959.63051  0.00105  0.08288     0.01114  3.52049     17.08535   7455.63968    -1.85026  1.13304  5679.66391    7e-05  58411.68764  51.99694  0.05436  15.31824     58464.97 
    13.25311  1.68503  1.98869       1.63691         3049.29977  0.00135   0.0812     0.01069  3.54457     17.73433   9590.95821    -1.94558  1.11426  5718.07733   0.0003  58411.59232  52.00362  0.06977  15.31903     58463.84 
    13.44425  1.95312  2.24983       1.55098          2967.9011  0.00164  0.08742     0.01156  3.32564     16.12888   9518.88591    -1.68481  0.87963  5709.60065    1e-05  58411.85309  51.99452  0.08342  15.31764  58466.49805 
    13.29815  1.91168  2.15208       1.64278         2979.70089  0.00178  0.08952     0.01078  2.93457     16.69277   8269.30153    -2.09952  1.31479  5411.41831    3e-05  58411.43838  51.93217  0.08734  15.33142     58464.97 
    13.41461  1.83427  2.20162       1.45876         3077.32891  0.00128  0.07604     0.01056  3.61436     18.79519   7775.76077    -2.06494  0.88398  5567.12873  0.00347  58411.47296  51.98275  0.06663  15.30826     58464.97 
    13.54983  1.84612  2.14825       1.63671         3003.46589  0.00297  0.08524     0.01073  3.31238     17.76116   9678.41446    -2.07371  0.56594  5584.80607  0.00032  58411.46419  51.97483  0.15057  15.31908     58464.54 
    13.64686  1.56248  1.96476       1.42631         3044.82813  0.00141  0.10108     0.01646  2.60272      17.7407   8334.13708    -1.87892  0.36399  5850.91182  0.00031  58411.65898  51.98433  0.06668   15.3345     58465.57 
    13.46739  1.72169  2.04713       1.66841         3017.78857  0.00272  0.16291     0.02101   1.6481     16.13937   8190.14308    -1.99072  0.63264   5478.3919    1e-05  58411.54718  51.86173  0.11049  15.33123  58465.40197 
    13.40236  1.53557  1.89571       1.59028         3106.88014  0.00121    0.091     0.01177  2.87493      18.3441   7911.67896    -1.78611  0.62683   5370.4911  0.00123  58411.75179  51.92294  0.05905  15.33009     58464.97 
    13.42696  1.88941  2.21716       1.48084         3014.27399  0.00189  0.08736     0.01333  3.16695     18.33148   7923.32168    -2.01899  0.85264  5875.42687  0.00119  58411.51891   52.0133  0.09441  15.31157     58464.54 
    13.24662  1.74658  1.95661       1.58066         3026.89067  0.00182  0.12928     0.01569  2.03644     19.87056   7194.97739    -1.65359  1.23311  5478.89393  0.04124  58411.88431  51.89335  0.07937  15.32625     58465.57 
    13.37241  1.70622  1.99982       1.40616         3201.36264  0.00211  0.09882      0.0126  2.73871     18.99386   6692.55098     -2.0914  0.76724  5473.90584  0.00548   58411.4465  51.93319  0.10145    15.321     58464.97 
    13.23215  1.62306  1.97592       1.49347         3039.56209  0.00214   0.0789     0.01052  3.68192     16.85408   8913.23099    -2.37416  1.22749  5738.10844    4e-05  58411.16374  52.01125  0.11175  15.33222     58464.54 
    13.17509  1.32473  1.74122       1.57816         3062.18911   0.0016  0.07716     0.01105  3.55669     18.45665   6098.67822    -1.70493  0.99809  5530.58046  0.00159  58411.83297  51.97508  0.08269  15.32589  58465.40197 
     13.5195  1.75879  2.21128       1.70787         3010.43924  0.00135  0.07796     0.01191  3.66763     18.35848   3809.48364     -1.9962  0.66112  5612.29876  0.00127   58411.5417  51.99153  0.07066   15.3067     58464.97 
     13.3392  1.66216  2.06967       1.55635         3101.04755  0.00112  0.07483     0.01071  3.63504     17.26671   4493.49942    -1.71885  0.94666  5560.29511   0.0001  58411.81905  51.98237  0.05819   15.3138     58464.97 
    13.41949  1.14454  1.47372       1.77294         2922.10796  0.00111  0.18759     0.02467  1.45044      17.3629   4696.53759    -1.72404  0.34818  5571.52458  0.00013  58411.81386  51.85616  0.04316  15.30857     58464.97 
    13.26774  1.74161  2.09567       1.44747          3043.2303  0.00126  0.09865      0.0141  2.66778     17.18948   7924.63437    -2.27457   1.4675  5429.27948    9e-05  58411.26334  51.92263  0.05979  15.31568     58463.84 
    13.39999  1.82905  2.22678       1.84667         2946.69242  0.00181  0.08564     0.01226   3.1158     18.54087   5782.79032    -2.01562  0.96746  5425.55948  0.00193  58411.52228  51.94206  0.09006  15.31949     58464.54 
    13.30164  1.59058  1.87174        1.6815         2929.38553  0.00139  0.19402     0.02362  1.42921     16.09978   5523.86821    -1.92099  0.81985  5588.07155    1e-05  58411.61691  51.85634  0.05342  15.33432     58463.84 
    13.40807  1.54787  1.89892       1.51157         3115.00091  0.00236  0.07713     0.01025  3.76522     16.14688   8475.19576     -2.2162  0.61143  5716.68784    1e-05   58411.3217  52.01069  0.12414  15.32999     58464.97 
    13.44622  1.66554  2.12056       1.59217         3028.48956  0.00136  0.07034     0.01083  4.20671     17.45441   5083.28532    -1.97967  0.73533  5805.95987  0.00016  58411.55823  52.03719  0.07392  15.31616     58464.97 
    13.34833  1.71784  2.08775       1.43996         3083.21221  0.00116  0.14344     0.01977  1.98945     16.64782   3047.45499    -2.16322  0.95738  5669.11144    2e-05  58411.37468  51.91962  0.05034  15.31139     58464.54 
    13.44296  1.95998  2.22921       1.48206         3044.28773  0.00305  0.17593     0.02231  1.60907     18.81076   9023.62974    -2.59422  0.82575  5585.54351  0.00359  58410.94368  51.87484  0.12289  15.31712     58464.97 
    13.44747   1.7679  2.14249       1.47047         2980.19672  0.00177  0.07561     0.01094  3.82529     18.70697   6338.13311    -2.38181  0.77084  5680.29455  0.00283  58411.15609  52.00703  0.09361  15.32661     58464.54 
    13.62944  1.75411  2.18578       1.70259         2978.36359  0.00151  0.07875     0.01155  3.61577     17.40018   3514.67547    -1.66735  0.49164  5605.00662  0.00014  58411.87055  51.98868  0.07853  15.31003     58464.97 
    13.22224  1.61805  1.91362       1.53356         2988.47547   0.0013  0.18363     0.02433  1.52825     19.28822   9051.99133    -2.12869   1.1612  5712.20053  0.01079  58411.40921   51.8862  0.05135  15.31546     58464.97 
     13.5094  1.60938  1.89113        1.7959         3031.19468  0.00136  0.10594     0.01352  2.45464      17.0411    5092.0975    -2.37088  0.45361  5445.73212    6e-05  58411.16702  51.91413  0.06309  15.33363     58464.54 
    13.81229  1.85494  2.16607       1.66176         3093.07874  0.00251  0.09133     0.01184  2.88263     16.07113   8747.39915    -1.92427  0.30762  5407.54856    1e-05  58411.61363  51.92925  0.12221  15.32692     58463.17 
    13.34424  1.75777  2.06354       1.44341         3039.27858  0.00138  0.07961     0.01118  3.51386     19.23982   6674.51238    -2.01756   0.9509   5770.9435  0.00965  58411.52035  52.01056  0.07125  15.31363     58464.54 
    13.54846  1.64275  1.92475        1.3781         3125.75221  0.00128  0.12719     0.01574  2.06378     19.30162    4399.3906    -2.07954  0.45791  5376.41242  0.01113  58411.45837  51.87886  0.05605  15.33789     58464.97 
    13.48666  1.88862  2.24372       1.38654         3092.52103  0.00195  0.07368     0.01047  3.99928     19.06433   7734.60133    -2.09044  0.77329  5736.17629  0.00644  58411.44747  52.02079  0.10416  15.33877     58464.54 
       13.36  1.98618  2.26524       1.73515         3075.34343  0.00127  0.12606     0.01616  2.03928     17.48243   4542.67937    -1.64948  1.12167  5377.01247  0.00017  58411.88842  51.87725  0.05535  15.33981     58464.54 
    13.46863  1.76105  2.12425       1.70799         3004.75895  0.00342  0.18916     0.02609  1.44263     16.77823   4393.33617    -1.87277  0.67845  5600.61271    3e-05  58411.66513  51.85981  0.13246  15.34752     58464.54 
    13.36673  1.74227  2.12051       1.50939         3048.96654   0.0018  0.07509     0.01063  3.56908     17.70524   3088.87761     -2.0919  0.93594  5451.95501  0.00028    58411.446  51.96306  0.09341  15.31126     58463.84 
    13.19999  1.60205  1.92865       1.35268         3019.15632  0.00122  0.10042     0.01343  3.05487     18.54105   8177.35458    -2.12847  1.33437  5983.88656  0.00193  58411.40943  52.02464  0.06049  15.32413     58464.97 
    13.56913  1.67347  2.13055       1.67373         2978.06194  0.00237  0.07413     0.01159  3.70921     17.85656   5732.76448    -1.66635  0.54178  5529.88193   0.0004  58411.87156  51.98003  0.12414  15.31113     58463.84 
    13.71428  1.72413   2.0628       1.63276         2995.16018  0.00166  0.08926     0.01331  2.94135     17.82131   9331.23157    -1.56986   0.3409  5698.84492  0.00037  58411.96804  51.97742  0.08138  15.31569     58463.57 
    13.47763  1.75043  2.09172       1.27567          3153.4419  0.00291  0.09262     0.01209  3.20644     18.14241   5449.35862    -2.14341  0.67567  5708.75153  0.00077  58411.39449  51.98985  0.14641  15.32995     58463.84 
    13.55776  1.71471   2.1685       1.66488         2969.76813  0.00103  0.07598     0.01184  3.85493     19.18396   6580.91953    -2.19872  0.57629  5694.07457  0.00849  58411.33918  52.01005  0.05466  15.31239     58465.57 
     13.4939  1.73856  2.06965       1.53138         3099.97569  0.00226  0.10284     0.01347  2.68747     17.46847   4256.15803    -1.77762  0.60211  5519.77894  0.00016  58411.76028  51.93796  0.10797  15.29904     58464.97 
    13.33114  1.98657  2.24595       1.44835         3051.97556  0.00205  0.15585     0.02125  1.70214     19.25373   4085.46678    -1.94708  1.37082  5608.48796  0.00996  58411.59083  51.88708  0.08437  15.30998     58465.57 
     13.6109   1.8185  2.22565       1.65318         2987.70009  0.00113  0.07683     0.01102  3.56436     18.09918   7832.88052    -1.86583  0.53008  5504.37637   0.0007  58411.67207  51.97121   0.0583  15.31322     58465.49 
    13.72065  1.97173   2.3257        1.5374         3076.83095  0.00128  0.08669     0.01281  3.18427     19.48038   9180.29325    -1.55728  0.45349  5733.52331  0.01679  58411.98062  51.99274  0.06427  15.33774     58463.82 
    13.38135  1.91206  2.29616        1.3966         3053.16489  0.00171  0.08887     0.01333  3.03852     17.35753   7245.79225     -2.2233  1.20334  5527.51005  0.00013   58411.3146  51.95505  0.08436  15.33735     58464.97 
    13.39687  1.55292  1.92201       1.42664         3203.62175  0.00148  0.12128     0.01707  2.15811     16.31888   8509.18551    -2.23807  0.65354  5489.77203    1e-05  58411.29983  51.90334  0.06602  15.32244  58465.40197 
    13.77378  1.69741  2.12006       1.73115         3030.39588  0.00448  0.08015     0.01178  3.37988     16.80642   9506.86316    -1.89444  0.31512  5524.57277    4e-05  58411.64346   51.9679  0.22867  15.32124     58465.57 
    13.57894  1.98966  2.44511       1.80203         2893.15308    0.007  0.16055      0.0262  1.76182     16.69192   6159.25951    -1.77729  0.72742  5626.68204    3e-05  58411.76061  51.89513  0.29116  15.33151     58464.97 
    13.20069  1.56155  1.88614       1.64335         2919.15722  0.00102  0.10044     0.01274  2.84025     19.51974   8828.00494    -2.04516  1.27636  5597.06439  0.01838  58411.49274  51.95726  0.04948  15.32341     58466.54 
    13.30348  1.63965   2.0232       1.46244         3045.96546  0.00215  0.07951     0.01164  3.47654     17.77311   5486.98601    -1.69264   1.0339  5642.83555  0.00033  58411.84526  51.98976  0.11043  15.31263     58463.84 
    13.54935  1.73808  2.14624        1.4176         3077.01031  0.00166  0.08058     0.01202  3.41374     16.02983   4620.37475    -2.49609  0.57478  5574.14959    1e-05  58411.04181  51.97689  0.08471  15.30364     58464.54 
    13.14119  1.17248  1.59435       1.81717         2922.74359  0.00124  0.14772     0.02126  1.82535     16.09687   8246.70281    -1.91642  0.88829  5445.54057    1e-05  58411.62149  51.87202   0.0521  15.31167     58464.97 
    13.42488  1.69146   2.0361        1.8978         2905.99844  0.00175  0.07663     0.01024  3.67549     18.60229   5026.50722    -1.89735  0.68739  5577.48006  0.00222  58411.64055  51.98638   0.0916  15.32323  58466.49805 
    13.61571  1.96185  2.24349       1.80308         2933.80301  0.00261  0.09674     0.01195  2.96888     18.02633    6580.3218    -2.11473  0.52456  5618.26433  0.00059  58411.42317  51.96624  0.12819  15.32108     58464.54 
    13.29426  1.76056   2.0894       1.42405         3053.06125  0.00116  0.09063      0.0119  2.92448      16.3363   4368.82716    -1.86697  1.16587  5455.70995    1e-05  58411.67093  51.93881  0.05679  15.30933  58465.40197 
    13.56465   1.6845  2.12314       1.50421         3081.20692  0.00152   0.0834     0.01196  3.35908     18.42074   8788.22419    -1.98347  0.54349  5554.89473  0.00146  58411.55444  51.97189  0.07725  15.33511     58464.54 
    13.24443  1.59396  2.02182       1.65209         2973.48874  0.00232  0.06518     0.01103  4.04565      16.6696   6868.99501    -1.52272  1.32891  5825.39558    3e-05  58412.01518  52.03555   0.1243  15.31962     58464.97 
    13.57884  1.94408  2.24158       1.42168         3071.26814  0.00151  0.16443     0.02297  1.68598     18.62041   6635.73099    -2.13473  0.58664   5693.7301  0.00232  58411.40317  51.89872  0.06166  15.32282     58464.54 
    13.39064  2.00901  2.37157       1.71847         2934.19207  0.00271  0.07211     0.01107  3.68335     17.44988   5588.97374    -1.55917   1.2828  5677.83752  0.00016  58411.97873  52.00213  0.14136  15.34736     58463.84 
    13.29323  1.45567  1.77227       1.66995         2963.10717   0.0016  0.09054     0.01142   3.1373     16.76943   5930.44442    -2.02504  0.72541  5644.05486    3e-05  58411.51286  51.97722     0.08  15.31257     58464.54 
    13.25381   1.4556  1.87063       1.72226         3046.91856  0.00177  0.19138     0.02786  1.39234     17.16885   8051.38127    -1.89852  0.93748  5432.60547    8e-05  58411.63938  51.82756  0.06762   15.3087  58465.40197 
    13.39564  1.89207  2.29916       1.78622         2945.24476  0.00182  0.12957     0.01911  2.02457     17.57425    7782.4468    -1.52222  1.08619  5448.98379  0.00021  58412.01568  51.88775   0.0792   15.3374     58464.97 
    13.36703  1.83372  2.11767       1.68638         2971.51905  0.00133  0.09618     0.01233  2.96128     19.13658   8878.45418    -1.76546  0.91872  5643.04177  0.00761  58411.77244  51.96974  0.06531   15.3576     58465.49 
    13.88303  1.90902  2.19334       1.61166         3020.64802  0.00222  0.12684      0.0186  1.97408     18.10235   8277.23892    -1.82764  0.26146  5640.47693   0.0007  58411.71026   51.9141  0.09588   15.3137  58465.40197 
    13.68417  1.51798  2.00048       1.63073         2917.16576  0.00182  0.14311     0.02283  2.09236     17.99742   5830.58096    -2.06985   0.3603  5751.35554  0.00055  58411.46805  51.93938  0.08015  15.31783  58465.40197 
    13.24847  1.65651  1.97888       1.81954          2990.9317  0.00574  0.07697     0.01005  3.73378     16.99848     5555.625    -1.84011  1.09193  5660.87172    6e-05  58411.69779  52.00116  0.30091  15.33399     58464.54 
    13.62241  1.52589  1.81202       1.73225         3025.22696  0.00175   0.1231     0.01515  2.13022     18.40872    7738.1036    -1.98467  0.32427  5509.58659  0.00142  58411.55323  51.90463  0.07773  15.30802  58465.40197 
     13.5877  1.99049  2.27877       1.67133         2941.15214  0.00149  0.11399      0.0147  2.54602     16.97139   4677.06174    -1.85482  0.59336  5694.10663    5e-05  58411.68308  51.95779  0.06977   15.3022  58465.40197 
     13.5723  1.71964  2.09527       1.52319         2936.19756  0.00252  0.08595     0.01276  3.39765      17.4679   3674.94249    -2.47696  0.51179  5821.29086  0.00016  58411.06094  52.01399  0.12892  15.30292     58464.97 
     13.7415   1.9885  2.24239       1.62994         3034.49615  0.00219  0.11066     0.01396  2.52442     17.78063   9068.32176    -2.04116  0.39195  5563.30956  0.00034  58411.49674  51.93647  0.10243    15.293     58464.54 
     13.7065  1.63904   1.9982       1.49007         3108.47081  0.00139  0.08789      0.0115  3.23654     16.73287   4078.36922    -1.81582  0.33768  5603.94503    3e-05  58411.72208  51.97492  0.07019  15.32585     58465.49 
    13.29053  1.73886  2.06114        1.8607          3028.3894  0.00105  0.07723        0.01  3.45662     17.84434   6259.79873    -1.52391   1.0623  5477.68009  0.00039  58412.01399  51.96325  0.05384  15.32646     58464.97 
    13.73556  1.72885  2.01999       1.47354         2930.92294    0.001  0.07991     0.01115  3.59223     16.64602   8048.58144    -2.01804  0.32015  5922.06522    2e-05  58411.51986  52.03569  0.05201  15.30887     58464.54 
    13.23581  1.63461  2.00861       1.44571          3090.5422  0.00202  0.08793     0.01185  3.24201     17.17799   3812.37745    -1.76187  1.40577  5696.28759    8e-05  58411.77603  51.98933  0.10187  15.34896     58465.57 
    13.62109  1.79163  2.16931       1.53897         3114.41201  0.00184   0.1219      0.0173  2.29709     17.64139   8782.22903    -2.11999  0.48944    5558.412  0.00024  58411.41791  51.92284  0.08362  15.32874     58463.84 
     13.4161  1.69291  2.05534       1.92656         2945.97594  0.00138  0.11907     0.01641  2.20084     18.81051   3355.77201    -1.68261  0.73856  5374.41368  0.00359  58411.85529  51.88765  0.06161  15.31077     58463.84 
    13.62215  1.61846  2.01959       1.78016         3031.62626  0.00381  0.12492     0.01762  2.12842     17.39019   5260.02588    -1.70994  0.41223   5450.7028  0.00014  58411.82797  51.89517  0.16881  15.30744     58464.97 
    13.41224  1.97164  2.41375       1.66141         3084.26745  0.00237  0.07176     0.01089   3.5859      18.7832   4667.20908    -2.03871  1.27214  5340.96195  0.00337   58411.4992  51.94577  0.12288  15.31307  58465.40197 
    13.26938  1.63246  2.05206       1.93807         2893.10177  0.00213   0.0809       0.012   3.4009     16.07758   6089.53405    -1.85683  1.19134  5540.26739    1e-05  58411.68107  51.97113  0.10893  15.32084     58464.97 
    13.74243  1.77461  2.08138        1.5551         3001.35064  0.00189  0.09622     0.01307  2.87008     18.78155    3919.5439    -1.76975  0.33209  5698.26447  0.00336  58411.76815  51.97418  0.09193  15.33524     58464.97 
    13.19572  1.33074  1.69827       1.57647         3039.45135   0.0011  0.08005     0.01098  3.45834     19.00688   5635.59024    -1.92077  0.87492  5642.67758  0.00564  58411.61714  51.98909  0.05626  15.32562     58465.57 
    13.30153  1.63106  2.05314       1.56433         3008.52533   0.0011  0.06892     0.01049  4.20288     17.74733   8937.45061    -2.17274  1.05862  5855.82944  0.00031  58411.36516  52.04452  0.05951  15.31865     58464.97 
