 texplosion  fnickel    Pspin  log(Bfield)      Mns  thetaPB   mejecta    kappa  kappagamma     vejecta  temperature    alpha  cutoff_wavelength  log(nhhost)      A_V         MJD0  kenergy  mnickel            TSD   log(L0)  Peak_mag     Peak_MJD  log(E_rad)  log(Peak_lum)  Rise_Time    E_fold  tau_1  delta_m15     r_peak     frac 
   -2.29984  0.00579  2.38104     13.85552  1.86102  1.18801  18.34755  0.05409      0.0167  5736.20996   7970.63946  2.02438         3030.06051     16.71593    3e-05  58411.23806  3.60127  0.10621  1905725.27814    45.505  15.31798   58469.7194    51.45381       44.59993   38.77179  52.96167   73.0    0.10616  -21.81155  0.99711 
   -2.18818  0.02723  2.10922     13.81343  1.70761  1.26772  17.66141  0.06167     0.01766  5747.44234   7617.50253  1.96053         3066.57961     17.03673    6e-05  58411.34973  3.48018  0.48089  1665624.61404  45.63141   15.2962     58469.64    51.46329       44.61525   38.12236  52.65854   73.0    0.10172  -21.83153  0.98846 
   -2.19346  0.01464  2.48148     13.86316  1.92092  1.23016  12.69144  0.07444     0.02601  6092.43437    8072.7367  1.77189         3126.12625     17.34601  0.00012  58411.34444  2.81009  0.18579  2062636.63567  45.44851  15.27349     58469.64    51.45367       44.60553   38.77179  52.96167   72.5    0.11213  -21.84777  0.99477 
   -2.09045  0.01977  2.28064     13.88084  1.83212  1.05764  11.34467   0.0858     0.02408  5597.09567   7342.61392  2.11052         3008.96808     17.48196  0.00017  58411.44745  2.12004  0.22429  1531794.64383  45.63049  15.29172     58468.58    51.47426       44.63846   36.58581  50.95153   76.0    0.10763  -21.82486  0.99429 
   -2.55731  0.01478   2.2855     13.88989   1.7177  0.80484  19.11352  0.04695      0.0146  5939.36459   8031.95022  1.77441         3031.32915     16.17941    1e-05  58410.98059  4.02205  0.28246  1383411.67056  45.64488  15.31898   58471.3877    51.46378       44.61351   37.70696  53.07394   74.0    0.11096    -21.824  0.99203 
   -2.31789  0.00631  2.43987     13.82033  1.88171   1.2988  16.14149  0.05469     0.01773  6038.14739   8204.20038  1.77359         3048.17783     18.63781  0.00241  58411.22001  3.51057  0.10193  2379224.96803  45.39223  15.33067     58468.58    51.45422       44.60589   38.26293  53.47053   72.5    0.11284  -21.84641  0.99713 
   -1.94817  0.00961  2.44767     13.88053  1.98151  1.43119  21.61687  0.05011     0.01599  5910.39169   7924.27907  2.19111         2927.56459      16.4073    1e-05  58411.58973  4.50456  0.20769  1911021.06777  45.50707  15.32381   58469.7194     51.4529       44.59952   37.95196  52.82893   72.5     0.0994  -21.82015  0.99459 
   -2.48362  0.00991  1.86517     13.67054  1.39649  1.23541  18.15614  0.05485     0.01623  5608.08252   8063.96495  2.05428         2988.84964     18.51964  0.00184  58411.05428  3.40627  0.17997  2056908.22624  45.55923  15.32089   58469.7194    51.47685       44.62458   37.21218  53.56872   71.5    0.10302  -21.80337  0.99539 
    -2.8433  0.01198  2.36252     13.91374  1.79174  0.85417  20.41722  0.04743     0.01522  5707.67713   8252.60267  2.05823         3075.68922     16.96246    5e-05  58410.69461  3.96773  0.24468  1381533.19638  45.63501  15.30367     58468.58    51.46373       44.62886   36.86829  50.66905   72.0    0.10719  -21.81795  0.99308 
   -2.81969  0.00471  2.43274     13.81981  1.83726  1.15686  14.44078   0.0622     0.01773  5752.82557   8248.96607  1.86883          3085.6539     17.95377   0.0005  58410.71821  2.85089    0.068  2315080.11172  45.39626  15.30289   58469.7194    51.45859         44.608   37.33003  53.45087   73.5    0.10331   -21.8192  0.99802 
   -2.29878  0.02087  2.26971      13.7738  1.71112  1.27292  13.23956  0.07249      0.0244  6149.52268   8282.03374    1.748         3055.85075     17.79167  0.00034  58411.23912  2.98664  0.27636  2319704.05313  45.42475  15.29366   58471.3877     51.4756       44.62441   37.70696  53.07394   71.5    0.10814  -21.84299  0.99227 
   -1.95851  0.01574  2.08286     13.81891  1.56603   0.8992  21.55169  0.04471     0.01331  5787.86062   8047.90249  2.08302         3032.93248     17.17964    8e-05  58411.57939   4.3067  0.33914  1452495.08013  45.66421  15.29361     58469.64     51.4601       44.61372   38.12236  52.04408   72.0    0.10472  -21.83948  0.99091 
   -2.15893  0.01629  1.93657     13.75863  1.47558  0.91433  11.64751  0.07756     0.02781  5833.57868   8329.74136  1.69338         3125.59383     19.82388  0.03703  58411.37897  2.36445  0.18972  1561638.07746  45.67016  15.30321     58468.58    51.47947       44.63807   37.71638  52.34099   72.5    0.10747   -21.8639  0.99517 
   -2.19093  0.00203  2.20265     13.73706  1.62986  1.21793   21.0447  0.04218     0.01444  6130.50759   7708.52686  1.86727         2899.09644     16.32162    1e-05  58411.34697  4.71805  0.04265   2464539.8567  45.40337  15.31959     58467.88    51.46457       44.62216   37.70696  51.90351   76.0    0.10943  -21.82397  0.99878 
   -2.37894  0.00354  1.92577     13.78243  1.45027  0.86405  24.07054  0.04286       0.014  6069.01218   7484.46343  1.84041          2924.6826     16.69987    3e-05  58411.15896   5.2887  0.08531  1360221.73727  45.72748  15.29547   58469.7194    51.49782       44.65689   36.82117  52.08151   73.0     0.1068  -21.81948   0.9978 
   -2.00798   0.0371  2.22384     13.74062  1.63144  1.18281   9.63566  0.08606     0.02763   5839.7948   8214.26517  1.81122         3117.05047     16.52012    2e-05  58411.52992  1.96022  0.35745  2473750.99767  45.39385  15.27615   58469.7194    51.46369       44.61884   36.82117  52.14851   74.5    0.11357  -21.84449   0.9897 
   -2.75062   0.0136  2.13281     13.72188  1.55665  1.17686  11.67804  0.07613     0.02506  5747.36369     7237.236  2.15165         2953.43289      16.2357    1e-05  58410.78728  2.30109  0.15882  2366724.89645  45.42898  15.29732     58468.58    51.45191       44.60771   37.70696   51.9412   79.0     0.1089  -21.81771  0.99546 
   -2.09803   0.0103   1.9151     13.76401   1.4849  0.89065  13.50889  0.06872     0.02406  5988.45873   8203.87514  1.66409          3063.7948     19.88328  0.04246  58411.43987  2.88986  0.13911  1499256.36373  45.70028  15.29095     58469.64     51.4606        44.6131   38.77179  52.96167   71.5    0.10869  -21.88274  0.99656 
     -2.509  0.01099  1.92128     13.71705  1.51836  1.25686  13.25568  0.08206     0.02778  6123.79319   7664.20262  1.75427         2948.56783     18.92206  0.00464   58411.0289  2.96531  0.14563  1915472.73124  45.60077  15.30774     58468.58    51.46721       44.62311   37.33003  52.28044   72.5    0.10081  -21.84875  0.99651 
   -2.42908  0.01955  1.86892     13.71233  1.27335  0.77389  19.38853  0.04349     0.01418  5805.90016   8347.46918  1.87585          3107.5895     18.50214  0.00177  58411.10882  3.89862  0.37905  1553392.48481  45.63933  15.31488   58469.7194    51.47061       44.62434   37.95196  52.21447   73.0    0.11374  -21.82323  0.98883 
   -2.36772  0.04372    2.236     13.71825  1.62056  1.41781  12.53332  0.07483     0.02407  6184.77104   8273.62967  1.96708         2957.35369     17.63168  0.00024  58411.17018  2.85983  0.54797   2753802.1237  45.33964  15.30797     58469.64     51.4655       44.61381   38.77179  54.06144   72.0    0.10635  -21.83673  0.98397 
   -2.88461  0.00473  2.41504     13.82733  1.81075  1.08525  18.74343  0.04759      0.0135  5910.77965   7374.66238  1.91552         2990.41759      18.2173  0.00092  58410.65329   3.9063  0.08865  2171994.26483    45.424  15.30522   58471.3877    51.46689       44.61874   37.33003  52.83641   76.0    0.10662  -21.81612   0.9974 
   -2.43451  0.00848  2.36239     13.87931   1.8973  1.14834  15.38459  0.06882     0.02539  6304.01829   7843.88167   1.5802         3127.53831     17.54089  0.00019  58411.10339   3.6471  0.13049  1714135.65449  45.56623  15.30235   58469.7194    51.47433       44.62933   37.33003  52.31813   71.0    0.11114  -21.85983  0.99661 
    -2.7566  0.01553  2.38962     13.88875  1.86416  0.97626  21.83505  0.04074     0.01322  5740.91245   8328.71875  1.72872         3105.35027     18.18522  0.00085   58410.7813  4.29283  0.33909  1649871.73957  45.56522  15.32154     58469.64    51.45463       44.60639   37.71638  53.06451   74.0    0.10531  -21.82281  0.99077 
   -3.32043  0.00212  2.42233     13.85914  1.89266  1.14292   13.7263  0.07006     0.01885  5643.05501    7432.4571  2.00651         3030.76324     17.88614  0.00043  58410.21747  2.60741  0.02905   1972794.2322  45.48237  15.31486     58467.51    51.47069       44.63479   36.82117  50.71617   76.0    0.10409  -21.80986   0.9992 
    -2.8747  0.00345  2.07403      13.7129  1.48356  1.00265  16.46048   0.0497     0.01511  5808.27738   7589.97673  1.75046         3034.52847     18.23933  0.00096  58410.66321  3.31256  0.05686  2223102.83352  45.45956  15.30299   58469.7194    51.46483        44.6104   38.26293  53.47053   76.5    0.10824  -21.80635  0.99834 
   -2.31178  0.00521  2.17119     13.67231  1.51395  1.12558  12.81995  0.05341     0.01449  5407.28697   7397.05601   2.1229         3033.25227     18.99241  0.00546  58411.22612    2.236  0.06676  2997114.39728  45.29886  15.28688     58468.58    51.46907        44.6331   36.58581  50.95153   80.5    0.11111  -21.80892  0.99792 
   -2.43582  0.03652   2.3167     13.83387  1.85691  1.35511  17.09996  0.05928     0.01962  6103.41453   8189.04382  1.69397         3066.70431     19.68795  0.02708  58411.10208  3.79986  0.62453  1988897.36566  45.50928  15.29829   58469.7194    51.44542       44.58759   39.09835  54.65836   71.0    0.10462  -21.85478  0.98409 
   -2.11313  0.02925  2.20181     13.78461  1.68931  1.31403  19.64267  0.04786      0.0148  5697.71424   7845.25921  1.79934         3136.94875     16.82311    4e-05  58411.42477   3.8039  0.57462  2050481.18049  45.49914  15.31894     58468.58    51.47614        44.6354   37.21218   51.7575   74.0    0.10866  -21.81451  0.98475 
   -2.45611  0.00259  2.69784     13.86418   2.0772  1.27821  13.69317  0.06279     0.01777  5999.24549   7441.05452  1.80801         3089.04065     18.44733  0.00156  58411.08179  2.93985  0.03549  2623963.68847  45.30533  15.31469     58468.58    51.47215       44.63197   36.82117  52.08151   76.0    0.11003  -21.84921  0.99894 
   -2.65214  0.01523  2.17278     13.75212  1.65864  1.32135  12.18732  0.07476     0.02163  5540.19589    7790.6671  1.99893         3003.34893     18.11466  0.00072  58410.88577  2.23144  0.18562  2276964.38052  45.45721   15.2866     58469.64    51.46282       44.62023   38.12236  52.04408   76.0    0.10777  -21.80048  0.99501 
   -2.62638  0.01583  2.11839     13.84219  1.63204  0.90848  17.90435  0.05551     0.01889  5995.63677   7939.94412  1.75528         3045.69537     18.70086  0.00279  58410.91152  3.83934  0.28343  1406599.73403  45.68139  15.31564   58469.7194    51.45759       44.60222   38.26293   54.5703   71.5    0.10913  -21.83363  0.99261 
   -2.18343  0.01344  1.89762     13.58839  1.32017  1.29433  11.33239   0.0783     0.02436  5958.47351   7434.57266  1.89447         2943.16979      17.7243  0.00029  58411.35448  2.40004  0.15234  2938254.41022  45.36497  15.30135   58469.7194    51.47159        44.6288   37.33003  52.28044   77.5    0.10702  -21.80998  0.99558 
   -2.90418   0.0091   2.1559     13.86373  1.77854  1.08148  24.60089  0.04726     0.01449  6131.90161   7660.44706  1.74197         2965.23906     19.34921  0.01241  58410.63372  5.51783  0.22391  1437759.38616  45.69396  15.29125   58469.7194    51.47943       44.63496   37.21218   51.7575   72.0    0.10087  -21.83377  0.99469 
   -2.27351   0.0245  2.61374     13.95482  1.92095  0.77909  12.08678  0.06827     0.02199  6044.71345   7975.36413  1.83893         3071.55199       17.192    9e-05  58411.26439  2.63445  0.29608  1500443.30517  45.54162  15.28261     58469.64    51.46378       44.61863   37.95196  52.82893   74.5    0.11387  -21.82813  0.99073 
    -3.0056  0.00144  2.07711     13.76224  1.55239  1.00437  20.23697  0.04868     0.01289  5802.65512    7422.9283  1.85097         3051.51196     16.86007    4e-05   58410.5323  4.06468  0.02913   1858909.6739  45.55567  15.30278     58469.64    51.45302       44.59859   38.77179  54.06144   75.0    0.10335  -21.81941  0.99921 
     -2.888  0.00282    2.085     13.73747  1.49495  0.88109  11.42059  0.07513     0.02189  6205.30471   7206.88769   1.7485         3025.06698     19.66412  0.02564   58410.6499  2.62326  0.03226  2021688.10884  45.49955  15.28688     58469.64    51.46126       44.61018   38.26293  53.47053   76.5    0.11271  -21.86723  0.99906 
   -2.47886  0.00989  2.47206     13.79032  1.83846  1.37614  14.41703  0.06464     0.01873  6061.85721   7267.90598  2.10469         2935.43738     17.71333  0.00029  58411.05904   3.1602  0.14261  2739932.29135  45.30944  15.29111   58469.7194    51.45215        44.5991   38.77179  52.96167   77.5    0.10658  -21.82901  0.99572 
   -2.35368  0.01443  2.33104     13.79103  1.76422  1.27688  11.98736   0.0725     0.02083  5576.30309    7714.9034  2.04108         3079.19251     16.94336    5e-05  58411.18422  2.22353  0.17303  2330250.66256   45.4129  15.29428     58469.64    51.46193       44.61732   37.21218  52.39829   75.0    0.10507  -21.82345  0.99511 
   -2.26785  0.01168  2.11622     13.69242  1.51546  1.17022  18.46269  0.04304      0.0126  5617.95217   7748.28322   1.9891          3052.7214     19.44209  0.01538  58411.27005  3.47599   0.2156  2598046.60715  45.38362  15.29262     58469.64    51.48114       44.64155   36.82117  52.08151   77.5    0.11315  -21.82107  0.99368 
   -2.28792  0.00303  2.13537     13.73774  1.53646  1.05927   22.3677  0.03877     0.01215  5815.82789   7946.77919  1.92974         3021.22483     16.40294    1e-05  58411.24998  4.51306  0.06788  2176728.08804  45.45861  15.31917     58469.64    51.45983       44.61862   37.70696   51.9412   74.5     0.1116  -21.80719  0.99801 
   -2.38784  0.00509  2.03557     13.76139  1.56389  1.06745  13.64659  0.07033     0.02072  5629.92993     7283.901  1.99452         3008.01685     19.44499  0.01548  58411.15006  2.58022  0.06942  1805539.70747  45.58907  15.31726     58468.58     51.4467       44.59437   38.12236  53.61111   75.5     0.1025   -21.8225  0.99821 
   -2.22523  0.01392  2.42779     13.87005  1.87936  1.08649  14.49049  0.06437     0.02012  5978.80794   8080.44111  1.76636         3103.00159     16.82479    4e-05  58411.31267  3.08986  0.20172  1871336.91504  45.50028   15.3051     58468.58    51.53784       44.70975   36.27312  49.85771   72.0    0.11091   -21.8387  0.99438 
    -2.4612  0.02832   2.2564     13.80797  1.67734  0.97718  13.93326  0.06051      0.0148  5416.45444   7922.00786  2.22039         3002.16563     19.04854  0.00621   58411.0767  2.43843  0.39454  1920131.47611   45.5033  15.30218     58468.58    51.45592       44.61078   37.71638  52.45006   76.5    0.10515   -21.8154  0.98878 
   -2.39418  0.00813  2.16747     13.77031  1.61091  1.09182  15.36263  0.06338     0.02106  6181.53383   8028.17844  1.68498         3067.65707     17.86501  0.00041  58411.14372  3.50175  0.12489  2023836.77203  45.49783  15.31334   58469.7194    51.45806       44.60832   38.12236  53.61111   71.5    0.10756  -21.83365   0.9965 
   -2.16218  0.00985  2.28369     13.81935  1.72714  1.02823  12.53619   0.0713      0.0215  5839.55698   7257.40528  1.87859          3025.5595     18.49901  0.00175  58411.37572  2.55007  0.12342  1921883.23281  45.50517  15.30858     58468.58    51.46791       44.63237    36.5102  51.02714   78.0    0.10894  -21.82608  0.99654 
   -2.64737  0.04552   2.1925     13.88468   1.8303  1.00629  16.42686   0.0616     0.02299  6084.63314    8591.2131  1.55214         3127.34796     20.06052  0.06386  58410.89053  3.62786  0.74779  1389521.52331  45.70662  15.31271     58468.58    51.46632       44.62699   37.33003  51.63965   69.5    0.10634  -21.89117  0.98261 
   -2.21128  0.00936  2.28593     13.77893  1.71411  1.18441  17.50795  0.04789     0.01508  5734.81019   7949.15278  1.86027         3039.17129     16.10144    1e-05  58411.32662  3.43479  0.16389  2302129.34713  45.42263  15.29876     58469.64    51.46516        44.6195   37.95196  52.82893   74.5    0.11202  -21.81516  0.99534 
   -2.54654  0.01658  2.60002     13.96108  1.94444  0.80185  12.04525  0.07146     0.02423  6181.66681    8168.9862  1.79315         3026.39486     16.46529    2e-05  58410.99136  2.74571  0.19972  1460130.73424  45.56329  15.30551   58469.7194    51.46868       44.62725   37.21218  52.39829   72.5    0.11095  -21.83091  0.99392 
   -2.08644  0.02708  2.16855     13.79522  1.71182  1.45481  28.18137  0.03697     0.01161  5641.41496   7872.69186  2.10221         3044.20677     19.07972  0.00668  58411.45146  5.35014  0.76326  1919389.28344   45.5468  15.28674     58468.58    51.46111       44.62084   37.33003  51.63965   73.5    0.10465  -21.82102  0.98085 
    -2.8906  0.01422  2.69502     13.93221  2.12003   1.0579  18.95563  0.04485     0.01282   5724.6454   7609.29796  1.69424         3217.07516     19.50897  0.01793   58410.6473  3.70563  0.26957  1953743.11515  45.44319   15.2769   58471.3877    51.46589       44.61542   38.26293  52.51796   76.5    0.10638  -21.84058  0.99227 
   -2.84009  0.01546  2.11447     13.75585  1.65332  1.43342  13.93703  0.07341     0.02142  5730.04057     8014.922  1.93576         3000.93809     18.25986  0.00101  58410.69781  2.72969  0.21549  2112895.76675  45.51192  15.31235     58469.64    51.47214        44.6256   39.63139  52.72734   73.0    0.09945  -21.81019   0.9945 
   -2.40066  0.02104  2.42931     13.80114  1.76179  1.08497  14.10399  0.06128     0.01922   6112.8344   8026.35668  1.89846         2991.05272     17.17683    8e-05  58411.13724   3.1438  0.29679  2412393.55941  45.36139  15.31677     58468.58      51.475       44.63756   36.86829   52.0344   74.0     0.1082  -21.82577  0.99087 
   -2.52235  0.01259   2.1883     13.83108  1.73659  1.16311  18.15199  0.06053     0.02243  6335.94386   7589.65263  1.68033         3006.35091     17.27088   0.0001  58411.01555  4.34684  0.22852   1681003.0131  45.60276  15.30812   58469.7194    51.45657       44.60313   38.26293  53.47053   71.0    0.10501  -21.84175   0.9942 
   -2.31295  0.00425  2.00649     13.68937   1.4974  1.28678  14.70649  0.06521      0.0196  5831.48394   7510.02565  1.89307         2988.93072     19.25539     0.01  58411.22495  2.98328  0.06244  2340432.27611  45.47001  15.30352     58468.58    51.46115       44.62104   37.33003  51.63965   75.5     0.1081  -21.81717  0.99832 
   -2.65659  0.00254  2.47394     13.80115  1.76215  1.00886   15.2378  0.04968     0.01395  5633.21078   8023.62999  2.20467         2986.25935     16.42969    1e-05  58410.88131  2.88444  0.03869  2502216.72493  45.32979   15.3111     58468.58    51.46884       44.62916   37.70696  51.90351   77.5    0.10637   -21.8024  0.99875 
   -2.77386  0.00677  2.47876      13.8085  1.86299  1.24342  10.22362  0.08578     0.03025  6160.31705   7754.56113  1.69961         3135.33862     18.26182  0.00102  58410.76404   2.3144   0.0692  2567468.88704  45.34108  15.29836     58469.64    51.47953       44.63596   37.33003  52.31813   74.5    0.10884  -21.85981  0.99795 
   -2.31243   0.0217  2.11014      13.7738  1.59606  1.11872  16.79073  0.06122     0.01862  6017.05022   7391.62699  2.08633         2933.02302     18.78844  0.00341  58411.22547   3.6263  0.36429  1870177.22645  45.55139  15.31959     58468.58    51.45625       44.60617   37.95196  52.82893   73.5     0.1064   -21.8301  0.99027 
   -2.58553  0.01866  2.30669     13.80174  1.72877  1.12812  15.16818   0.0622     0.02029  6008.05295   7798.92159  2.02619         2918.13733     16.51733    2e-05  58410.95237  3.26609  0.28298  2128359.28341  45.45256  15.29705     58468.58    51.46331       44.61893   37.95196  52.82893   74.0      0.104  -21.81967  0.99195 
