 texplosion  fnickel     Pspin  log(Bfield)      Mns  thetaPB   mejecta    kappa  kappagamma      vejecta  temperature    alpha  cutoff_wavelength  log(nhhost)      A_V         MJD0   kenergy  mnickel               TSD   log(L0)  Peak_mag     Peak_MJD  log(E_rad)  log(Peak_lum)  Rise_Time    E_fold  tau_1  delta_m15     r_peak     frac 
   -11.2056  0.05278   1.00795     14.58984  1.59623  0.87369  34.71369  0.04582     0.05452   8278.49997     4932.048  1.41788         3669.87261     20.46909  0.16361  59658.42019  14.19159  1.83229        9956.67599  48.46695   18.3335  59700.46817    50.88784       44.08436   19.09402  50.56834   46.5    0.13167  -21.06158  0.99584 
   -10.1451  0.02496   4.02145     14.43519  1.73533  1.46315  23.43348  0.03803     0.44547   4415.71043   6827.68228  4.29077         4439.39127     19.25586  0.01001  59659.48069   2.72562  0.58499      351224.70623  45.75388   18.2834  59700.46817    50.79203       43.93615   22.60416  56.34652   51.0    0.16129   -20.7979  0.95291 
  -17.11304  0.08712   5.64332     14.76767  1.95651  0.41504  13.14287  0.08129     0.15627   7175.06642   5206.12584   1.7754         4242.97809     18.76296  0.00322  59652.51274   4.03617  1.14498      168667.40245  45.83023  18.31054  59699.57529    50.74825       43.87685   23.22079  60.37405   50.5    0.17805  -20.77106  0.86117 
  -13.70268  0.04869   5.21669     14.36942  1.79421  1.48566  18.40878  0.05052     0.07449   5392.94302   5467.82686  3.21733          4398.0463      18.7781  0.00333  59655.92311   3.19377   0.8963      827269.56879  45.17028  18.30104  59698.45547    50.75637       43.94241   22.92675  52.93516   51.5    0.16122  -20.79169  0.89089 
   -14.6962  0.11843   1.78919      14.5255  1.68612  1.17656  17.64413   0.0805     0.05367    7795.3903   4850.58467  0.89633          4027.9535      19.5709  0.02068  59654.92959   6.39592  2.08958       44568.01533   47.3414  18.28531  59700.46817    50.97856       44.21253   20.89871   44.9937   54.0    0.15606  -20.62403  0.97244 
  -26.26886  0.09368   4.48504     14.26219  1.60373  0.76714  15.82713  0.06925     0.02705   7720.66257   4995.74436   1.0396         3334.52278     20.39026  0.13645  59643.35692    5.6278  1.48266      895552.86959  45.21835  18.31028  59699.57529    50.79373        43.9565    27.6728  51.70237   55.5    0.16424  -20.79708  0.84836 
  -16.92883  0.05203   3.34143     14.64083  2.00261   0.6683  17.64602  0.05161     0.23228    5742.5233   5253.85454  0.84496         5175.68305     19.89662  0.04379  59652.69696    3.4712  0.91815      108546.83466  46.48696  18.30986  59699.57529    50.68013       43.86038   34.24077   51.3577   49.5    0.17842  -20.72959  0.95872 
  -18.53216  0.04117   5.02861     14.30849    1.732  1.07634   18.0121  0.05588     0.05006   6190.50059   5877.62783  2.49125         3803.71055     19.55731  0.02005  59651.09363   4.11759  0.74156      982387.77074  45.11221   18.2829  59698.45547    50.66705       43.83129   26.47579  51.12538   53.0    0.16824  -20.68226  0.90935 
   -7.57606  0.02634   1.55039     14.51409  1.61344  1.20181  30.32305  0.05547     0.17019   7020.68405   5327.49777  2.16762         4538.96875     18.41606  0.00145  59662.04972   8.91577  0.79871       33749.84382  47.56744  18.27903  59698.46861     50.7706       43.93896   28.66889   50.3734   49.5    0.15367  -20.79401  0.99253 
  -30.25087  0.08612    3.2701     14.31839  1.66402  0.39727  14.04808  0.08257     0.01114    8134.2257    4536.3443  0.64911         2574.91017     21.00411  0.56084  59639.37492   5.54468  1.20981      381351.04332  45.87956  18.28004  59699.57529    50.76157       43.90831   22.92675  53.70185   48.5    0.16252  -21.26409  0.93129 
   -5.90529  0.07325    1.5579     14.69757  1.74908   0.9528  21.76164  0.08438     0.20734    7954.7248    5615.7358  3.00477         4187.49889     19.11698  0.00727  59663.72049   8.21427  1.59413       15869.77627  47.92601  18.32243  59699.57529    50.75293       43.90461   20.89871  56.70246   52.5    0.15079  -20.78696  0.98989 
  -14.39829  0.04258   4.93852     14.38813  1.75674  1.28706  17.17534    0.063     0.12753   5601.44371   5688.73164  3.74406         4316.35728     19.27065  0.01036  59655.22749   3.21464  0.73139      665982.74606   45.3029  18.33894  59698.46861    50.63577       43.76161   27.86495  57.59963   51.5    0.15629  -20.74458   0.9155 
  -15.34488  0.04377   4.97888     14.39734  1.89571  1.38319  15.44149  0.06666     0.12463   5883.14593   5852.50813  2.55994         4521.18919     18.78878  0.00342   59654.2809   3.18813  0.67595      700132.88815  45.30717  18.34121  59699.57529    50.69908        43.8469   20.60467    58.346   49.5    0.17367  -20.80429  0.92818 
   -9.58733  0.03616   4.27504     14.47993  1.84608  1.38886  22.69256  0.05337     0.03494    5911.9494   5298.60477  4.76118         4206.09361     17.90145  0.00044  59660.03845   4.73121  0.82059      343630.66387  45.73712   18.3096  59698.46861    50.72711       43.87447   30.28015  50.33485   50.5    0.15846  -20.81105  0.93332 
   -16.6663   0.0328   5.18841      14.3099  1.75227  1.44657  17.35185   0.0541     0.41463   5970.89486   5649.89771  2.86953         4206.60187     17.92521  0.00047  59652.95949   3.69022  0.56908     1051183.01716   45.0607  18.36503  59700.46817    50.79891       43.95497   36.46911  57.67251   49.0    0.17336  -20.74043  0.92602 
  -15.76518  0.15674  19.59277     13.35971  1.41476  1.12045  31.60158  0.02738     0.01412  10498.99975   4594.08499  2.52734         3780.75895      17.2445   0.0001  59653.86061  20.77934  4.95319   962194741.22369  40.85207  18.33382  59700.46817    50.85569       44.02618   23.31392  53.40781   67.0    0.17164  -20.66738   0.0076 
  -10.99667  0.08436   1.79282     14.58966  1.67572  1.03835  19.86252  0.07923     0.05526   7687.75814   5459.08984  1.55399         4363.22108      18.5642  0.00204  59658.62912   7.00263  1.67555       33095.91852   47.4662  18.35708  59699.57529    50.78474        43.9251   36.87921  56.00394   50.0    0.17695  -20.78115  0.97893 
  -10.03522  0.03892   1.32819      14.6159  1.74658  1.01547  30.33718  0.06255     0.15704   8188.48994   5282.90874  1.79224         4117.73499     19.79893  0.03497  59659.59057  12.13417  1.18081        16777.3777  48.03979  18.27749  59699.57529    50.64419       43.81977   26.47579  53.78871   47.5    0.14401  -20.79853  0.99463 
  -10.97655  0.06049   1.39626     14.63087  1.75467  1.02898  24.53119  0.07935      0.0691   8315.88093   5351.71798   1.2988         4735.27879     18.76628  0.00324  59658.64923  10.11957  1.48392       17385.96845  47.98291  18.35885  59698.45547    50.81277       43.96814   34.53715  51.37977   50.0    0.17447  -20.81027  0.99249 
   -9.72777  0.03148   1.52121     14.58841  1.72039  1.07097  31.69817  0.06027     0.26208   7297.52394   5629.77526  2.09602         4408.88114      17.9632  0.00051  59659.89802   10.0696  0.99799       24603.79597  47.74909  18.35159  59696.46699    50.79395       43.85309   30.61151  88.23899   49.5    0.13075  -20.83744  0.99255 
   -13.9607  0.05289   5.46283     14.35445  1.76233   1.4067  17.23913  0.05588      0.0436   5793.92143   5266.61346  3.95672         4116.51959     18.10588  0.00071  59655.66508   3.45214  0.91183      954653.56375  45.06025  18.32062  59698.45547     50.7161        43.8809   36.14923  54.38038   51.5    0.16633  -20.76397  0.87676 
  -24.30792  0.06392   5.76364     14.45088  1.75072   0.4953  14.30017  0.07278      0.0933       7309.1   4605.43015  2.44436         3620.04376     20.04452  0.06155  59645.31787   4.55718  0.91403      677125.69973     45.16  18.33055  59703.13857    51.09572       44.26862   20.15469  53.84293   56.5    0.16518  -20.73818  0.86123 
   -16.6349  0.03701   3.18181     14.31651  1.63176  1.53665  28.71378  0.03571      0.0419   5874.36756   3854.62517  1.14286          4988.0315     19.89308  0.04343  59652.99089   5.91071  1.06283      357111.80694  45.92335  18.30492  59703.13857    51.03189       44.20201   20.89871   54.7458   51.0    0.16417  -20.73554  0.94196 
   -14.4911  0.04006   1.20026     14.63461  1.81878   0.9744  31.84468  0.07152     0.16756   8786.76222    5183.6902  0.71454         5045.42827      18.9838  0.00535  59655.13469  14.66634  1.27562       13089.76767  48.25315  18.32208   59701.4095    50.87767        44.0378   21.54401  55.17772   52.0     0.1476   -20.5329  0.99608 
  -16.26923  0.17806  19.55375     13.36091  1.48898  0.99074  29.94321  0.02682     0.01192  11739.36821   4555.57708  2.03677         3805.41099     16.67902    3e-05  59653.35656  24.61586  5.33161  1003098015.50344  40.85793  18.33784   59701.4095    50.95402        44.1464   21.54401  52.85564   58.0    0.19507  -20.78091  0.00631 
  -12.53033  0.02205   3.82002     14.40112  1.71394  1.44193   33.4924  0.03352     0.05226   5424.71353    4986.7397   3.6307         4255.67255     19.80148  0.03517  59657.09546   5.87932  0.73835      366183.58297  45.77501  18.33863  59697.60317    50.72307       43.89309    32.5091  47.83745   51.5    0.15519  -20.80576  0.94572 
  -11.98295  0.04764   1.53591     14.62368  1.85964  1.07758  27.09921  0.06344     0.02234   7657.35416   5246.68433  1.14154         4696.49955     19.55396  0.01989  59657.64284   9.47853  1.29087       23047.13299  47.80293  18.35681   59701.4095     50.9427       44.12467   21.54401  54.84484   49.0    0.16466  -20.81237  0.99144 
   -8.81103  0.08204   1.49619     14.59688  1.54329   0.9389   19.1454  0.08951     0.24688    8643.4014   5185.18336  1.91613         4366.92673     18.85685    0.004  59660.81476    8.5322  1.57073       20534.63436  47.79483  18.35459  59703.13857    50.99817        44.2073    19.1288  51.24715   46.5    0.15378  -20.89309  0.98725 
  -25.51002  0.05481   4.53532     14.17561  1.33745   0.6571  16.02574  0.06233     0.05599   6953.31269   4734.34844  2.62084         3293.35766     19.69049  0.02724  59644.11577   4.62199  0.87838     1137880.85268  45.02581  18.31637  59699.57529     50.7043       43.84854   25.54287  57.00618   57.5    0.16423   -20.6796  0.87474 
  -11.10026  0.05792   1.84638     14.57363  1.55012  0.83196  23.19007  0.07186     0.28652   7564.77143   5716.45234  1.79919         4403.87718     19.14102  0.00769  59658.52552   7.91627  1.34305       34959.65936    47.383  18.35386  59699.57529    50.78468       43.90221   22.60416   58.6686   50.0    0.14212  -20.80026  0.97727 
   -3.79306  0.02537   0.87335     14.56363  1.52071  1.28364  41.13094  0.05641     0.09269    8276.5644   5803.17462  4.22401         4237.74569     17.42124  0.00015  59665.83273  16.80723  1.04365        8034.95032  48.66354  18.29934  59700.46817    50.94058       44.12558   27.85232  46.45421   54.0    0.13792  -20.88458  0.99896 
   -22.5047   0.0608   4.90408     14.23779  1.44763  0.68755  17.28652  0.05833     0.08851   7464.38906    5251.4428  3.53288         2983.99317     18.57629  0.00209  59647.12109   5.74544  1.05102     1081472.76299  45.01437  18.31408  59697.79778    50.83511       43.99919   23.30129   55.5212   57.0    0.16978  -20.70687  0.84919 
  -10.92657  0.03787   3.22646     14.44946  1.68909  1.54713  28.70354  0.04248     0.18669   5752.74366   5600.87423  3.11368         4368.51387     19.49086   0.0172  59658.69921   5.66647   1.0871       206065.9077  46.16504  18.27824   59701.4095    50.86437       44.04535   21.50923  51.39639   52.0    0.15002  -20.78465  0.94292 
   -8.10297   0.0294   1.14414      14.5161   1.4474  1.17244  47.44308  0.03153      0.0364   6510.31898   4771.58238  2.37676         4687.10109     19.59022  0.02162  59661.52282  11.99512  1.39472       16336.57414  48.09931  18.29474  59699.57529    50.71626       43.86885   20.89871  58.05197   53.0    0.16693  -20.74422  0.99497 
   -7.21413  0.02781   3.04622     14.47205  1.67662  1.53937  30.55855  0.04052     0.11849   5519.46779   6196.22933  4.14145         4402.08983     19.35267  0.01251  59662.41166   5.55334  0.84975      164316.23084  46.31008  18.32263  59698.46861    50.71585       43.86938   33.76896  51.08573   51.5    0.15018  -20.80404   0.9596 
   -12.3283  0.03982   2.15052      14.4472  1.62119  1.36585  28.64219  0.05084     0.05105   6680.98563   4523.13916  1.55293         4756.04793     19.30148  0.01112  59657.29749   7.62631   1.1405       88782.96112  46.86527  18.29858  59699.57529    50.73361       43.90881   25.24883  51.37977   50.0    0.14125  -20.81932  0.97314 
  -18.84647  0.11073   4.73381     14.36493  1.71187  1.16021  15.06848  0.06368     0.03159   6755.14848   4759.66087  1.08398         4656.50257     17.97112  0.00052  59650.77932   4.10172  1.66846      663518.11316  45.33004  18.29912  59699.57529    50.73507       43.91594   21.27817  54.59955   54.5     0.1788  -20.70049  0.83243 
  -17.00223  0.05769   1.04616     14.49465  1.62278  1.05991  24.36879  0.07677     0.07838    8104.4456   5317.12534  0.30363         5289.37045     19.64884  0.02475  59652.62356    9.5479  1.40578        16903.0472  48.21195  18.32601  59697.79778    50.64882       43.79826   23.22079  60.50509   54.0    0.15141  -20.43735  0.99582 
  -17.29404  0.07419   1.06587     14.46291  1.30775  0.70204  33.26998   0.0461       0.253   8208.78085    5670.0159  0.65402          4492.0076     20.64794  0.24698  59652.33175  13.37325  2.46825       16365.54156  48.11603  18.35173  59700.46817    50.82201       43.96208   21.54401   57.4998   59.5     0.1487  -20.70283  0.98589 
  -18.46891  0.08016   3.54252     14.26057  1.42937  1.22702  20.97882  0.05276     0.47649   6444.61932    5642.9831  1.33266         4721.77464     20.01058  0.05693  59651.15688    5.1976  1.68157      501699.15105  45.62492  18.34835   59701.4095     50.8803       44.03867   20.88608   56.6574   56.0    0.15825  -20.71189  0.87087 
  -11.80636  0.04299   4.55227      14.4096   1.7725  1.49702  19.25825    0.059     0.02098   6197.04415   5247.50579  3.77973         4166.67554     17.86894  0.00041  59657.81943   4.41177  0.82791       517192.5601  45.48732  18.33175  59697.79778    50.73638       43.88229    32.5091  52.65693   49.0    0.16891  -20.80813   0.9197 
  -12.25976  0.05436   3.55384     14.54647  1.86186  1.21086  21.33053  0.06478     0.25069   6278.19339   6266.89737   3.7514         4258.65282     18.68594   0.0027  59657.36603   5.01531   1.1596      176282.82823  46.19119  18.29285  59699.57529    50.75608       43.91829   22.60416  54.02445   53.5    0.14432  -20.80193  0.93653 
   -8.68299   0.0557   1.38952     14.65122  1.72954  0.93769   24.3404  0.07222     0.13564   8066.51201   5536.10537   1.7552         4270.06218     19.76218  0.03213   59660.9428   9.44771  1.35581       15453.71279  48.03201  18.26637  59700.46817    50.74874       43.95181   20.28208  53.09824   47.0    0.14608  -20.94719  0.99307 
   -8.95517  0.03306   0.90018     14.50129  1.63076  1.28624  36.09404  0.06032     0.35741    8290.3769   5310.86604  1.87037         4391.82051      20.6021  0.22224  59660.67062  14.79828  1.19339       12198.24525  48.48628  18.29543  59697.79778     50.7108       43.80962   33.86651  58.98878   50.5    0.17414  -20.95814  0.99828 
  -11.73037  0.03211   4.55264     14.35295  1.66284   1.4228  20.19589  0.05364     0.27682   5780.01857   6066.60262  3.94254         4219.23534     16.64556    2e-05  59657.89542   4.02484  0.64857      629929.52664  45.37388  18.35325  59699.57529    50.76169       43.88019   22.60416  60.99068   49.5    0.15835  -20.78276  0.92986 
   -8.24413  0.02623   2.49307     14.55057  1.80728  1.51902  31.73496  0.04495      0.1355   5671.71295   6034.68374  3.96335         4428.94953     18.14804  0.00078  59661.38166   6.08967  0.83244       82635.61209  46.81523  18.33031  59698.46861    50.66636       43.80149   32.01182  54.76554   52.5    0.15899  -20.79962  0.97776 
  -18.90786  0.03718     3.672     14.26592  1.64487  1.49629  24.34678  0.04195     0.04431   6024.18351   4019.13327  0.99329         5204.47162     19.96252  0.05096  59650.71793   5.27066  0.90523      605226.64675  45.57325  18.27573  59698.46861    50.64112       43.80056    27.2933  52.93367   51.0    0.16208  -20.74078  0.93495 
   -9.93892  0.04883   0.76713     14.67124  1.70599  0.93636  31.79131  0.06686     0.03714   8791.81585   5211.71267  1.46846         4167.48897      19.9996   0.0555  59659.68686  14.65861  1.55226        4236.90228  49.10404  18.32621  59700.46817    50.77672       43.92958   23.31392  55.72989   50.5     0.1684  -20.78549   0.9992 
   -22.2245  0.06579     5.168     14.26521  1.73505  0.85912  16.73716  0.06524     0.01056   7413.72399   5255.55376   1.2147         4254.88935      20.2487   0.0985  59647.40129   5.48759  1.10119       1268710.103  44.97815  18.29231  59699.57529    50.82815       43.99398   27.86495  51.08573   48.5    0.16843   -20.8477  0.86418 
  -16.86802  0.06267   3.91015     14.65927  1.72044  0.52887  17.64637  0.06668     0.24361   6805.77486   5381.72603  1.21946         4622.74174     18.78739  0.00341  59652.75777   4.87571  1.10593      117303.73695  46.25079  18.40076  59698.46861    50.73809       43.88108    32.5091  54.38038   50.0    0.16967  -20.68317  0.91757 
   -8.57007  0.04573   1.99646     14.69931   2.0506  1.37238  30.11149  0.04139     0.22711   6380.59413   5355.49944  2.14912         4587.25593     16.70583    3e-05  59661.05572   7.31276  1.37692       30310.30282  47.49861   18.3405  59697.60317    50.77936       43.94091   32.34252  48.93024   50.5    0.16669  -20.75488  0.98589 
  -11.22712  0.03868   1.57905     14.65868  1.86863   0.9306  30.00009  0.06204     0.02711   7645.05766   5048.78221  1.84944         3922.40384     20.02983  0.05951  59658.39867  10.45951   1.1605       20833.50951  47.82481  18.29335  59699.57529    50.77584       43.91811   22.60416  55.57984   49.5    0.15872  -20.83965  0.99149 
  -14.62644  0.04038   4.62562     14.39884  1.76989  1.27175  21.96657  0.05779      0.0129   6221.98085    4833.7491  4.07883          3997.6626     17.22008    9e-05  59654.99935   5.07279  0.88693      560298.12177  45.43803  18.34881  59699.57529    50.74067       43.92143   31.44688  51.08573   52.0    0.15242  -20.73083   0.9116 
  -13.74089  0.03423   4.69832     14.38397  1.74329  1.36206  25.91566   0.0439     0.06279   5906.79533   5493.93767  3.42199          4306.6451     17.95696   0.0005   59655.8849   5.39378  0.88702      609724.24664   45.3812   18.3448  59700.46817    50.84368       44.00502    30.1744  51.09836   51.5    0.16142  -20.78012  0.90713 
  -10.95934  0.03035   4.97642     14.47587  1.93533  1.40357  21.42396  0.04499     0.11562   5158.99251   6673.62765  4.24224         4242.57077     16.72975    3e-05  59658.66645   3.40139  0.65026      497346.85938  45.46511  18.25704  59700.46817    50.80634       44.01366    28.2444  46.06212   50.5    0.16888  -20.76755  0.93297 
   -9.67931    0.024   2.30508      14.5814  1.81476  1.19925  31.60106  0.03888     0.47592   5602.62364   6628.00616  2.84984         4530.10424     19.61874  0.02309  59659.94648   5.91714   0.7584       61546.48235  47.01309  18.31694  59698.46861    50.72154       43.86093   34.83118  53.40781   49.5    0.15904  -20.82509  0.98327 
  -19.02538  0.04997   4.56077     14.32783  1.59901  0.83846  17.71305    0.057     0.06068    6179.1894   4197.43828  2.41646         3749.75032     19.96033  0.05071  59650.60041   4.03444  0.88517      682482.64899  45.32053  18.30411   59701.4095    50.77341       43.92629   22.60416  59.94489   54.0    0.16335  -20.70082   0.9007 
