 log(Bfield)      Mns     Pspin  cutoff_power  cutoff_wavelength  fnickel    kappa  kappagamma   mejecta  log(nhhost)  temperature  texplosion  thetaPB     vejecta      A_V        MJD_0   log(KE)     M_Ni  Peak_mag     Peak_MJD 
    14.82228  1.62522   11.0607       0.81741         3642.11112  0.01882  0.03258     0.24238   6.04388      20.5819   5940.30447    -7.40505  0.73123  5113.28961  0.21214  57303.80495  51.96694  1.11817   21.9804  57333.73674 
    14.81358  1.96051   7.79384       0.14475         5395.86467  0.00686  0.02044     0.34593   9.55868     20.85056   7351.46262    -6.63668  1.08754  4714.13815  0.39381  57304.57332  51.94229  0.45279  22.03587  57333.73674 
    14.62917  1.52251   1.02446       0.31957         4105.71755  0.02003  0.01493     0.05818  10.27272     21.23337    8528.2938    -4.81528  1.04943  3894.82224  0.95082  57306.39472  51.78325   1.3437  22.02533    57336.531 
    14.80635  1.42357   5.66209       0.84778         3254.23522  0.05245  0.03265     0.05948   5.21903     20.52929   4962.12534    -3.34826  1.13192  4650.41697  0.18794  57307.86174  51.86873  3.00528   21.9651    57336.531 
     14.8127  1.66995   5.53254       0.64819         2641.40906  0.03698  0.03578     0.02087   6.05046      20.9354   6662.14774    -6.44322  0.92361  4654.82303  0.47877  57304.76678  51.88547   2.1981  22.03085  57333.73674 
    14.87988  1.89314   1.36008       0.61456         4248.87152  0.02138  0.01306     0.02103   15.5819     21.12065   8835.31297    -4.74598  1.50932  3794.96723  0.73346  57306.46402  51.79805  1.56322  21.97102  57333.73674 
    14.78001  1.63408   1.45372       0.74703         4395.40916  0.02384  0.01234     0.09999  14.66749     21.12606   4998.04892    -3.80127  1.48844   3737.6581  0.74266  57307.40873   51.7796  1.72191  22.02258  57333.73674 
    14.99974   1.7118   4.44645        0.9998         4102.38393  0.01385  0.01138     0.48553   14.8291     20.86899   5934.76397    -5.08751  0.74746  3182.13726  0.41088  57306.12249  51.64079  1.00301  22.01645  57333.73674 
    15.01497  1.68126   3.65291       0.89446         4284.29522  0.01343  0.01155      0.0317  12.62548     20.83384   8600.82957    -4.10919  0.68151  2953.06535  0.37893  57307.10081  51.56172  0.94084  22.04651    57336.531 
    14.95468  1.79901   0.85444       0.15058         4493.91774  0.02331  0.01467     0.03004  11.02625     21.15743    5984.3298    -5.65876  0.64109  3900.10506  0.79828  57305.55124  51.79101  1.58777  22.08314    57336.531 
    14.85643  1.54575   7.73272       0.07268         3311.16964  0.07618  0.06499     0.43943   4.15386     20.40964   8617.81818    -4.80658  1.06516  6023.94878  0.14268  57306.40342  52.06774  4.11339  21.94872  57333.73674 
    14.78138   1.9156   2.77068        0.2795         4061.86996  0.01098  0.01295     0.01865  14.08782     21.12961    5276.9145    -5.34911  1.20045  4367.99026  0.74875  57305.86089  51.91145  0.78652  22.05056    57336.531 
    15.04237  1.89746  11.20242        0.8007         2648.44691  0.01931  0.01316     0.04286  16.24992     20.17885   8212.42366    -6.39016  0.81949  5284.76259  0.08386  57304.81984  52.08927  1.42369  21.98539  57333.73674 
    14.68658  1.72471   2.37568       0.31666         4696.90072  0.03255  0.02862     0.04623   5.74211     21.18029   7599.84329    -5.27336  1.22164  4305.55662  0.84142  57305.93664  51.81215  1.90966  22.11384    57336.531 
    14.64581  1.17629   4.16428       0.72895         5850.52078  0.01283   0.0125     0.04788  12.54975     20.65846   5681.56406    -4.82093  1.08483  2976.09902  0.25304  57306.38907  51.56792  0.89787   21.9317  57333.73674 
    14.76945  1.60889   2.59755       0.57473         4970.53186  0.01623  0.01453     0.04722    13.369     20.99323   9249.71001     -5.3266  1.41513  3406.55811  0.54696   57305.8834   51.6909  1.15073  21.98571  57333.73674 
    14.94725   2.1751   3.05266       0.33824         5662.04484  0.00465  0.01095     0.01637  11.60996     21.09231   7733.90683    -5.00627   0.7476   3422.6609  0.68712  57306.20373  51.68231  0.31999  22.03871  57333.73674 
    14.79799  1.45995   2.11266       0.54413         4333.94234  0.01645  0.01571     0.01148  11.55918     21.18033    8925.3147    -4.83268  0.65188  3899.65003  0.84151  57306.37732  51.79524  1.13195  22.01707    57336.531 
     14.8662  1.96541   2.04126       0.07903         4195.32213  0.02131  0.03149     0.25523    6.3647     21.17118   3135.89511    -5.54867  0.88158  4738.92089  0.82397  57305.66133  51.90634  1.28234  22.02477  57333.73674 
     14.8515  1.83962   7.17289       0.38325         3025.01488  0.02661  0.03053     0.06115   8.33982     20.99331    7512.8437    -8.56395  0.84073  5261.20784  0.54706  57302.64605  52.02448  1.70489  22.03063    57336.531 
    14.66111  1.61272   1.79367        0.7032         4058.85962    0.005  0.01135     0.02277  11.29481     21.21481   6603.08191    -4.02726  1.02181  3314.11249  0.91105  57307.18274   51.6518  0.34235  21.92929    57336.531 
    14.94652  1.56168   5.32378       0.07985         5746.44486  0.01568  0.02029     0.01646   10.7501     20.86408   8816.35058    -7.14073  0.53938  4542.60028  0.40626  57304.06927  51.92112  1.06234  22.04091    57336.531 
    14.70049  1.70289  11.05286       0.42954         4893.89168  0.00593  0.04302     0.18581   3.76206     20.30594   7291.21384     -7.2712  1.27598  4183.21154  0.11237   57303.9388  51.73932  0.31158  21.96979  57333.73674 
    14.75591  1.84895   5.31641       0.34351          4213.9907  0.01644    0.024      0.3722   6.70691     20.92999   8474.02952    -5.80862  1.50175  4016.49908  0.47284  57305.40138  51.76811  1.00163  21.97361  57333.73674 
    14.65445  1.65567   0.72577       0.07044         5336.59923  0.00214  0.02745     0.02959   6.28644     21.31245   7064.15987    -6.24939  0.83377  4325.98672  1.14072  57304.96061  51.82585  0.12826  21.99273  57333.73674 
    14.71769  1.82418   2.77628       0.41668         4694.05764  0.00832  0.01719     0.01898   8.68814     21.16134   9299.43543    -6.33563  1.18972  3600.46965  0.80551  57304.87437  51.69902  0.53831  22.09861    57336.531 
    15.13546  1.78095   7.61333       0.44825         3804.31086  0.02159  0.01749     0.01745  13.14605     20.79522   3127.27237    -7.21378  0.50707   4640.2626  0.34669  57303.99622  51.95786  1.52539  21.97429  57333.73674 
    14.95693  1.70243   5.41728       0.82589         4026.52343  0.00785  0.01071     0.01686  10.59606     20.99272   6378.39212    -4.55677  0.55994  3311.69034  0.54632  57306.65323  51.64527  0.53046  22.06721    57336.531 
    15.16025  1.89822  10.13241       0.70393         5088.40886  0.00386  0.01908     0.01327   5.72053     20.56746   7524.41067    -6.19887  0.40594  3284.92801   0.2052  57305.01113  51.57674  0.22639  21.91825  57333.73674 
    14.99521   1.5116   4.96162       0.49889         5049.59287  0.00125   0.0231     0.08371   5.97245     21.01743   3773.33777    -5.96845  0.36098  3553.72445  0.57831  57305.24155  51.64965  0.07377  22.01062  57333.73674 
    14.74382  1.35802   1.65664       0.24412         4037.50913  0.04362  0.02741     0.41381   8.09717     20.92045   9360.52461    -5.90358  1.21463   4179.5409  0.46257  57305.30642  51.82167  2.77658  22.03484    57336.531 
    14.89847  2.11024   5.09205       0.52702         5127.23565  0.02679  0.01528      0.0761  10.73066      20.9856   6505.61457    -5.90153  1.42576    3540.754  0.53744  57305.30847  51.70453   1.8142  21.93404  57333.73674 
    14.75708  1.39051   2.16148       0.60825         4154.27673  0.01418  0.01248     0.04495   18.9422     20.96666   6012.07569    -5.25627  1.18309  3995.66285   0.5145  57305.95373  51.85927   1.0768  22.03154    57336.531 
    14.68648  1.74786   1.36712       0.71056         3792.62018  0.03406  0.02208     0.01098   7.11828     21.25336   8706.52075    -3.19244   1.4962  3843.07461  0.99562  57308.01756  51.73586  2.10455  21.91174  57333.73674 
    14.93688  2.06238   2.68042       0.10756         5438.42059  0.04093  0.02596     0.01067   7.66878     20.97406   8235.80521    -5.33091  1.35889  4293.90431  0.52334  57305.87909  51.83972  2.57321  21.90007    57336.531 
    14.93649  1.87954   3.07992       1.38289         3218.95316  0.02329  0.01811     0.23841  13.09953     21.04191   3978.68135    -3.33184  1.19174  4112.62101  0.61184  57307.87816   51.8527  1.64436  22.02765     57339.14 
    14.71528  1.72783   4.90619       1.14878         4117.18537  0.00459  0.01203     0.10901   12.7683     21.04217   9241.97808    -4.62919  1.37464   3380.2649  0.61221  57306.58081  51.68008  0.32215  21.98517    57336.531 
    14.60329  1.36301   9.61525       0.70024          4257.0367  0.01392  0.03683     0.19022   5.32236     20.44108   4573.02699    -6.39732   1.1754  4559.02666   0.1534  57304.81268  51.85364  0.80175  21.93549  57333.73674 
    14.82556  2.00823   0.77996       0.00958          3347.8342  0.04851  0.03182     0.29409   6.10324     21.20609   7683.16197    -5.74529  1.12563  4518.79952  0.89294  57305.46471  51.86062  2.88901  21.86398  57333.73674 
    14.75109  1.79414   1.20186       0.84478         2657.95224  0.01863  0.01925     0.43729   8.66685     21.23938   7906.27279    -4.72005  1.04257   3583.7849  0.96407  57306.48995  51.69475  1.20378  21.91992  57333.73674 
    15.03266  1.99509  13.62141       2.76724         3767.89781  0.01184  0.01001     0.37225  16.09767     20.27169   7434.45044     -5.8625  0.91348  3424.80163  0.10385   57305.3475  51.71169  0.87094  22.07341    57336.531 
    14.88358  1.58804   1.30859       0.01935         4947.13446  0.09458  0.08162     0.47116   4.29077     20.91367   9855.02965    -5.39436  1.38207  5440.26753   0.4554  57305.81564  51.98297  5.15091  21.97565  57333.73674 
    14.68952   1.9407   0.79096       0.00688         5327.72791  0.01751  0.02024     0.01818   7.34797     21.23626   3222.90317    -7.10484  1.37101  3876.71691  0.95717  57304.10516  51.74665  1.08967  22.09969  57333.73674 
    15.10299  1.93059    1.2433        0.1931         2903.38127  0.01609  0.01642     0.32118     11.65     21.21995   8387.28669    -5.57795  0.43766  4315.10416  0.92189  57305.63205  51.88388  1.10886  21.89809  57333.73674 
    14.67053  1.51245   4.80557       0.85203         2844.57499  0.02776  0.03623     0.20907   5.06425     21.06581   6310.33902    -4.81456  0.91769  4881.07552  0.64646  57306.39544  51.90747  1.57865  22.06013    57336.531 
    14.91848   2.1184   1.94098        1.0838         3541.95388  0.02431  0.01615     0.01338  11.36143     21.20036   9189.48496    -3.05184  1.24985  3627.30476  0.88123  57308.15816  51.73078  1.66651  21.95702  57333.73674 
    15.07619  1.47005   0.89902       0.72644         4928.80145  0.02538   0.0134     0.02763  13.41009     21.00171   7868.44851    -3.37801   0.5923  3423.80356  0.55774  57307.83199  51.69556  1.80069  22.03352    57336.531 
    14.73018   1.6546   9.95424       0.52521         5813.13217  0.00407  0.01003     0.31541  15.02512     20.21125   4840.18506     -8.6037  1.36207  3384.67768  0.09036   57302.6063  51.69553   0.2957   22.0726  57333.73674 
    15.09693     1.62   5.58058       0.25036         5662.27965  0.02996  0.02325     0.06749   9.48674     20.29863   6650.76783    -6.05655  0.64779  4477.79833   0.1105  57305.15345  51.89689  1.97524  21.94378  57333.73674 
    14.58523  1.65381   0.70954       0.14581         4008.52774  0.00822  0.01363     0.02244   9.87254     21.27077   9870.36409    -5.12876  1.07761  4396.60483  1.03632  57306.08124  51.88478  0.54663  21.98878    57336.531 
    14.92818  1.76122   2.75206       0.29846         2873.34327  0.07624  0.04845      0.1773   5.23591     20.85016   5134.35464     -4.1752  1.29755  5320.06326  0.39344   57307.0348  51.98594  4.37182  21.97351    57336.531 
    14.87065   2.0139   4.58996       0.44329         5335.03784  0.00718  0.01206     0.26186  11.76996     21.05516   9840.60148    -5.99218  0.91849  3393.16845   0.6308  57305.21782  51.67604  0.49596  22.01744    57336.531 
    14.71287  2.06649   1.83985       0.20797         4227.38179  0.00666  0.02032     0.16318     9.383     21.34948   7079.90528    -6.74565  0.96773    4849.654  1.24224  57304.46435  51.96514   0.4384  22.05333    57336.531 
    14.92215  1.54404   6.49213       0.75064         4350.11618  0.00888   0.0134     0.47084  11.98162     20.50569    9847.4156    -5.42103  0.71039  3300.56234    0.178  57305.78897  51.65363  0.61528  22.03427    57336.531 
    14.76158  1.66071   4.22805       0.74376         4980.13208  0.00222  0.01832     0.16571    6.7729     21.05843   7670.79896    -4.86675  0.82468  2905.66455  0.63556  57306.34325  51.48791  0.13541  21.96927  57333.73674 
    14.72839   1.9478  11.32911       0.09261         5427.22942  0.00658  0.01525     0.25398  10.38802      20.7308   5559.56506    -7.16434  1.30439    5576.819   0.2989  57304.04566   52.0961  0.44241  21.99716    57336.531 
    14.71663  1.73653   4.58356       0.76586         2449.51262  0.01407  0.01944     0.12661   8.84624     20.99945   8415.99019    -5.90546  1.22287  4255.83743  0.55485  57305.30454  51.84602  0.91346  22.05173  57333.73674 
    14.71895  1.57115   1.00244       0.54442         2619.42044  0.05312   0.0418     0.18721   5.76085      21.2018   7256.33446    -4.89103  1.16159  4652.95867  0.88415  57306.31897   51.8799  3.11959   22.0323    57336.531 
    14.93154  1.76444   0.86685       0.73726          4596.6095  0.02606  0.01216     0.21605   14.4156     21.15574   8822.73896    -3.28704  0.93613  3504.08894  0.79518  57307.92296  51.72204  1.87606  21.96453  57333.73674 
    15.06345  2.01106   2.57394       0.38931         4703.91748  0.02691  0.01968     0.09656   7.81711     21.08211   4182.08206    -4.99247  0.61797  3601.82871  0.67118  57306.21753  51.68897  1.69913  22.00585  57333.73674 
    14.94184  1.78166   5.21638       0.32354         5065.95154  0.01149  0.01055     0.27054  18.65165     20.97694   5253.40235    -5.33379  0.69228  4744.10392  0.52683  57305.87621  52.00712  0.87009  22.02656  57333.73674 
    14.98734  1.52299   7.67089       0.76575           5030.051  0.00377  0.01067     0.26377  12.55792     20.60717   5563.12213    -5.00421  0.48764  3385.36978  0.22485  57306.20579   51.6799   0.2641  22.00427    57336.531 
    14.60473  1.55612   9.60201       1.15727         2518.57454  0.01269  0.03394     0.07826   4.97651     20.62699   8254.29491    -6.52196    1.562  4772.12832  0.23535  57304.68804  51.88593  0.71819  22.05414  57333.73674 
    14.89371  1.67317  11.77598       2.21888         3773.89305  0.00348  0.01965     0.01508   7.17485     20.61721   9167.04201    -6.53172  0.60332  3477.78866  0.23011  57304.67828  51.64991  0.21528   21.8853  57333.73674 
    14.75286  1.27326   0.77721       0.18358         3156.90286  0.10742  0.04165     0.07596   4.85616     21.13411   6525.61244    -6.03273  0.76918   4555.6509  0.75656  57305.17727  51.84288  6.04295  21.99893  57333.73674 
    14.96928  1.87342   2.59787       0.30259         4647.73406  0.03367  0.02063     0.01906   8.29344     21.02832   4072.06681    -4.48928  0.83288  4224.87399  0.59299  57306.72072  51.83339  2.15436  22.04793    57336.531 
    14.83502  1.65013   7.97321       0.81595          3778.4127  0.02511  0.01816     0.37801   9.21178     20.46967   3954.63004    -5.23299  1.41776  4191.65094  0.16383  57305.97701  51.83672  1.64498  21.96026    57336.531 
     14.8813  1.65994   5.01477       0.98433         2477.92233  0.02536  0.01917     0.25571    12.925     20.96368    3801.8245    -6.06212  0.83482  4976.88645  0.51098  57305.14788  52.01718  1.78567  21.90771  57333.73674 
     15.0873   1.6919   1.51238       0.63258         5532.85112  0.02859  0.01627     0.01485   9.91571     21.17551   6369.87614    -4.55122  0.44552  3242.71018  0.83222  57306.65878  51.62077  1.90334  22.02959    57336.531 
    15.16157  1.74307  11.90455       0.38982         4799.65897  0.01101  0.01662     0.26299   9.31963     20.39721   7189.55111    -7.37367  0.34848   4478.6613  0.13865  57303.83633  51.89536  0.72332  21.88608  57333.73674 
    14.64414  1.75094   1.39551       0.01573         2334.64418  0.00225  0.01318     0.08884  13.08849     21.17252   4820.31822    -6.04037  1.19916  4573.91902  0.82651  57305.16963  51.94496  0.15876  22.03015  57333.73674 
    14.85555  1.92271   2.23135       0.25334         4913.92953  0.01106  0.02087     0.01158   7.36984     21.16897   8188.04821    -5.50777  0.77828  3896.43856  0.81979  57305.70223  51.75136  0.68877  21.99529  57333.73674 
    14.88878   1.8074   9.84155       1.02301         5331.60539  0.00201  0.01757     0.02493   6.64531     20.56139   6618.65479    -6.71625  0.82485  2709.03458  0.20236  57304.49375  51.42509  0.12205  22.03286    57336.531 
    15.11391  1.63697   1.40015       0.17277         3001.33137  0.04349  0.03415     0.02465     6.711     21.16336   7941.48344    -5.94923  0.37943  4747.32535  0.80926  57305.26077  51.91337  2.65005   22.0617    57336.531 
    14.62151  1.68811   2.09123       0.63062         4187.71382   0.0024  0.01029     0.02087  12.61588     21.20032   5885.52185     -5.1227  1.24533   2920.1988  0.88114   57306.0873  51.55193  0.16833  22.03139    57336.531 
    14.77498  1.70403   0.71106       0.13754         5240.92329  0.02489  0.01796     0.32315  10.23285     21.15069    8732.4513    -6.19324  1.17284  3880.58281  0.78599  57305.01676  51.77971  1.66872  22.01986    57336.531 
    14.67983  1.60777   4.60403       0.56602         4878.73435  0.00219  0.01881     0.47619   6.42944      21.0023    9455.5382    -5.30712  1.02205  3238.47405  0.55851  57305.90288  51.57671  0.13206  21.92529  57333.73674 
    14.69473  1.69606   0.94519       0.22458         2299.76734  0.03214  0.02337     0.01442   7.19547     21.16286   7277.67189    -5.73288  1.31373     4047.02  0.80833  57305.47712  51.78187  1.99085  22.02941    57336.531 
    14.95116  1.57309   7.81727       0.21976         3736.44056   0.0138  0.02721     0.07555   6.78733     20.66768   4710.19892    -5.80695  0.51995  4904.07235  0.25847  57305.40305  51.94275   0.8434  21.99184    57336.531 
    14.83483    1.725   2.57365       0.29882         5079.38358  0.00711  0.01498      0.0118   9.79871     21.10477   9693.02057     -7.0746  0.72131  3452.10989  0.70712   57304.1354    51.674  0.47244  21.96698  57333.73674 
    14.66293  1.90927   4.17584       1.16724         3602.66871  0.00536  0.01556     0.02084   9.39908     21.26324    8024.9701    -4.74228  1.19645  3748.88302  1.01852  57306.46772  51.74168  0.35241  22.07367     57339.14 
    14.94237  2.03696   9.42484        0.8973         4840.12847   0.0226  0.01875     0.01054   8.45546      20.5942   9196.68514    -4.92121  1.50653  3546.88393  0.21824  57306.28879  51.68335  1.45258  22.04457  57333.73674 
    14.84197  1.46565    2.6193       0.83421         4270.15757  0.00526  0.01665      0.0218   9.56603     21.17505   9139.04046    -4.32344  0.55334  3313.77252  0.83135  57306.88656   51.6362  0.34779  22.09443    57336.531 
    14.85792  1.62063   1.44827        0.0934         5978.94582  0.03203  0.02118     0.27122   9.53335     20.86561   3122.45931    -7.07208  1.36175  3725.11663  0.40769  57304.13792  51.73751  2.11416  21.93066  57333.73674 
    15.03837  1.82636   0.87692       0.62611         5204.26924  0.01882  0.01143     0.01138  16.21713     20.94944   8853.37153    -3.76258  1.02285  3346.11919   0.4945  57307.44742  51.69213  1.38688  21.93579  57333.73674 
    14.77406  2.13377   4.70715       0.83903         3076.50371  0.00854  0.01748     0.11036  10.62874     21.15657   8589.13124    -5.73874  1.38309  4009.29967  0.79671  57305.47126  51.81159  0.57697  21.99442    57336.531 
