 texplosion  fnickel    Pspin  log(Bfield)      Mns  thetaPB   mejecta    kappa  kappagamma     vejecta  temperature    alpha  cutoff_wavelength  log(nhhost)      A_V         MJD0  kenergy  mnickel           TSD   log(L0)  Peak_mag     Peak_MJD  log(E_rad)  log(Peak_lum)  Rise_Time    E_fold  tau_1  delta_m15     r_peak     frac 
   -7.61149   0.0022  7.59989      14.9424  1.56913  0.67367   5.61656  0.06527     0.17219  6162.57854   6120.43541  0.34856         5336.86323     17.19938    9e-05  57303.59851   1.2724  0.01234  109718.91802  45.66261   21.8976  57335.60068    50.03494       43.49424   15.94603   26.4771   25.5    0.51178  -19.37112  0.99571 
   -7.80128  0.01222   5.5612      14.9968  1.71632  0.90915   8.17584  0.04436      0.4525  5714.42226   6145.35822  0.25158          5710.8981     18.72754  0.00297  57303.40872  1.59259  0.09989   50020.04417  46.31396   21.9473  57335.60068    50.39424       43.94377   11.87848  22.06003   25.5    0.51407  -19.27516   0.9857 
   -8.86281  0.00934  6.59181     15.03861  1.85199  0.87776   9.18341  0.05164     0.04509  6351.92018   6074.97343  0.25677         3308.56963     17.36914  0.00013  57302.34719  2.21025  0.08576    62552.9382  46.10223  22.09063   57337.9628    50.58616       44.13345   11.22054  22.71796   27.0    0.44833   -19.1816  0.98378 
   -7.28301  0.02764  2.20912     15.00466  1.86131   0.5946   5.23125  0.04565     0.04994  5487.77169   6775.35746  0.38245         4250.17896      21.0678  0.64942  57303.92699  0.93978  0.14458    8255.74028  47.93347  22.02831   57337.9628    50.95833       44.59613    8.48463  18.66618   25.5    0.56038  -19.98292  0.99815 
  -10.65003  0.00336  2.28997     15.03619  1.72906  0.36928  17.98061  0.01782     0.08923  6302.02431   8238.04954  0.05078         4979.81696     21.20341  0.88743  57300.55997  4.25982  0.06049    7127.06609  47.93408  22.03243   57337.9628    50.65182       44.21251   10.53089  23.03161   26.0    0.46518   -19.9611  0.99868 
   -9.19046  0.00269  3.36182     14.63049  1.52095   1.0205    4.2958  0.05918     0.08515  5521.05027   8595.28393  0.16328         4780.38626     21.03847  0.60702  57302.01954  0.78111  0.01156   87518.59625  46.45571  22.04472   57337.9628    50.74785         44.328    9.50207  22.36351   25.0    0.47697  -19.77499  0.99922 
   -8.57338  0.00759  9.07886     14.99366  1.99973  0.68229   5.15265  0.05907     0.03317   6854.4709   6510.71218  0.42375         2778.53385     20.72493  0.29489  57302.63662  1.44413  0.03911  157590.82445  45.45622  22.08269   57337.9628    51.05499        44.7012     6.7877  20.36311   26.0    0.53859  -19.56852  0.98653 
   -8.42952  0.00402    5.573     14.96563  1.59364  0.42509   4.45017  0.04744     0.02631    5003.119   6999.39714  0.78717         3674.43825       21.017  0.57774  57302.78048  0.66448  0.01788   53841.41871  46.24794   22.0503   57337.9628    50.69228       44.26592   10.18155  21.68402   30.0    0.46052  -19.74634  0.99672 
   -9.99685  0.00162  0.84259     14.81967  1.89133  0.54464   5.04972  0.03513     0.10692  5452.86423   9678.28981  0.03194         3562.60562     21.30954   1.1331  57301.21315  0.89566   0.0082    2860.68269  49.23791  22.01423   57337.9628     50.1063       43.60178   14.58109  26.14512   27.5    0.48362  -20.10334  0.99999 
  -10.00651  0.00384   0.8956     14.72344  1.47055  0.62093   5.63045  0.04168     0.15874   5545.8021   7311.20123  0.11462         5230.12006     21.22377  0.93004  57301.20349    1.033  0.02162    3914.19078  48.93945  22.03863   57337.9628    50.72204        44.3061   10.18155  21.09646   28.0    0.50783  -19.94068  0.99997 
   -8.53549  0.02652  9.70954     14.97558  1.69314  0.68382   5.66191  0.08045     0.01008  7657.68337   5988.01152  0.04546         4637.34322     18.16138  0.00081  57302.67451  1.98054  0.15014  165861.50811   45.3034  22.01621  57335.60068    50.36879       43.86901   11.87848  23.75696   24.5    0.54079  -19.36775  0.92858 
   -9.47004  0.01448   6.4194     14.85305  1.73597  0.98002   4.80668  0.07378      0.0293  5868.37086   6344.76504   0.3638         3941.29905     20.63937  0.24216  57301.73996  0.98743  0.06959   130692.4612  45.77715  21.97053  57335.60068    49.95367       43.37623   16.96925  28.84773   27.5    0.46393  -19.41013  0.98554 
   -6.86451  0.01472  2.58339     15.00943  1.49538  0.45198  11.69216  0.02332     0.06251  6088.82147   7430.18987   0.2953         4041.80588      21.0413  0.61098  57304.34549  2.58576  0.17213    8873.50158  47.67112  21.92148  57335.60068    49.99901       43.43874   16.96925  27.15081   24.5    0.54911  -19.85703  0.99462 
   -7.17718  0.03142  2.33504      14.7046  1.77427  1.46198   5.62802  0.05344     0.02743  6050.38031   8221.89763  0.39881         4488.55055     21.17364  0.82864  57304.03282  1.22899  0.17681   35012.92936  47.23705   21.9966   57337.9628    50.67438       44.24363   11.19899  22.36351   25.0    0.51368  -20.13874  0.99681 
   -8.69049  0.02321  1.00368     15.06225  1.55052  0.42191    5.1858  0.05588     0.05645  5712.63236   7395.27151  0.08582         4606.26247     21.03887  0.60758  57302.51951  1.00952  0.12035    1088.91021  49.41914  22.02468   57337.9628    50.75713       44.34201   10.18155  22.06003   25.0    0.52499  -19.72399  0.99988 
   -8.98994  0.00378  6.45509     14.77668  1.52019  0.75671   3.67298  0.07758     0.48311  5935.31802   7308.15687  0.30809         5635.36603     20.76067  0.32018  57302.22006  0.77185  0.01388  164499.04979  45.61478  22.02561   57337.9628    50.61957       44.18272   11.22054  22.34195   25.5    0.49846  -19.62232  0.99633 
   -7.89416  0.00139  9.65344     14.77758  1.64582  1.19993    9.4081  0.02544     0.32631  4332.99896   6468.34246  1.08812          4888.9241     19.87092  0.04127  57303.31584  1.05367  0.01308   396640.0466  44.91747  22.04091   57337.9628    50.36013       43.85422    13.5754  24.94399   28.0     0.4459  -19.28992  0.99313 
   -9.65897  0.00657  2.10334     14.90621  1.66411  0.66613  17.10324  0.02363     0.03249  6809.69491   7716.38746  0.06866          4509.6356     21.10809  0.71255  57301.55103  4.73109  0.11237   10529.36026  47.82181  22.05452   57337.9628    50.53441       44.08929   11.22054  22.71796   24.5    0.48901  -19.77976  0.99847 
    -5.5264   0.0249  1.88162     14.84019  1.66231  1.08145  11.14697   0.0316       0.135  6630.48312   6738.57307  1.02352         2186.29261     21.02568  0.58939   57305.6836  2.92331  0.27759   11407.99598  47.88328  21.95181  57335.60068     50.1301       43.58677   15.99632  26.42682   26.5     0.4545  -19.78272  0.99814 
   -7.16492  0.01543  1.18602     14.90985  1.80148   1.4298  16.55319  0.02435      0.0204  6634.01229   6770.76605  0.18014         5617.27742     20.94767  0.49249  57304.04508  4.34572   0.2554    3563.88595  48.82436  22.02066   57337.9628    50.39562       43.90983   11.87848   24.8937   23.5    0.51475  -19.98753  0.99983 
   -7.88957  0.00339  0.93364     14.61581    1.549  0.82875   5.20759  0.04395     0.49306  5914.93854   7068.52941  0.19274         2774.89222     21.28186  1.06314  57303.32043  1.08684  0.01763    7355.42224  48.65193  22.01796   57337.9628    50.72228       44.31813    9.52362  21.02104   26.5    0.53439  -20.28053  0.99997 
   -9.59363  0.00634  4.62388     15.03531  1.94536  0.56691   7.38273  0.04557     0.45309  6116.60077   7336.82985  0.17352         4198.30424     20.99761   0.5525  57301.61637  1.64765  0.04677   32825.61939  46.71162  22.02212   57337.9628    50.29442       43.79612    13.5754  25.45388   26.0    0.46869  -19.70667  0.99586 
    -6.9057  0.00565   1.6724      14.8532  1.59983  0.47438   4.09627  0.05248     0.12468  6451.59445   8181.67198  0.11137         2581.73098     21.22825  0.93967   57304.3043  1.01707  0.02313    8168.92802  48.11407  22.01059   57337.9628    50.99943       44.66107     6.7877  18.66618   25.0    0.59177  -20.23002  0.99974 
   -8.10156  0.01911  3.01968     14.86451   1.7203  0.80263     9.761  0.03191     0.46684  6556.46044   7291.95142  0.04504         3502.75475     21.05766  0.63444  57303.10844    2.503  0.18649   27184.97012   47.1102  21.96145  57335.60068    50.20908       43.72178   14.58109  22.75127   24.5    0.55762  -19.87416  0.99302 
   -7.87759  0.00196  2.74421     14.84659  1.96035  0.78463   10.0517  0.02268     0.03589  5758.54341    8115.9731  0.19072         5282.50489      21.1505  0.78565  57303.33241  1.98835  0.01973   27785.03134  47.24053  21.99637  57335.60068    50.23009       43.71681   15.27233  25.45388   25.0     0.5421   -20.0749  0.99947 
   -6.42688  0.00381  5.68134     14.90482  1.83534  0.80432  11.91937  0.02485      0.0416  5439.87594   7487.06339  0.92146         3757.93663     20.93235  0.47542  57304.78312  2.10406  0.04536   85269.53868  46.09287  21.94137   57337.9628    50.04547        43.5108   15.94603  24.78018   26.5    0.44039   -19.7117  0.99319 
   -8.18625  0.00447   0.9251     14.99016  1.60847  0.35564   3.67067  0.05526     0.02813   5539.5756   8650.08316  0.19195         2134.64275     21.22772  0.93853  57303.02375  0.67193   0.0164    1337.45974   49.4166  21.98746  57335.60068    50.22123       43.69575   12.88417  26.14512   24.5    0.52323  -20.20463  0.99998 
   -9.06722  0.00213  3.43157     15.00913  1.52577   0.3628   8.86143  0.03221     0.37399  6174.83568   7991.86087  0.16567         4250.01607     21.08062  0.66888  57302.14278   2.0155  0.01891   15997.09002  47.17731  21.95526  57335.60068    50.51056       44.07276   10.18155  22.06003   24.5    0.51871  -19.88356  0.99867 
   -8.29143  0.00368  3.54276     14.89371  1.58959  0.64285    9.7245  0.03302     0.02063   6010.5164   7249.59455   0.1597         5999.44675     20.93684  0.48036  57302.91857  2.09565  0.03579   30224.57422  46.89109  22.01328  57335.60068    50.35892       43.84422   14.58109  24.44819   24.5    0.51987   -19.7697  0.99764 
     -7.285  0.01196  3.48574     15.01436  1.67129  0.53038   9.92863  0.03281     0.03151  6533.01344    6358.3024  0.29205         2771.44138     20.97098  0.51965    57303.925   2.5278  0.11873   17650.06439  47.16056  22.02414   57337.9628    50.55568       44.11139   11.87848  23.75696   25.5    0.53223   -19.7959  0.99328 
   -7.58192  0.00767  8.60488     14.93882  1.62345  0.72617   6.38221  0.06088      0.0619  6936.10651   6703.57498  0.39372         4537.39929     19.67572  0.02633  57303.62808   1.8316  0.04898  147947.79529  45.43969  21.90957  57335.60068    49.98535       43.42646   16.96925  27.15081   25.0    0.52083  -19.39484  0.97954 
   -8.14336  0.00345  2.30403     14.79051  1.83095  0.76924  16.13409  0.01594     0.22988  5802.73123   8621.63988  0.24407         4707.48746     21.21112  0.90334  57303.06664  3.24068  0.05574   23683.17243  47.43211  22.05761   57337.9628    50.54455       44.10451   11.87848  22.06003   24.5    0.50866  -20.19155  0.99891 
   -8.47296  0.00347  1.93996     15.01656   1.7809  0.42643   6.15143  0.04602     0.05918  6348.94027   7793.02227   0.1483         2326.97473     21.18454  0.84971  57302.73704  1.47913  0.02134    5766.72115  48.18297  21.91962  57335.60068    50.59921       44.19257    9.50207  21.04259   25.0    0.52274  -20.09726  0.99974 
   -8.05561  0.03291  0.86863     14.74883  1.58347  0.83722    4.2496  0.06034     0.18386  5641.48782   7862.90413   0.1944         4703.29127      21.1883  0.85709  57303.15439  0.80679  0.13984    3527.21203  49.04336  22.04647   57337.9628    50.72104       44.29418    8.48463  22.06003   24.0    0.53715  -20.79517   0.9999 
   -9.06406   0.0031  7.25406     14.83449  1.91018  1.10268   7.80319   0.0437     0.05309  6030.42616   6617.52704  0.31577         5323.83748     20.73946  0.30492  57302.14594  1.69276  0.02417  200018.77977  45.52769  22.06194     57339.14    50.71433       44.27995    8.81241  23.05316   26.5    0.49793  -19.58687  0.99431 
   -9.44951  0.00888  1.30641     14.84503   1.7605  0.46877   4.66609  0.04262     0.20955  5431.98941   9896.57427  0.18251         4257.92124     21.31276  1.14153  57301.76049  0.82129  0.04146    5695.62847  48.52678  21.95893   57337.9628    50.26988       43.77064    13.5754  23.75696   26.0    0.47312  -20.20957  0.99979 
   -9.65482  0.03264  0.85497     14.99011  1.52657   0.4013  12.00559  0.02371     0.11718  6094.69201   8911.50502  0.07644         2689.39141     21.21911  0.92011  57301.55518   2.6602  0.39189    1084.45627  49.55344  21.97249   57337.9628    50.80421       44.37071    8.83396  23.03161   26.0    0.47017  -19.88043  0.99969 
   -7.58523  0.00639  5.55436     14.99869  1.72132   0.6835  11.50403  0.03143     0.05257  5780.60052   6746.94596  0.35713         5261.95748     20.64092  0.24302  57303.62477   2.2931  0.07346    49610.3408  46.31987  21.99141   57337.9628    51.01012       44.62321    8.48463  22.06003   26.0    0.47005  -19.51933  0.98876 
   -8.46119  0.00346  2.12219     14.74512  1.76765  0.79928  14.79666  0.01645     0.03045   5956.9242     8333.392   0.2416         4337.60736     21.21998  0.92195  57302.74881   3.1321  0.05116   23908.33148  47.48413  22.03918   57337.9628    50.77316       44.35423    8.48463  22.79339   25.5    0.51431  -20.18512  0.99912 
   -9.22906  0.01849  2.54741     14.98676  1.75108  0.49207    3.5225  0.07729     0.03902  6330.69187   7067.33369   0.0504         2897.04253     21.09567  0.69246  57301.98094  0.84213  0.06512    11214.8133  47.65016  22.01664   57337.9628    50.88743       44.51673    8.48463  20.36311   25.5    0.53259  -19.88401  0.99832 
   -7.42943  0.02329  3.47529     14.99611   1.5371    0.399   4.50675  0.05395      0.1324  6249.12505   7237.80444  0.29798         3176.64015     21.09804  0.69625  57303.78057  1.04985  0.10496   17550.51541  47.12928  22.00902   57337.9628    50.28739       43.77389   10.18155  27.15081   26.0    0.54783  -19.90615  0.99264 
   -8.42723  0.00271  0.80003     14.99064  1.54203  0.30846     3.049  0.07332     0.32968   5839.7586   8388.36513  0.06551         3845.78575     21.27419  1.04452  57302.78277  0.62026  0.00825     956.85609  49.66988  21.97185   57337.9628    50.28243       43.77833    13.5754  25.46689   25.5    0.52547  -20.23383  0.99999 
   -7.53929  0.01109  5.19879     14.99768   1.7754  0.47306   8.25432  0.02436     0.10393  5560.21249   9230.49127  0.62005         4320.32051     21.06306  0.64238  57303.67071  1.52227  0.09158   45035.86848  46.43278  21.90036  57335.60068    50.32291       43.87473    13.5754  22.06003   24.5    0.55382  -19.94661  0.98783 
   -8.40426    0.001   2.7704     14.49832  1.30808  0.92181   6.04027  0.04588     0.14628  6127.79481   8747.47174  0.38211         2894.97419     21.21721  0.91608  57302.80574  1.35298  0.00605   93950.29965  46.52749  22.02406   57337.9628     50.8516       44.46021    8.48463  20.36311   25.0    0.48646  -20.06234  0.99965 
   -7.38133  0.00509  2.08081     14.63881  1.76852  1.16289   8.25013  0.02839      0.1491  6102.56494   8075.90396  0.21954         3477.95049     21.22758  0.93823  57303.82867  1.83279  0.04201    37520.1899  47.30573  21.96551  57335.60068    50.68606       44.30422    9.50207  20.07902   25.0    0.52368   -20.1806  0.99932 
   -7.29644   0.0104  4.77474     15.10758  1.56476  0.37499   9.12327  0.03218     0.43146  5933.40105   7137.88802  0.36122         4718.19559     20.89929  0.44058  57303.91356  1.91595  0.09488   20183.60057  46.80039  21.94477  57335.60068    50.13017       43.62781   16.27802  24.44819   26.0    0.53308  -19.70978  0.98747 
   -5.28234  0.02775  1.30141     15.14242  1.72557  1.06967   4.63052  0.09529     0.27094  5477.71542   7150.82272  0.63976         5561.37199     18.97737  0.00527  57305.92766  0.82881  0.12851    1408.43974  49.12821   22.0355  57335.60068    50.21564       43.68389   14.25629  26.46992   26.0    0.46792  -19.19586  0.99995 
   -9.18661  0.01326  2.70775     14.84457  1.41811  0.64407   8.45168  0.04133     0.30465  6140.52284   6996.08649  0.06285         3297.27444     20.97892  0.52923  57302.02339    1.901  0.11205   19751.47931  47.25974  22.05266   57337.9628    50.34731       43.82134    13.5754  25.46689   26.0    0.49259  -19.60374  0.99558 
   -8.85022  0.01933  1.79194     14.89462  1.80771  0.59923   7.94568  0.03016     0.05506  5848.43849   8122.04435  0.17044         3148.70593     21.19653  0.87348  57302.35978  1.62121  0.15357    8756.80221  48.07698  22.03673  57335.60068    50.61597       44.19366   10.18155  22.06003   26.0    0.52059  -20.00062  0.99862 
   -7.74298  0.00577  2.57564      15.1159  1.61946  0.37429  13.24021  0.02165      0.0432  5837.56353   7480.60789  0.18313         4938.59378     21.01735   0.5782  57303.46702  2.69144   0.0764    5849.96025  47.88929  22.04738   57337.9628    50.62794       44.19797   11.19899  22.36351   24.5    0.52829  -19.86147  0.99791 
   -6.40516  0.01298  1.26969     14.96936    1.825  0.94805  22.77394  0.01915     0.46268  7217.91529   7653.17973  0.47393         2647.90828      21.0818   0.6707  57304.80484  7.07765  0.29553    3145.96293  48.82496  21.91191  57335.60068    50.15532       43.61783    14.2994  26.42682   24.5     0.4785  -19.84539  0.99971 
   -6.74237  0.03938  2.66427     14.89888  1.72972  0.86688   4.90197  0.07194      0.1167  6566.09849     6941.467  0.48538         3139.63779     21.02802  0.59259  57304.46763   1.2607  0.19303   18163.41006  47.39647  22.01974   57337.9628    50.84652       44.47575    8.48463  20.36311   25.5    0.53109  -19.87794  0.99565 
   -8.90639  0.00195  4.27272     14.78959  2.11101  0.88212   4.53074  0.05706     0.22087  6730.57594   9174.81218  0.13973          3028.2943     21.19647  0.87336  57302.30361  1.22434  0.00882   94305.58387  46.35739  21.98313   57337.9628    50.79606       44.39861    8.48463   20.5433   23.5    0.53329  -20.12603  0.99939 
   -8.65584  0.00366  3.10642     15.13608  1.28095  0.18363    4.6796  0.05836     0.12005  7110.30487   7773.57665  0.04357         4469.39866     21.13145  0.75194  57302.55416  1.41128  0.01712     6133.6152  47.60414  22.04879  57335.60068    50.48182       44.01339   11.87848  22.61488   24.0    0.56957  -20.07874  0.99868 
   -9.10583   0.0057  4.39596     14.75898  1.62717  0.86403   8.93251  0.03247     0.02215  6370.73525   7189.20802  0.04539         3969.61841     20.96206  0.50908  57302.10417  2.16262  0.05093   88591.18488  46.24678  22.04097   57337.9628     50.6247       44.19059    8.48463  23.38095   25.5    0.54705  -19.73001  0.99457 
   -8.06526  0.00599  2.80269     14.87515  1.61546  0.53861  10.34958  0.03029     0.02629  6319.37383    8401.7634  0.37025         4245.80063     21.18453  0.84968  57303.14474  2.46546    0.062   20939.24531  47.26103  21.97555     57339.14    50.61638       44.17682    8.48463  23.38095   25.0    0.49179  -20.16315  0.99752 
   -8.03963  0.01698  3.74232     14.83851  1.71344  1.24109  10.21852  0.03724      0.0196  6646.60278   6181.42174  0.16628         4192.06031     20.83578  0.38064  57303.17037  2.69287  0.17353   46874.90012  46.68549  21.98952  57335.60068    50.53857       44.09786   11.87848  22.06003   26.0    0.53164  -19.62638  0.99002 
   -6.97911  0.00357  4.75564     14.74912  1.71649  1.15556  17.46765  0.01525     0.06856  5035.33843   6647.85555  0.92321         3821.73251     21.01171  0.57073  57304.23089  2.64192  0.06241  114456.78018  46.09043  21.96947  57335.60068    50.78178       44.37781    7.82669  22.34195   28.0    0.43845  -19.74322  0.99288 
   -9.65493  0.00163  2.12532     14.85932   1.6703  0.58052  10.32098  0.02583     0.37762   5684.8137   7858.96298  0.10386         4559.28055     21.15183  0.78806  57301.55507  1.98967  0.01686   13391.41571  47.70997  21.99096   57337.9628    50.88479       44.51259     6.7877  22.06003   26.0    0.48932  -19.87134   0.9997 
