 log(Bfield)      Mns    Pspin  cutoff_power  cutoff_wavelength  fnickel    kappa  kappagamma   mejecta  log(nhhost)  temperature  texplosion  thetaPB      vejecta      A_V        MJD_0   log(KE)      M_Ni  Peak_mag     Peak_MJD 
    13.67858  1.40108  1.96981       2.52315         4950.29886   0.1021  0.02764     0.01188  13.12369     17.58016   4097.09115   -54.23006  0.56802   8130.36895  0.00021  57569.17994  52.44484   7.21113  23.45542  57647.00248 
    13.77301  1.76383  2.07295       1.33842          3115.5363  0.01459  0.07962     0.03451  21.79995     18.09052   4442.69995  -124.75731  1.04398   8113.51448  0.00068  57498.65269  52.48598   1.13778  23.51924     57633.32 
    13.94817  1.88795  1.09478       2.11858         5151.31849  0.05297   0.0186     0.27837  87.62795     16.69725   8649.89378  -220.87332  0.57629   3724.86942    3e-05  57402.53668  51.90947   5.19614  22.96483  57553.91937 
    14.18705  1.56692  2.79191       2.93244         2988.11699  0.00112  0.02188     0.13566  15.04306     18.63332   6405.04872   -76.13674  0.31658    4729.9002  0.00239  57547.27326   51.9863   0.08122   23.6386  57635.36709 
    14.05758   1.7592  1.74709       2.35726         3839.75981  0.01016  0.05353     0.45222  16.71779     18.16905    4788.7747   -52.50524  1.13729   6343.76017  0.00082  57570.90476  52.25033   0.75286  23.27212  57600.46093 
    14.07936  1.27331  0.84847       2.50129         4260.56891  0.42047  0.04431     0.03124  22.89495     18.96516   6325.25092   -39.95821  0.90546   7088.59309  0.00513  57583.45179  52.37261  33.08194  23.46068  57635.36709 
    13.85974  1.78158  1.78657       2.14898         4633.20445  0.00181  0.03379     0.41962  36.46839     17.23533   7992.45356  -116.27551   0.7475   5922.16467   0.0001  57507.13449  52.25211   0.15496  23.29622  57594.64323 
    13.89962  1.82525  1.47831       2.72905         5418.04182  0.00572  0.02695     0.16211  45.82311     18.78119   6170.76739   -63.91397   1.1886   6692.61585  0.00336  57559.49603  52.37481   0.50733  23.50058  57635.36709 
    13.96051  1.70228  1.98155       2.52499         3762.53868  0.06719  0.01472     0.19784  64.64359     16.92648   5003.39612   -63.88907  1.22792   6829.40182    5e-05  57559.52093  52.41609   6.29504  23.61341  57638.27594 
    13.73625  1.72047  2.22579       1.69709         3487.48118   0.0039   0.0511     0.02329  16.58537     17.37902   8652.96505  -111.22134  1.38758   5677.73626  0.00013  57512.18866  52.15331   0.28866   23.5953  57632.45825 
    14.46048  1.81445  0.75965       3.25437         4594.43925  0.02061  0.04027     0.01972   20.2825      18.4393   6967.03816   -38.28939  0.48829   4796.94902  0.00153  57585.12061  52.02364   1.58531  23.33372  57606.27862 
    14.08538  1.95519  2.52774       2.75045         3288.60115  0.00278  0.01764     0.25466  28.48207     19.63698   8994.94746   -97.26367  0.67941   3395.19138  0.02408  57526.14633  51.75031   0.22718  23.48825  57635.36709 
    14.33189   1.4253    1.569       2.21179         3945.57537  0.18664  0.07634     0.23563  14.70376     19.49069   7642.95046   -59.58241  0.29792    7675.8052   0.0172  57563.82759  52.40487  13.48973  23.46479     57643.22 
    14.46685  1.90788  1.83468       2.34615         4393.08247   0.3614  0.03023     0.40716  34.58596     17.25459    8219.4487  -118.66724  0.26634   4700.48795   0.0001  57504.74276  52.04752  30.59078  23.43226   57623.7317 
    13.82195  1.59313  0.96921       2.81349         5392.27394  0.13173  0.05576     0.40975   23.7068     18.37757   8927.30774   -82.27424  1.53496   5438.27447  0.00133  57541.13576  52.14518  10.43099  22.59198  57469.56281 
     13.7589  1.84621  2.34856       1.34963         5401.25929  0.43616  0.04662      0.0177  21.98743     16.51422   9752.71559  -104.08918  0.73092  10038.54002    2e-05  57519.32082  52.67159  34.06138  23.55315     57633.32 
    14.42876  1.98761  1.50638       2.84934         3436.87219  0.03451  0.01375     0.08011   49.7599     16.95112   7890.19606    -47.3594  0.70109   4639.90669    5e-05   57576.0506  52.06243   3.10293   23.5155  57635.36709 
    13.99061  1.76392  1.90235       2.32091         5540.88485  0.03233  0.02014     0.16467   48.7712     18.18559   4691.10072   -76.08773  0.58676   7732.96871  0.00085  57547.32227   52.5047   2.89748  23.39777  57600.46093 
    13.52166   1.7437  2.03721        2.1781         5581.40362  0.03421  0.01157     0.10755  64.51421     16.76263   8997.40976   -78.12764  1.17341  10051.47339    3e-05  57545.28236  52.75165   3.20445  23.49518     57637.35 
     14.2722  1.69884  0.76543       2.35286         3392.93586  0.14841  0.03775     0.34934    37.569     18.47054   9033.92664   -40.21319  1.12494   8425.02872  0.00164  57583.19681  52.56047  12.73976  23.43419     57623.41 
    14.25201  1.83674  1.56206       2.66951         3890.63427  0.25293  0.04302     0.14075  18.84421     19.75201   4453.77379   -55.78565  0.73997   5597.03342  0.03139  57567.62435  52.15158  19.18821  23.39845  57638.27594 
    13.94721  1.75435  0.94005       2.79257          5002.8889  0.00952  0.02487     0.02136  57.93814     18.18883   5552.53983   -65.51549  1.50722   6393.50288  0.00086  57557.89451   52.3514    0.8772  23.48688     57637.34 
    14.01521  2.04112  1.16696       3.10566         5812.65814  0.01376  0.01425     0.26504  50.76455     17.43122    7378.4135   -86.28226  1.08953   3173.38897  0.00015  57537.12774  51.73386   1.24113  23.39012  57612.09632 
    14.18275  1.71945  1.13794       3.44201         3983.94932  0.01735  0.02721     0.02981  23.91588     17.15594   7934.85084   -31.66062  1.00924   4739.09482    8e-05  57591.74938  52.02635   1.37582  23.45819  57632.45825 
    13.90201   2.0564  2.32179       2.45931         4881.67227  0.01699  0.02704     0.03287  23.90334     18.82479   5904.11916   -93.91881  0.60088   6265.00575  0.00371  57529.49119  52.26876   1.34756   23.5175  57635.36709 
    14.13177  1.72742  0.82023       2.04394         3632.55946  0.00394  0.05666     0.49597  31.04526     19.95222   4280.93387   -50.73388  1.17705    8165.4871  0.04977  57572.67612  52.51911   0.32754  23.46235     57643.22 
    13.68386  1.58898  1.18042        1.2112         4758.51526  0.24354   0.0879     0.06678   27.5779      18.8131   5543.72817  -173.90207  1.51992   5767.44773  0.00361  57449.50793  52.20806  19.81712  23.42387   57629.5494 
    13.59718  1.58575  1.64606       2.18174          4915.4827  0.00771  0.01548     0.02614  75.87247     17.84862   4858.84275  -128.59536   1.0896   6000.34758  0.00039  57494.81464  52.31428   0.74048   23.3787  57615.00516 
     13.6686  1.76094   2.1446       2.54148          5126.4698   0.0547  0.02869     0.02458  18.06791     16.30762   7925.44558   -82.36656  1.23069   5319.74527    1e-05  57541.04344  52.10394   4.11679  23.36972  57609.18747 
    14.12031  1.98271  2.30014       2.89018          3385.4037  0.00127  0.01089     0.01811   43.6633     17.89424   7383.67833   -74.84133   1.0021   3230.06447  0.00044  57548.56867  51.73861   0.11189  23.40283  57620.82286 
    13.77178  1.75301  2.19069       3.09049         4124.99979  0.00572  0.01002     0.18063   46.4002     18.37117   7488.83227   -81.67841    1.354   4451.21028  0.00131  57541.73159  52.02146   0.50804  23.48891  57641.18479 
    13.72983  1.50463  1.50287       3.58525          5114.2092  0.01617  0.01201     0.07256  42.07474     18.11107   9814.56318   -56.84177  1.35167   4448.53528  0.00072  57566.56823  52.01397   1.41453  23.45381  57632.45825 
    13.83985  1.69338  1.90851       2.65816         5120.85102  0.39194  0.04866     0.21584  15.76186     18.78703   6043.21497   -58.81999  1.32472   7355.57432   0.0034  57564.59001  52.37385  28.72165  23.38696  57620.82286 
    13.88191  1.67473  2.19556       2.31401         3424.58842   0.0021  0.05493     0.22855  13.54837     17.28053   7629.73646   -88.03488   1.0254   5159.36489  0.00011  57535.37512  52.05264    0.1492  23.40543  57617.91401 
     14.0378  1.32794  0.80577       3.08744         4635.36636  0.00163   0.0176     0.02077  44.52598     17.60824   6428.91906   -42.27104  0.78087   4460.91146  0.00023  57581.13896  52.02043   0.14352  23.46528     57633.32 
    13.62089  1.66615  1.72083       2.37956         5666.93564  0.01427  0.12043      0.0961   9.23511     19.10168   8704.09648   -84.06771  1.54711   8114.94876  0.00702  57539.34229  52.41077   0.93532    23.447  57632.45825 
    13.53253  1.39062  1.56993       2.52623          5953.1002  0.00692  0.02197     0.01093  33.72701     17.02615   7453.38533   -91.48511  0.74756   6633.59587    6e-05  57531.92489  52.34486   0.58313  23.43756   57629.5494 
    14.15718  1.91748  1.43924       3.22257         4199.13632  0.04632  0.01394     0.32164  49.11825     19.57817   7637.19482   -63.96306  0.86763   4081.64213  0.02103  57559.44694  51.95018   4.15542  23.41326  57620.82286 
     13.7647  2.14569  2.58512       1.51476           3057.429  0.01597   0.0817      0.4262  13.68906     16.27758   5602.98202  -140.77977  1.29972   7013.23014    1e-05  57482.63023  52.32019   1.13741  23.40005     57627.39 
    13.94244  1.66295  1.06548       2.87235         5420.54952  0.05639  0.02009     0.15791  47.01798     19.78343   7469.86017   -41.66403  1.54076   5273.65099  0.03374  57581.74597  52.16966   5.02401  23.44756     57633.32 
    13.57228  1.82585  1.97166       0.06025         3026.81413  0.36075  0.12112      0.0426  13.94012     18.26369   3128.78518  -206.27667  0.74872   8938.86043  0.00102  57417.13333  52.53252  25.79505  23.45142   57629.5494 
    14.10673  1.51629  1.36867        2.9046         4439.01868  0.24835  0.02731     0.02463  26.74263     19.42988    9302.0015   -49.85043  0.73576   5126.62238  0.01495  57573.55957  52.10338    20.098  23.55201     57643.22 
    13.91668  1.47676  0.85782       2.27996         4207.87814  0.00736  0.02968      0.2494  54.46102     17.56289   6511.69996   -61.32709  1.47474   6495.95163   0.0002  57562.08291  52.36096   0.67117  23.44355     57623.41 
    13.94186  1.60243  1.39651       3.00382         4274.23846  0.11751  0.01295     0.22172  44.80962     19.20946   8374.94952  -104.25544  0.85731    3101.5902    0.009  57519.15456   51.7052   10.3866  23.49507  57632.45825 
    14.25181   1.8714  0.83511       2.76363         3363.48142  0.00385  0.04544     0.39823  22.72153     17.14332   7624.82365   -57.49426  1.12081   4791.99657    8e-05  57565.91574  52.03191   0.30265  23.36532  57617.91401 
    14.08792  1.99171  0.73539       3.00944         5503.59702  0.03491  0.02108     0.18029  70.14149     17.77848   6328.15224   -98.83978    0.856   4475.91508  0.00033  57524.57022  52.05452   3.31166  23.38223  57617.91401 
    13.98484   1.5368   1.5691       2.56286         4605.26224  0.43622  0.02157     0.24813  51.84552     18.02384   4745.74841   -74.71199  1.16153   7524.24998  0.00059  57548.69801   52.4852  39.47747  23.55438   57629.5494 
      13.636  1.63665  1.84674       2.62284          5981.6556  0.00118  0.06689     0.09467  10.34035     18.79301   4745.46172   -66.73904  1.04006   7849.71729  0.00345  57556.67096   52.3926    0.0795  23.48331  57635.36709 
    14.22022  1.78299  1.29304        3.0751         3719.60452  0.23938  0.06482     0.11435  10.68354     16.78394   5492.11746   -42.83862  1.03873   4683.99947    3e-05  57580.57138  51.94717  16.19555  23.48039  57632.45825 
    13.77771    1.818  1.23975        2.0243         5948.14489  0.00174  0.07879     0.29003  25.36226      18.5318   6200.89609  -116.25556  1.44804    6405.7897  0.00189  57507.15444  52.29273   0.13918  23.46285     57637.34 
     13.7927  1.79112  2.21216       2.95398         4081.96239  0.00105  0.06999     0.36567   9.71948     17.50928   5239.77427   -78.51749  1.02208   6773.70775  0.00018  57544.89251  52.25872   0.06949    23.507  57617.91401 
    14.14576  1.56218  0.95788       2.61257         4203.98872  0.17012  0.06635     0.12032  14.03847     18.65763   4480.01877   -57.33586  0.77924     4819.148  0.00253  57566.07414  51.99652  12.18179  23.39072  57603.36977 
    13.76947  1.71624   1.4267       1.98118         5448.09711  0.00439  0.02648     0.01826  57.98506     19.24664   9120.20527  -203.80558   0.5053   4686.09894   0.0098  57419.60442   52.0816   0.40443  23.37499     57623.41 
    13.73234  1.78558  1.34192       2.24374         5546.26433  0.00881  0.09172     0.04407  17.36134     17.32641   7918.62685  -135.09071  1.26171   5545.42869  0.00012  57488.31929  52.13669   0.65823  23.44567  57635.36709 
     13.9672  1.41325   0.8518        2.3063         5154.73058  0.03761  0.02318     0.19744  84.85521     16.20391   6207.51227   -74.00874  0.71253    7550.3416    1e-05  57549.40126  52.52112    3.6713  23.41694  57626.64055 
    13.95981  1.85027  1.89495         2.296         5478.98659  0.10263  0.01141     0.02512   94.7666     19.39115   3695.70467  -127.95979  0.43326   6590.44847  0.01367  57495.45021  52.41007  10.18328  23.49843   57629.5494 
     13.8961  1.80813  1.96219       1.35714         3910.27707  0.21951   0.0622     0.01205  36.45717     18.11177   9942.03805  -122.36411  0.77519  10242.34547  0.00072  57501.04589  52.72792  18.74808   23.5363  57638.27594 
    14.50791  1.78307  1.00881       3.15422         4020.13367  0.00177   0.0264     0.01723  30.32479     18.24861   8375.78259   -70.26267  0.35114   3517.93074  0.00098  57553.14733  51.78594   0.14607    23.374  57615.00516 
    13.80382  1.79816  1.97609       3.18852         5346.56234  0.14901  0.01596     0.43837  30.01162     19.79967   9039.89168   -58.60247  1.15223   5149.32486  0.03503  57564.80753  52.11607  12.30708  23.47762   57629.5494 
    13.62896  1.46906  1.52799       2.56331         5773.57955  0.00389  0.03789     0.07113   19.6034     16.33669   4877.93556   -95.75958  1.10726   4616.53495    1e-05  57527.65042  51.98755    0.2976  23.48166     57627.39 
    14.25292  1.94856  1.12589       2.26992         3318.29549  0.01174  0.06119     0.02079    21.683     16.98166   9399.58284   -88.68825  0.83614   4880.45733    5e-05  57534.72175  52.04405   0.91426  23.34961  57609.18747 
    13.65978   1.4611  1.58879       2.02123         3761.87529  0.00981   0.0317     0.25111  47.56949      17.0585   5833.86004  -112.58505  1.30162   7446.25358    6e-05  57510.82495  52.47014   0.87517  23.39519   57623.7317 
    14.20534  1.97102  2.51575       3.26768         3087.94375  0.00191   0.0221     0.01362   17.3068     16.77821   3789.41504   -55.36382  1.08908   3507.49872    3e-05  57568.04618  51.73855   0.14244  23.41119  57632.45825 
    13.80594  1.87013  2.13113       3.24148         5351.25588  0.11377  0.01216     0.02024  31.06662     16.78234   8160.45486   -69.80766  0.91187   4241.10166    3e-05  57553.60234  51.95015    9.4536  23.52653  57638.27594 
      14.358  1.82523  1.09857        2.4082         3526.68453  0.00211  0.09625     0.06477  15.29923     17.60723   5798.40415   -55.30234  0.62298   7119.23209  0.00022  57568.10766  52.34292   0.15395  23.34537  57615.00516 
    13.63701  1.72739  1.91397       2.22782         5550.19612  0.03828  0.11876     0.17469   9.22051     16.41342   4527.17163   -78.79851  1.10491   9747.49558    1e-05  57544.61149  52.56983   2.50834  23.47374     57623.41 
    13.85669  1.60853  0.90561       2.69967         3993.87032  0.00483  0.02673     0.09717  38.84552     17.24722   6977.41701  -124.42834  1.47126   3479.56029   0.0001  57498.98166  51.79481   0.41692  23.49698  57626.64055 
     14.3396  1.76946  1.38204       2.79696         4930.03383  0.46741  0.04758     0.01331   20.3959     19.67379   7014.73744   -75.68204  0.38204    5040.4702  0.02621  57547.72796   52.0671  35.99391  23.44484     57633.31 
    14.22038  2.09511  1.45527       2.86764         4028.53351  0.03299  0.01628     0.11964  34.59765     18.71183   8831.32226   -66.62077  1.06898    3105.4005  0.00286  57556.78923  51.68749   2.79268  23.41726     57633.32 
    13.88367  2.13521  2.03224       1.42133         5390.44613  0.04533  0.04514     0.06174  37.64219     18.65578   9118.14752  -104.21961  1.49586   7412.77163  0.00251  57519.19039  52.44943   3.89256  23.42377     57627.39 
    13.63661  1.53701  1.09253       0.34269         5839.29159  0.01731  0.09836      0.2245   42.7299     17.39435   7333.06119  -189.56679  1.17478   7950.96523  0.00014  57433.84321  52.51948   1.51828  23.40637   57629.5494 
    13.67313  1.83769  2.74083       2.54882         3716.94788  0.06047  0.03168     0.02497  10.96565     18.48531   6646.68771    -73.7391  1.51402   5986.42231   0.0017   57549.6709  52.16268   4.11377  23.39363   57629.5494 
    13.93818  1.67419  0.92509       2.87635         4594.12685  0.00471  0.02275     0.22345  44.85607     18.37289   8082.58814   -73.51855  1.54564    4368.7292  0.00131  57549.89145  52.00282   0.41622  23.43375  57609.18747 
     13.7197  1.51873  1.47149       2.99258          5090.5602  0.00196  0.03158     0.01115   26.2844     18.05901    6091.2045    -71.7124  1.25096   5272.11544  0.00064   57551.6976  52.12634   0.15834  23.52601  57635.36709 
    13.54427  1.62746  1.80415        1.3022         4847.58097  0.11045  0.14119     0.13802  10.51445     18.15322   8864.56057  -142.56725  1.28055    7780.6221  0.00079  57480.84275  52.38648   7.44724  23.28276  57600.46093 
    13.86013  1.59345  1.47248        2.9772         4689.89402  0.09971  0.04677     0.06713  17.91512     17.31651   8707.27369   -60.55998  1.33219   5382.57708  0.00012  57562.85002  52.11343   7.49161  23.52898     57633.32 
    13.80954  1.76251  1.79119        1.3923         4454.61324  0.02342  0.07049     0.03348  27.74617     19.79987   7681.83363    -82.5615  1.36998  10917.96325  0.03504   57540.8485  52.76285   1.90806  23.41196   57629.5494 
    13.79519  1.81843  1.55278       2.50369         5543.67551  0.02728  0.04632     0.18339   19.9458     20.23151   7873.16912   -87.03633  1.22172    5609.9188  0.09468  57536.37367  52.15825   2.09177  23.36689  57615.00516 
    14.14006  1.66787  2.34871        2.7429         3680.25302  0.00351  0.01637     0.23252   24.0132     17.22004   3190.31303   -65.17571  0.54389   4096.55589    9e-05  57558.23429  51.90012   0.27884  23.34844  57609.18747 
    14.22704  1.96629    2.038       2.51382         4490.96724  0.04613  0.04529     0.06404  22.36101     16.89306   6498.52775   -55.75942  0.57536   7947.52771    4e-05  57567.65058  52.47006   3.61359   23.4951     57637.35 
    13.69356  1.57334  1.48438       1.78373         5071.31821  0.04438  0.11984     0.18985  13.09895     16.53635   8574.62493  -114.74207  1.25012   5799.22337    2e-05  57508.66793   52.1512   3.13328  23.50069  57632.45825 
    14.03981  1.64225  1.70476       2.61337         3523.95169  0.00637  0.01047       0.139  77.50321     17.20967   8297.23495   -62.48627  0.98067   4979.07661    9e-05  57560.92373  52.15362   0.61392  23.36661  57620.82286 
    13.64798  1.65194  1.96491       2.83548         5198.56486  0.09028  0.04419     0.03039   11.6052     18.75738   7275.49017   -81.56214  1.01678   5528.42383  0.00318  57541.84786  52.09875   6.21622  23.12091  57562.64591 
    14.03812  1.79652   1.9962       3.13092         5753.50129  0.00338  0.01878     0.34811  19.75034     17.12145   4059.68508    -65.7088  0.38947   5155.26918    7e-05   57557.7012  52.08403   0.25871  23.39357  57609.18747 
    14.04828  1.83971  0.86367       1.94735         5464.82541  0.13942  0.10412     0.24595  31.21175      17.7309   3966.15321   -33.26046  1.52651  14553.26412   0.0003  57590.14954  53.02147  11.59447  23.44393  57635.36709 
