 texplosion  fnickel    Pspin  log(Bfield)      Mns  thetaPB   mejecta    kappa  kappagamma      vejecta  temperature    alpha  cutoff_wavelength  log(nhhost)      A_V         MJD0   kenergy   mnickel            TSD   log(L0)  Peak_mag     Peak_MJD  log(E_rad)  log(Peak_lum)  Rise_Time    E_fold  tau_1  delta_m15     r_peak     frac 
  -73.49249  0.30837  1.51021     13.85223  1.25051  0.93198  15.87413  0.06186      0.0876   6064.17817   3287.57241  2.74503         3606.21576     16.59192    2e-05  57549.91751   3.48226    4.8951   523014.17814  46.28934  23.43176  57628.16861     51.4676       44.64838   31.38149  49.14096   65.5    0.13819  -22.14498  0.91228 
  -50.16794   0.0029  1.07522      14.2355  2.03191  0.85303  33.24379  0.04201     0.03513   7141.05239    7279.0073  2.98685         4767.93414     18.82888  0.00375  57573.24206  10.11258    0.0963    73742.60525  47.64604  23.41333  57630.60706    51.52598       44.75311   28.46753  47.17477   48.0     0.1406  -22.99807  0.99956 
  -161.0065  0.05342  1.29725     13.98209  1.58006  0.51906  51.80209  0.04007     0.35487   5503.69897   8679.73637  2.03961         4361.97908     16.82131    4e-05   57462.4035   9.36017   2.76707   268139.26778  46.81311  23.18151  57594.03035    51.61165       44.66433   48.80148  65.06864   94.0     0.0688  -21.33439  0.97243 
  -60.07742  0.00205  1.54098     14.14115  1.49645  0.66151  18.39169  0.04167     0.02979   4818.70186   9852.76477  3.06913         3605.11137     17.51353  0.00018  57563.33258   2.54747   0.03765   172256.56665  46.83214  23.46031  57635.48396    51.46106       44.74085    25.2141  40.85517   49.5     0.1567  -22.00765  0.99941 
  -68.96486  0.31261  2.04375     14.22533  1.95091  0.84737  16.16669  0.06768     0.39888   7810.63499   8594.52085  2.00185         3640.19472     16.88123    4e-05  57554.44514    5.8833   5.05393   268063.85057  46.50999  23.39694  57628.16861    51.67403       44.88116   34.63492  46.63776   55.5    0.15984  -22.11867  0.91492 
  -68.12133  0.00475  1.98189     14.13109  1.59275  0.63446  19.98011  0.03729     0.05024   5429.91652   9556.22731  2.78236         3383.87918     17.09847    7e-05  57555.28867   3.51408   0.09483    317645.4828  46.37489  23.36439     57627.39    51.50515       44.69621   32.53432  49.61484   52.0    0.15275    -21.913  0.99777 
 -112.01216  0.01257  0.72812     13.94766  1.88545  1.22079  85.90116  0.01395     0.24129   3662.49351   6957.28244  3.23344          5124.5106     19.84534  0.03891  57511.39784   6.87353   1.07976   118115.47835  47.74755  23.37404  57620.85327    51.64939       44.85475   31.81252  47.89657   71.5    0.09909  -21.91166  0.99747 
  -92.84729  0.00169   1.2602     14.01414  2.01972  1.01158  45.14997   0.0336     0.25911   5701.00674   7796.84138  2.65153         5586.23097      18.0071  0.00056  57530.56271   8.75362   0.07626   279058.18268  46.92757  23.48003  57625.73017     51.6089       44.75429   42.29462  55.30835   59.0    0.11882   -22.6273  0.99949 
 -115.50306   0.0719  1.90625     13.68233  1.69064  0.99137  13.80842   0.1001     0.14531   7916.48311   6019.84013  1.89565         5060.13109     16.03462    1e-05  57507.90694   5.16221   0.99288  2463562.51727  45.54497  23.47087  57625.73017    51.37453       44.61885   27.65417  44.92196   73.0    0.13718   -22.4658  0.98015 
 -122.54211  0.01121  1.16051     13.83035  1.72365  0.98436   48.1356   0.0285       0.059    4795.9172   9807.53667  2.91298         5301.58631     19.10675   0.0071  57500.86789   6.60445   0.53942   470835.76891  46.70313  23.52208  57635.48396    51.39263        44.6278   30.09425  44.73469   69.0    0.11271  -22.17307  0.99615 
  -35.20309   0.0461  1.15927     14.25692  1.79672  0.82593  25.51065  0.02272     0.02884   4185.38554   4330.32494  3.63969         4304.95446     18.70882  0.00284  57588.20691   2.66575   1.17608    68679.21755  47.55813  23.57437  57635.48396    51.27748       44.58815    17.5544  40.19402   42.5    0.17809  -22.68245  0.99259 
  -62.75524  0.00153  2.03868     14.16681  1.98876  0.79702  52.92368  0.01056     0.09779    4074.2322   5773.39053  3.01424         3933.25281     19.86804    0.041  57560.65476   5.24045   0.08124   356021.96963  46.39725  23.39159  57623.29172    51.62459       44.79724   34.16104   50.4282   50.0    0.17312  -22.28493  0.99856 
  -58.99173  0.00137   0.9908     14.19448  1.72247  0.88415  27.83424  0.05074     0.01097   6324.34282   5204.10802  2.93059         3688.12054     18.17816  0.00084  57564.41827   6.64106   0.03809    64118.18289  47.70604  23.46591  57640.36085    51.62017       44.81419    34.9744  46.36141   54.0     0.1075  -22.17129  0.99982 
 -104.46692  0.34421  1.89715     14.45066  1.94569  0.30208  28.73703  0.03449     0.36733   4916.74548   8796.15469  2.55394         4621.52589     17.14766    8e-05  57518.94308   4.14404   9.89167    81614.33139  47.08995  23.41241  57615.97638    51.73144       44.85597    40.6679  56.93506   84.0    0.10294  -22.18251  0.86317 
  -68.86781  0.03735  1.16136     14.37337   1.8297  0.58127   41.8749  0.01628     0.17171   3635.27735   6435.72558  3.28141         3887.11059     18.96584  0.00514  57554.54219   3.30108    1.5641    41056.11887  47.78792  22.73118  57489.17711    51.88957       44.83132   51.24156  96.78961   51.5    0.14377  -22.21325  0.99033 
 -148.58926  0.00192  1.40152     13.94359   1.7732  0.75729   82.7034  0.01603     0.01092   4224.75159   7341.79071  2.65661         4038.85508     17.76578  0.00032  57474.82074   8.80548   0.15878   419358.16485  46.60182  23.41292  57623.29172    51.74539       44.85506   41.48126  56.93506   86.0    0.10361  -21.27872  0.99841 
  -56.84517  0.05824  0.88624     14.36007  1.88375  0.70328  96.84074  0.01367     0.23057   6632.05281   9449.67296  2.51634         4321.24489     16.71826    3e-05  57566.56483  25.40863   5.63956    26169.61107  48.23097  23.47165  57630.60706    51.51876       44.75533   26.84082  45.48493   54.5    0.12526  -22.45644  0.98311 
  -48.58627  0.02086  1.31845     14.19098  1.98866  0.68208  34.71483  0.02158     0.35742   4765.61448   8673.65589  3.47967         5822.44033     18.21289  0.00091  57574.82373   4.70305   0.72423   133209.73053  47.20274  23.31973  57615.97638    51.64009       44.83028   33.34768  51.24156   42.5    0.18087  -23.74609  0.99467 
  -65.01894  0.01004  1.65495     13.73097  1.39878   0.7437  29.82695  0.01701     0.04027   5309.91844   9996.93933   3.0524         5740.17579     16.76769    3e-05  57558.39106   5.01663   0.29941  1228009.91092  45.88783  23.32797  57611.09948    51.57695       44.81662   23.58738  49.20712   47.0    0.20394  -23.51916  0.99397 
  -47.42517  0.01983   0.9944     14.31198  1.71271   0.5968  33.74351   0.0417     0.19011   7101.39264   7673.25538  2.79661         4154.32254     18.85015  0.00393  57575.98483   10.1509   0.66916    37382.03984  47.93474  23.32056  57594.03035    51.50053       44.57818   31.72096  68.32208   49.0    0.14023   -22.5027  0.99669 
  -73.37391  0.29921  1.80166     14.53831  2.10687  0.55368  49.69394   0.0174     0.40505   5647.43904   5611.06474  2.99644         3708.01177     16.62585    2e-05  57550.03609   9.45439  14.86904    53232.48807  47.35496  23.24603  57615.97638    51.44573       44.63061   34.16104  49.61484   92.5    0.12406  -22.22841  0.84338 
 -104.00858  0.00642  1.89282     14.08922  1.70234   0.5206  25.87643  0.04134     0.01908   5431.22712   5737.58681  2.40835         3764.89476     17.94618  0.00049  57519.40142   4.55331   0.16622   375521.86293  46.37104  23.52943  57620.85327    51.48724       44.67624   30.99916  47.08321   73.0    0.11913  -21.79645  0.99676 
   -81.3182  0.01967  1.18761     13.94541  1.53124  0.98851  49.79911  0.02583     0.13958   5866.00522   9089.81651  2.66193         4260.32903     16.97561    5e-05   57542.0918  10.22195   0.97944   257858.31483  46.89316  23.44747  57625.73017    51.46499       44.68728   30.09425  46.76704   56.0    0.12235  -22.30503  0.99137 
  -52.61487  0.02475  1.10786     14.30453  1.60626  0.59338  25.33462  0.05919     0.04409    7238.2362   9340.88849  2.80077         3378.32724     16.11088    1e-05  57570.79513   7.91785   0.62715    45034.49788  47.73215  23.35673  57606.22259    51.44087       44.62207   24.44019  55.26889   49.5    0.12486  -22.00072  0.99569 
  -43.80098  0.00141  0.98686     14.01629  1.72591     0.92  23.85108  0.03317     0.01671   4641.84184   3237.97481  3.67055         5995.99737     17.43577  0.00015  57579.60902    3.0656   0.03355   144799.73621  47.35658  23.54074  57640.36085     51.4909       44.72677   30.90761   41.8869   43.5    0.17253  -23.89669  0.99983 
 -110.43329  0.00319  1.46398     13.96045  1.98266  1.29548  67.72117  0.02145     0.15231   5252.93218   4660.02883  2.64174         4100.99664      16.4522    2e-05  57512.97671  11.14693   0.21604   473400.19668  46.55979  23.45731     57633.32    51.49625       44.71078   30.09425  47.17477   69.5    0.11348  -21.64891  0.99801 
 -166.35069  0.26849  1.00563     13.73766  1.55914  1.47132  61.26453  0.04787     0.02664   6866.30725   3114.91401  1.55954         5383.08322     18.42712  0.00149  57457.05931   17.2299  16.44892   490056.56835  46.76661  23.28627  57618.41482    51.56384       44.76728   26.03822  52.85751   85.5    0.08657  -21.76238  0.90705 
 -120.96834   0.0014  0.92423     14.05691  1.74271  0.62847  98.41282  0.02345      0.0649   6216.72086   3175.03101  2.31873         5141.52967     16.73529    3e-05  57502.44166  22.68828   0.13739     106358.313  47.55174  23.37262  57615.97638    51.52459       44.71277   33.34768  49.61484   68.0    0.10341  -21.77537  0.99939 
  -94.82114  0.00186  2.24656     13.64429   1.8576  1.05823  10.77209  0.06416     0.06427   8095.53521   7485.80027  2.13683         4533.51173     19.72973  0.02982  57528.58886   4.21132   0.02007   4479426.0164  45.18354  23.17188  57594.03035    51.55548       44.71315   29.28089  59.37514   80.5    0.14717  -22.68926   0.9995 
 -161.88795  0.27948  0.71222     13.79224  1.49425  1.45505  55.88018  0.04509     0.03219    5947.3362   3252.86915  1.73155         5169.29044     18.33804  0.00121  57461.52205  11.79044  15.61762   183229.44278  47.47504  23.48362  57625.73017    51.42423       44.68095   22.77403  47.17477   90.0    0.08179  -21.60286  0.95195 
  -58.78737  0.02093  1.34007     13.90916  1.72736  1.36651   52.3466   0.0147     0.05138   4580.49265    7291.7757  3.46203         5114.47557     18.48229  0.00169  57564.62263   6.55149   1.09539    437647.1462  46.61085  23.40124  57630.60706    51.51246       44.78537   23.59814  42.28386   47.0    0.16115  -23.28525  0.98972 
  -31.01447  0.00303  0.76573     14.05483  1.52952  1.34273  46.13353  0.01361     0.04421   4173.98602   8089.16717  3.73423         4474.63886      18.5963  0.00219  57592.39553   4.79453   0.13977    64694.83191  47.87438  23.43898  57633.04551    51.50666       44.74186   20.33395  44.73469   40.0    0.18033  -22.86501  0.99957 
  -53.79948  0.23957   1.8045      13.9062  1.42526  1.04469   16.2472  0.03672     0.04142   5592.63722   4918.33653  3.02417          4104.8876     18.20197  0.00088  57569.61052   3.03137   3.89238   663776.33585    46.088  23.28915  57611.09948    51.37872        44.6103   21.96067   50.4282   50.5    0.19682  -22.46845  0.91756 
  -78.60837  0.00301  1.93549      13.8977  1.65285  1.41534   20.9864  0.02328     0.03932   3383.37938   9409.27997  3.10522          3704.1668     18.14339  0.00077  57544.80163   1.43307    0.0631   920925.53154  45.94927  23.45127  57635.48396    51.40087       44.68608   22.77403  41.66519   55.0    0.15319  -21.98385  0.99866 
  -55.92059   0.0016  1.59174      14.0272  1.46516  0.84248  39.03695  0.01103     0.01414   3405.54354    7798.9842  3.29141         3762.37369      18.1749  0.00083  57567.48941    2.7007   0.06249    304111.4965  46.54795  23.47401     57637.34    51.40823       44.64459   30.91836  42.28386   46.0    0.18265  -22.11721  0.99893 
  -63.92181  0.06771  2.02232     13.90165  1.49033  0.66381  13.31499  0.04542     0.21354   6895.46479   5827.72175  2.74963         4306.18039       17.866  0.00041  57559.48819   3.77655   0.90154   890230.33479  45.88093  23.31039  57620.85327    51.54927         44.776   24.54107  49.47451   51.5    0.20722   -22.6881  0.97585 
  -89.90439  0.00121  1.79365     13.62949  1.48485  0.82087  24.13439   0.0225     0.01166   5577.91233   7763.62644  2.63037         5545.06803      16.1105    1e-05  57533.50561   4.47927   0.02926  2443395.24216  45.54506  23.35206  57618.41482    51.45938       44.66709   21.14731  47.17477   63.5    0.16708  -23.12833  0.99936 
 -122.13403  0.01868  2.28168     13.90874   1.9882  0.98236  20.72643  0.04453      0.0694   5470.13329   4216.64686  2.34276         3442.96499     19.83485  0.03798  57501.27597   3.69954   0.38718  1463234.77084  45.68548  23.31658  57611.09948    51.66903       44.76246   44.73469   60.1885   84.0    0.12847  -21.62481  0.99129 
  -63.00551  0.00343  2.01587     13.89634  1.68236  1.09442  17.35415  0.02574     0.03331   3722.31513   5159.69008  3.38511         4071.58957     16.27741    1e-05  57560.40449   1.43436   0.05961  1023234.77092  45.87586   23.4425  57625.73017     51.6724        44.8599   32.53432   50.4282   49.5     0.1834  -22.45951  0.99866 
  -69.42623  0.00735  0.79573     13.90873  1.60328  1.38299    43.304  0.01624     0.07509   3265.74567   7696.19862   3.3936         5403.58295     19.11336  0.00721  57553.98377   2.75499   0.31839   143511.10783  47.51544  23.32085  57608.66104    51.68052       44.79074   40.47364   59.5694   49.5    0.13816  -23.41025  0.99886 
 -121.90949  0.00139  1.47124     14.02187  1.84423  0.68365  71.91227  0.01306     0.27331   3660.53402    8543.7387  3.14739          4519.1112     18.04291  0.00061  57501.50051   5.74803   0.09967   335168.91178  46.67403  23.16728  57562.33053    51.78589        44.8577   43.10798    65.882   73.5    0.11032  -21.78916  0.99896 
  -74.69711  0.14037  1.23644     14.26666  1.68923  0.54239    47.368  0.02419     0.10544   6268.79082   8153.06277  2.84187          4277.1275     19.27398  0.01044  57548.71289  11.10401   6.64898    70230.08906  47.46566   23.4798  57625.73017    51.69578       44.86515    34.9744  52.86827   58.0    0.13327  -22.67524  0.94797 
  -50.08524  0.00117  1.18618     13.88905  1.42766  1.46016  40.29513  0.01913     0.13325   4782.83769   3835.60668   3.2336         4229.19291     17.54012  0.00019  57573.32476   5.49859   0.04696   310912.86126  46.78253  23.37247     57623.41    51.42308       44.64562   29.28089  46.76704   46.0    0.16323  -22.55174  0.99954 
 -129.25267  0.13224  1.42258     13.69533  1.58368  1.22211  23.67796   0.0527     0.29211   5414.89294   5972.08851  2.44493          5041.0086     19.41705  0.01451  57494.15733   4.14144   3.13121   1210536.0849  46.07938  23.42068  57633.04551    51.63114       44.86139   30.90761  44.73469   75.5    0.11889  -22.11001  0.96289 
  -50.71904  0.00228  1.18597     14.34127  2.01884  1.10035  51.43947  0.01282     0.27708   3804.91487   9139.06176  3.43763         3290.36939     17.35365  0.00013  57572.69096   4.44236   0.11714    54767.42374  47.68728  23.34072  57628.16861    51.50285       44.78192   19.53135  44.31621   48.5    0.14759  -21.65095   0.9994 
  -73.38172   0.0111  0.95516     14.06664  1.92932  0.81874  92.85618  0.01002     0.10667   3987.16415    9872.1099  3.61521         5919.16267     16.74931    3e-05  57550.02828   8.80575   1.03097   120253.12099    47.514  23.44229  57620.85327    51.60882       44.78556   28.46753  53.68163   50.5    0.12683  -23.88417  0.99587 
  -76.93987  0.02453  1.81633     13.68844  1.65636  1.34306  16.98145  0.04832     0.06452   6408.61499   6523.00601  2.59595         5585.78383     17.80807  0.00036  57546.47013   4.16035   0.41659  2130496.52593  45.64113    23.205  57579.39967     51.7326       44.82596   35.78775  66.69536   52.5    0.16759  -23.27701  0.99219 
  -78.97546  0.01424  1.23463     13.76398  1.62392  1.38376  20.95797  0.05222     0.20703   4813.22293   3309.36378  3.08704         5704.66782     16.78754    3e-05  57544.43454   2.89633   0.29851    681539.3674  46.46285  23.42705  57630.60706    51.48205       44.76369   23.58738  42.48189   54.0    0.12111  -23.40089  0.99736 
  -71.01955  0.14826   1.5298     14.04016  1.91847  1.43824  16.26455  0.04767     0.03529   4328.41394   9054.96647  3.06445          4428.4978     16.15986    1e-05  57552.39045   1.81772   2.41136   346515.57038  46.64281  23.42366  57620.85327    51.62461       44.82085   30.90761  51.24156   52.0    0.13338  -22.61221  0.97525 
  -74.63471  0.12098  1.40758     13.89572  1.80368  1.55724    16.595  0.07023     0.16586   5649.54075   5457.12426  2.90271         5114.65223     18.89635  0.00438  57548.77529   3.15959   2.00761   536394.44367  46.49857  23.44984   57637.9224    51.55301       44.84382   21.96067  42.29462   53.5    0.13532  -23.10272  0.98065 
  -99.36628  0.00251  1.92448     13.79835  1.60387  1.15393   18.7093  0.06133     0.40336   6241.79175   9456.93402  2.26744         3614.00532     19.21522  0.00912  57524.04372   4.34814   0.04694  1396106.98065  45.76047  23.43497      57627.4    51.29665        44.5971   17.89388  41.88661   60.5     0.1276  -21.82221  0.99896 
  -72.11434  0.33855  1.34222     13.93986  1.74486  1.08811  14.23478  0.08497     0.12122    6377.4405   4756.77208  2.94141         5038.14598     19.83974  0.03841  57551.29566   3.45359   4.81914   385041.65047  46.66945  23.20316  57567.20743    51.60959       44.64161   52.86827  71.57551   53.0    0.13245  -23.18931  0.95675 
 -196.00185  0.00303  1.15372     13.87689   1.8447   0.8563  88.24204   0.0208     0.01227   3926.60656   9387.15122  2.19052         4384.69333     17.92027  0.00046  57427.40815   8.11591   0.26731    401947.9777   46.8064  23.36331  57615.97638    51.50155       44.68918   27.65417  52.86827  109.0    0.05905  -20.77874  0.99829 
 -104.64466  0.00576  1.65641     13.92073  2.03114  1.14982  20.15954  0.07086     0.03475   5805.71908   5031.38721   2.5271         5031.05463     16.94885    5e-05  57518.76534    4.0534   0.11612   745451.09139  46.26583  23.09695  57576.96122    51.65283       44.74737   35.78775  67.50872   65.5    0.12143   -22.3122  0.99867 
  -79.87505  0.01596  0.89252     13.87931  1.50655  0.97321  63.42645  0.02687      0.1691   6144.71944   4791.00583  2.55084         5800.69677     16.58851    2e-05  57543.53495   14.2857   1.01216   194274.75866  47.25718  23.36686      57627.4    51.63759       44.80367   35.78775   50.4282   57.0    0.11123  -23.05658  0.99485 
  -45.01107  0.00101  1.31989     14.13195  1.91534  1.10165  28.99868  0.04255     0.01113   6349.42508   4668.43132  3.02493         4142.47565     18.41199  0.00143  57578.39893   6.97388   0.02917   168747.47347  47.08278  23.34603     57623.41    51.42475       44.67671   24.40074    47.925   49.5    0.13797  -22.52267  0.99977 
  -95.64132   0.0202  1.86606     13.95513  1.88255  0.46694  14.60698  0.05727     0.36739   6713.52943   7751.10515  3.07559         5320.20023     17.29771  0.00011  57527.76868   3.92726   0.29504   748438.48639  46.12758  23.44165     57637.34     51.5962       44.79256   34.16104  46.36141   63.5    0.15831  -23.33583   0.9951 
  -83.27167  0.00118  1.47132     14.04752  1.78594  0.52212  22.77586  0.03502     0.16671   4740.88603    7282.0753    3.342         5796.49795     18.80678  0.00356  57540.13833   3.05366    0.0268   288435.61999  46.72525  23.35911  57618.41482    51.49016       44.65731   36.60111  52.05491   50.5    0.15763  -23.60791   0.9997 
