 texplosion  fnickel    Pspin  log(Bfield)      Mns  thetaPB   mejecta    kappa  kappagamma      vejecta  temperature    alpha  cutoff_wavelength  log(nhhost)      A_V         MJD0   kenergy   mnickel            TSD   log(L0)  Peak_mag     Peak_MJD  log(E_rad)  log(Peak_lum)  Rise_Time    E_fold  tau_1  delta_m15     r_peak     frac 
    -11.027  0.11662  1.08399     14.79032  1.50206  0.11815   7.44432  0.07023     0.02692   9897.38623   9710.24681   4.9783         2188.21828     21.25464  0.99855    56976.153   4.35004   0.86817     4304.40759  48.74157  22.74517     57019.04    51.70977       45.20945   15.46052  25.46439   39.5    0.31775  -22.61832  0.99346 
   -12.1433  0.02398  0.87814     13.72056  1.68393  0.81566  20.06408  0.01099      0.1076   8766.03818   5888.77419  2.67183         2291.25506     21.42929  1.49286   56975.0367   9.19715   0.48117   436651.48387  46.96791  22.85475  57023.75102    51.22592       44.45198    23.6455  42.74379   55.5    0.41988  -23.35738  0.99796 
  -13.00653  0.05428  2.06763     13.82991  1.68901  1.50214   9.37346  0.01891     0.31527   7575.77924   9212.08772  4.24434         2365.33756     21.18465  0.84993  56974.17347   3.20909   0.50878  1467485.64584  45.69896  22.77494     57018.05    51.53507       45.05699   10.91331  26.37383   56.0    0.40794  -22.35492  0.98812 
  -16.45685  0.00136  2.19422     13.68607  1.52792  1.46849   3.31688  0.04333     0.02233   9129.21563   6888.12154  2.79368         2830.34644     21.15291  0.79003  56970.72315   1.64901   0.00453  2899639.47855  45.30804  22.79739     57019.04    51.57552       44.94814   19.09829  27.28327   49.0    0.34794  -22.34503  0.99986 
   -17.8355  0.00127  3.13814     14.02032  2.11315  1.37086   6.37496   0.0394      0.1404   9021.31537   4509.32384  2.08188         2923.76207     20.95543  0.50137   56969.3445   3.09488   0.00811  1759785.32632  45.35497  22.84198  57019.20381    51.11929       44.48114   20.74221  29.27712   63.0    0.31825  -21.97913  0.99968 
  -12.69411  0.02039  3.18196     14.29868  1.60966  0.61267   3.92045  0.05508     0.05714   9001.69457    7522.9195  2.31208         3072.52954     20.81811  0.36546  56974.48589   1.89501   0.07994   382452.84086  45.88761  22.80167     57021.04    51.74231       45.16674   18.18885  25.46439   40.5    0.46419  -21.73352  0.99523 
   -5.30899  0.30591  0.73433     14.21914  1.68756  0.61671   8.35798   0.0508     0.02196   8895.99714   7391.77418  3.39479         2471.62932     21.33362  1.19771  56981.87101   3.94564    2.5568    30802.49117  48.27573  22.80025   57016.9302    51.31079       44.81995   13.64164  25.46439   33.0    0.39817  -22.86114  0.99324 
  -18.16047  0.00448  1.69456     13.99445  1.93917  1.09662   9.25056  0.04735     0.17282    9574.7651   7423.88749  3.70877         2195.88276     21.21802  0.91779  56969.01953   5.05884   0.04145   530460.95043  46.37369  22.69657     57018.05    51.78753       45.30626   15.46052  21.82662   56.5    0.29375  -22.34445  0.99947 
  -13.83888  0.00213  2.17412      13.7895  1.43652   1.1174  11.59687  0.01009     0.11166   5892.91204   9391.85688  2.79186         2873.86083     21.09052  0.68431  56973.34112    2.4023   0.02468  1662273.18716  45.53089  22.83696     57019.05      51.656        45.1153   17.27941   23.6455   59.0    0.40744  -22.07371  0.99917 
  -16.47507   0.0099   2.1064     14.01659  1.85524  0.73444   8.90118  0.01786     0.01325   5482.53671   3360.72661  3.84767         2522.60111     21.19519   0.8708  56970.70493   1.59602   0.08815   708147.96528  46.04004  22.77107     57018.05     51.5573       44.98477   17.27941  25.46439   56.5    0.35637  -22.27932  0.99812 
  -22.12775  0.08586  1.80123      13.5539  1.76947  1.49982   4.19542   0.0647     0.01821  11025.57553   4878.26776  4.53763         2167.99223     21.25206  0.99263  56965.05225   3.04232   0.36023   4159128.3632  45.38655  22.71284   57016.9302    51.14284       44.66433   15.46052  21.82662   51.5    0.29093    -22.648  0.99388 
  -14.81194  0.03192  1.41776      14.0341  1.61943  0.39877   7.86926  0.02738     0.17092   7897.37284   7955.89153  3.51755         2436.67594     21.32197    1.166  56972.36806    2.9277   0.25119   258334.15636  46.76282  22.81579     57018.05    51.68946       45.21739   13.64164  22.73606   66.0    0.35922  -22.86931  0.99703 
  -15.64017  0.16594   2.1171     13.91018  1.55832  1.14542   8.43271  0.01806      0.4674   4764.61588   9317.18492  3.40017         2705.24702     21.10764  0.71182  56971.53983   1.14196   1.39934   980839.58786  45.81842  22.75142     57019.04    51.72917       45.23568   16.36996  24.55494   48.5    0.39063  -21.98093  0.96245 
  -15.17642  0.04609  0.90193     14.16005  1.66249  0.33281  25.43197  0.01798     0.01146   9956.26921   6173.77514  3.44276         2189.84857     21.39761  1.38782  56972.00358  15.03836   1.17225    60091.87188  47.80045  22.67658  57019.20381    51.86993       45.40605   15.46052  20.91718   53.0    0.30111   -23.1359  0.99468 
  -11.13755  0.00553  0.85058     13.98282  1.87104  0.87287  31.59597  0.01002      0.0141    7851.5019   8032.90775  2.36393         2626.72208     21.37285  1.31092  56976.04245  11.61888   0.17469   136049.11903   47.5478  22.75605  57019.20381    51.49027       44.97688     14.999  25.01647   35.0    0.39322   -23.0474  0.99942 
    -17.098  0.00324  1.49249     14.55081  1.15463  0.24667  36.99103  0.01271     0.02736   2576.89015   7707.91539  4.06383         3035.08312     19.46501  0.01621    56970.082   1.46526    0.1198     18900.2829    47.707  22.74706     57018.05    51.40165       44.79468   19.54621  26.83535   58.5    0.12785  -20.79364  0.99746 
   -9.03978   0.0388  0.70668     13.93322  1.83927  1.47928  22.45369  0.01063     0.32709   5829.12714   7451.45885   3.2327         2370.71075     21.37608  1.32071  56978.14022   4.55116    0.8712   116000.64938  47.77059  22.80747     57018.05     51.3257       44.77283   16.36996  22.73606   29.0    0.41905  -22.95572  0.99804 
  -16.28555  0.00511   2.7986     14.01526  1.50488  0.68485    8.6284  0.01513     0.01283   6575.04297   9187.29903   2.8904         2942.78584      20.9176  0.45954  56970.89445   2.22513   0.04409  1020208.26436  45.54378  22.78005  57021.47741     51.1987        44.5546   20.91718   30.0116   55.5    0.35985  -21.81655  0.99772 
  -12.98935  0.00224  1.16112     14.03323  1.84908   0.8771    9.8754  0.03462     0.02047   7899.73486   5188.73549  2.47775         2467.57034      21.2699  1.03425  56974.19065   3.67626   0.02207   198635.82148  47.10799  22.77728   57016.9302    51.63521       45.12513   15.46052  21.82662   42.0    0.35236  -22.61424  0.99986 
  -16.25697  0.00469  1.64895     13.69244  1.86047  1.20365    8.9893  0.02772     0.39647   9122.01013   8663.49096  4.26455         2150.59808     21.29306  1.09091  56970.92303   4.46205   0.04213  1936324.47703  45.81707  22.80553  57019.20381    51.39506       44.88689   16.36996  22.73606   82.0    0.27767  -22.74819  0.99945 
  -12.07578  0.00145  1.10695     13.82001  1.65512  1.48116  12.07925  0.02483     0.09618   8712.69977   7502.38463  4.58538         2129.06559     21.34141  1.21938  56975.10422   5.46982   0.01749    431391.9582  46.76455  22.70513   57016.9302    51.82787       45.30033   16.36996  24.55494   36.5    0.43892  -22.87975  0.99988 
  -11.71352  0.00345  1.47715     14.80587  1.78017  0.10287  12.93354  0.01221     0.08383   6022.85509    9548.5837  3.34511         2572.60855      21.3212  1.16392  56975.46648   2.79865   0.04458     8818.41269  48.23507  22.80791   57016.9302    51.03094       44.52224   17.27941   23.6455   35.5    0.48319  -22.79253  0.99951 
  -15.54162  0.00575  1.18968     13.98876  1.60079  0.48811  18.24208  0.01461      0.0493   6993.88557   4464.03754   4.7879         2225.44232     21.35378   1.2546  56971.63838   5.32278   0.10494   221557.35031  46.97683  22.71475     57019.04    51.63694       45.15046   14.55108  22.73606   49.0    0.35658  -22.89469  0.99912 
  -14.90522  0.10918  1.04507     13.89464  1.66321  0.81527  19.80753  0.01592     0.04169     6600.516   4691.62655  4.24765         2263.29196     21.35078  1.24597  56972.27478    5.1477   2.16251   274013.11731  47.01373   22.7765     57019.04    51.94769       45.29008   18.18885  33.64937   43.5    0.33414  -22.83423  0.98695 
   -3.53868  0.00398  0.70202     14.85984  1.58605  0.25362  25.21352  0.01424     0.01276   5926.35453   8929.63898  2.99481          2941.7675     21.02555  0.58922  56983.64132   5.28246   0.10042     1384.05222  49.63532   22.7415     57018.05    51.43545       44.95186   15.46052  21.82662   29.5    0.33073  -22.02587  0.99986 
  -13.87181  0.21334  2.57937     14.23528  1.38208  0.50541   7.52596  0.01835     0.05049    4268.6777   9047.60191  3.80663         2848.05906       20.934  0.47723  56973.30819   0.81804   1.60556   288946.22324  46.12553  22.81795   57016.9302    51.09129       44.46336   19.54621  28.65424   43.0    0.40618  -21.66562  0.92632 
  -12.00128   0.0367  3.90923     14.07137  1.85494  1.33514   2.95085  0.01928     0.26859   3045.23909   5867.87065  3.55126         3269.68651     20.76105  0.32046  56975.17872   0.16324   0.10828  1894870.78726  45.07541  22.73358     57018.05    51.25255       44.75497   16.36996   23.6455   38.5    0.47791  -21.61122  0.99207 
   -11.7723  0.38132  0.88413     13.91001  1.65624  0.78589  17.22789  0.02671     0.03415    9615.2198   6857.33423  3.77643         2184.44707     21.37225  1.30911   56975.4077   9.50118   6.56929   181947.65436    47.335  22.70004   57016.9302    51.77894       45.29956   15.46052  21.82662   49.5    0.32452  -23.08241  0.97203 
  -11.61406  0.27943  2.89076     14.07956  1.37045  1.28571  10.58766  0.01364     0.23228   4930.48438   5340.64679  3.69769         2893.75068      20.7825  0.33669  56975.56594   1.53535   2.95853   737176.02415  45.61611  22.78108  57019.20381    51.00299       44.46339     16.195  26.54879   43.5    0.46424  -21.53118  0.84342 
  -10.58377   0.0309  3.00633     14.72083  1.72096  0.36418    7.0957  0.03465      0.0239    6056.8803   3008.43087  3.70379         2881.93843     20.64581  0.24577  56976.59623   1.55282   0.21927    52240.57684  46.83054  22.74283  57019.20381    51.39173       44.88598   15.46052  24.55494   32.0    0.43435  -21.43038   0.9896 
   -6.38183  0.05077  0.70324      13.9207  1.70272  0.98613  16.85939  0.01574     0.04992   6982.60443   6256.71401  3.99677         2289.37695     21.42181  1.46735  56980.79817   4.90347   0.85598   112659.24404  47.75402  22.83449  57019.20381    51.83617       45.29052   18.18885  24.55494   27.5     0.4751  -23.21895   0.9978 
  -10.42718  0.03881  2.13228      14.0805  1.50943  1.05722    7.0925  0.02551     0.38258   6634.84453   7953.55034  2.68326         2867.50708     21.01725  0.57807  56976.75282   1.86246   0.27524   439852.15048  46.14666  22.75501  57014.65659     51.0801       44.54082   17.27941  28.19271   34.0    0.51106  -21.90322  0.99196 
  -18.64849  0.23919  3.14559      13.8502  1.48883  0.95874   2.37748  0.06553     0.29933   7775.92615     6183.984  3.65025         2714.44449     20.77829  0.33344  56968.53151   0.85753   0.56868  2726928.90838  45.01061  22.70625   57016.9302    51.61744       45.19266   12.73219  19.09829   79.5    0.29241  -21.66269  0.96311 
  -12.89083  0.01331  1.31962     13.89517  1.64187  0.83058  15.86814  0.01311     0.29543   6414.11748   7182.33862  3.33268         2478.20777      21.3126   1.1411  56974.28917   3.89428   0.21123   430243.12646  46.60957   22.8034  57019.20381    51.64072       45.17159   12.73219   23.6455   40.5    0.40014  -22.73546   0.9979 
   -8.79222  0.01417  2.52204     14.23818  1.73137  1.21597   10.3053  0.01115     0.41384   3271.00563   8133.31113  3.32703         3063.84753     20.85084  0.39407  56978.38778   0.65773   0.14598   341458.69233  46.17039  22.74787     57018.05    51.65461       45.19865   14.55108  20.91718   27.5    0.49631  -21.58306  0.99515 
  -24.05275  0.01138  3.49519     13.88863  1.81447   1.3206   13.4129  0.01575      0.0452   6519.83059   5523.76934  2.58143         3092.17005     20.70325  0.28053  56963.12725   3.40113   0.15258  3437483.79892  44.90441  22.76603   57016.9302    51.49174       44.94793   16.36996   23.6455   79.5    0.24209  -21.57672  0.99066 
  -13.93511  0.00167  2.50523     13.97829  1.72071  0.69896   7.49695    0.011      0.0108   5791.91485   9700.61408  2.61579         2930.66649     21.08592  0.67708  56973.24489   1.50022   0.01251  1108244.68845  45.66222  22.69317     57021.05    51.73603       45.22574   15.46052  24.55494   64.0    0.35949  -22.07147  0.99957 
  -11.00568  0.02112   2.3479     14.38687  1.88382  0.67524   8.51117  0.02261     0.01485   5458.33839   4441.38156  3.18618         2912.12697     21.02277  0.58546  56976.17432   1.51265   0.17971   162355.81102  46.59206  22.74796  57019.20381    51.55556       44.87602   18.63677  33.20145   30.5    0.45991  -21.92277  0.99543 
   -6.43417  0.21004  0.72181     14.01002  1.72195  0.84025  20.28445  0.01101     0.12122   6983.19763   5278.95068  3.69136         2308.53802     21.40719   1.4188  56980.74583   5.90064   4.26052    79548.45038  47.88739  22.74851     57018.05    51.93505       45.49027   13.11644  20.53293   26.0    0.54018  -23.17448  0.98885 
  -12.08826  0.01379  1.51848     13.67569  1.42967  1.50266  17.39188  0.01131     0.01616   6865.70854   9646.82266  3.43746         2415.87888     21.23855  0.96222  56975.09174    4.8904   0.23975  1362963.91742  45.92678  22.76973     57019.04    51.88353        45.3724   16.36996   23.6455   56.5    0.37476  -22.46356   0.9961 
  -13.54975  0.00192  3.15753     14.08343  1.96924  0.77183   8.88024  0.01135     0.19859   5774.64972   8550.86426   3.2047         2811.41318     20.99264  0.54623  56973.63025   1.76646   0.01707  1241504.25462   45.4705  22.74091     57018.05    51.18928       44.68263   16.36996   23.6455   70.0    0.35757  -21.90786  0.99925 
   -7.20374   0.0128  0.85434     15.07324  1.99906  0.12094  19.90402  0.02268     0.01385   6093.03025   7005.32543  3.27042         2701.66192     21.22853  0.94028  56979.97626   4.40793    0.2548      966.97541  49.72099   22.7566     57018.05    51.70984         45.215   16.36996   23.6455   36.0    0.26228  -22.43532  0.99932 
   -6.67832  0.00626  1.20037     14.43644  1.93026  0.77103  15.00516  0.01848     0.01188   5632.04243   4166.17387  3.01108         2780.33426     21.10317  0.70453  56980.50168   2.83922   0.09391    34608.37496  47.85665  22.72591  57019.20381     51.5052       44.99701   15.90844  24.10703   29.5    0.40027  -21.99617  0.99947 
   -7.70883  0.07322  0.76401     13.96922  1.54135   0.6482  30.56123  0.01147     0.03773  10656.93559   9520.28926  3.23341         2160.84405      21.3873  1.35527  56979.47117   20.7044   2.23776    96266.80723  47.70707  22.74804   57016.9302    51.52027       45.10861   10.00387  21.82662   37.0    0.45334   -23.1456  0.99198 
   -9.90481  0.00165  1.85823       14.412  1.88525  0.55109   7.88247  0.03123     0.01399   5851.37282     7350.578   2.7408         2970.35765     21.09005  0.68356  56977.27519   1.60992   0.01304    90651.52397  47.04864  22.81551   57016.9302    51.43153       44.94414   15.46052  20.91718   33.0    0.40037  -22.10652  0.99979 
  -12.21597  0.23788  3.23409     14.78229  1.86471  0.31422  13.04431  0.01277     0.09239   5596.69517   5210.53157  2.65704         3014.62704     20.76859  0.32607  56974.96403   2.43731   3.10295    49358.29347  46.82659  22.78396     57018.05    51.63221       45.19043   13.64164  20.91718   48.5    0.43317  -21.53296  0.86722 
   -9.18933  0.00142  1.85201     14.45478  1.57713  0.53329    8.0004  0.03287     0.30738   5268.82555   5364.29035  3.35228         2917.86346     20.89768  0.43894  56977.99067   1.32485   0.01139    61859.02502  47.14002  22.81831  57014.65659    51.15931       44.70123   14.55108  20.00773   31.5     0.4046  -21.70643  0.99977 
  -15.72594   0.1296  3.34596      14.4783  1.84788  0.46686   4.83591  0.04409     0.20371   5573.03325   7143.56656  3.57397         2842.26274     20.79323  0.34511  56971.45406   0.89596   0.62672   212295.38319  46.15954  22.66851  57014.65659    51.61553       44.89888   16.36996  39.10602   46.5    0.36407  -21.54262  0.96732 
  -12.23027  0.01123  1.38413     14.11355  1.82395  0.96443  18.46631   0.0169     0.32015   6049.19386   4724.00145  2.89548         2710.62507     21.17844  0.83786  56974.94973    4.0309    0.2073   192341.34913  46.96343  22.78541  57019.20381    51.94253       45.49379   13.12044  21.43837   37.0     0.3502  -22.30671  0.99809 
  -13.70159  0.01177  0.89398     14.02687  1.63945  0.50761  23.95678  0.01396     0.01785   8373.79002   6295.92767  3.18811         2349.04669     21.38516   1.3486  56973.47841  10.02074   0.28201   107506.78022  47.54945  22.80212     57019.04    51.45848       44.95832   16.36996  25.46439   40.5    0.37346  -23.12354  0.99872 
  -14.69782  0.34688  2.68072     14.27004  1.78449  0.56372  14.68062  0.01008     0.01011   5593.94777   8962.79058  2.87138         2892.53063      21.0484  0.62105  56972.48218   2.74037   5.09243   343368.34507   46.1281  22.81766     57021.04    51.28374       44.73641   16.36996  25.46439   66.0    0.38612  -21.99249  0.84321 
  -14.99178  0.00136  1.91289     14.23172  1.84121   0.4311   5.46649  0.03421     0.03396   8330.71902   8279.88056  2.32898         2667.64558     21.21041  0.90186  56972.18822   2.26309   0.00743   215210.39876   46.6377  22.77954  57014.65659     51.4386       44.98896   13.12044  21.43837   57.0    0.38469  -22.44369  0.99987 
  -14.93866  0.32376  1.41323     13.74132  1.76401   1.0311  14.15872  0.01383     0.18596   6748.22723   8513.69801  3.43245         2469.10561      21.3576   1.2657  56972.24134   3.84619   4.58402  1076708.03158  46.18283  22.73255     57018.05    51.07605       44.39865   18.12333  29.16768   66.0    0.34631  -22.91503  0.95471 
   -8.91074   0.0116  3.00158     14.24161  1.56277  1.48848  16.50188  0.01836     0.13967   5916.76569   5548.11002  4.11539         2799.20317     20.22466  0.09319  56978.26926   3.44611   0.19136   429718.20744  45.87486  22.81717  57019.20381     51.3081       44.59517   20.91718  39.10602   35.5    0.36627  -21.20278  0.98954 
  -12.25219   0.0189  1.15103     14.63387  1.56253  0.17089  17.82633  0.01737     0.11332   8025.49729   9791.36764  2.64208         2622.15842     21.26909  1.03233  56974.92781   6.84909   0.33686    10376.97247  48.32443  22.77852  57021.47741    51.61305       45.05154   17.21388  25.52991   36.5    0.40745   -22.6108  0.99728 
  -10.86862  0.01793  1.76205     13.93341  1.52862  1.17032  10.71066  0.01934     0.06251   4980.14669   5194.71417  3.37673         2836.47263     21.12403  0.73919  56976.31138   1.58463   0.19203   598860.91596  46.18378  22.81953     57021.04    51.70987       45.20556   14.55108  25.46439   36.0    0.39284  -22.18188  0.99622 
  -14.28305  0.02956  3.12249     14.16941  1.77379  0.77839    5.9785  0.01939     0.09586   4227.00035   9064.97384  3.79936         2862.01465     20.92358  0.46592  56972.89695   0.63721   0.17672   736026.66969  45.66185  22.84424     57019.05    51.61523       45.13519   13.64164  24.55494   42.5    0.42668  -21.71409  0.99122 
  -14.19307  0.01462  3.26596     14.02942  1.56576   1.0161  11.74755   0.0102     0.12199   5878.89721   4836.12433   3.3707          2888.0903     20.82117  0.36804  56972.98693   2.42196   0.17174  1354314.31964  45.30383  22.83159  57019.20381    51.93464       45.41948   15.46052  25.46439   50.0     0.4511  -21.63325  0.98875 
