 log(Bfield)      Mns    Pspin  cutoff_power  cutoff_wavelength  fnickel    kappa  kappagamma   mejecta  log(nhhost)  temperature  texplosion  thetaPB      vejecta      A_V        MJD_0   log(KE)      M_Ni  Peak_mag     Peak_MJD 
    14.60823  1.61907  1.26179       4.84179         2141.05198  0.06937  0.06651     0.03257   6.18002     21.33755    8833.8662   -13.59091  0.12541   10617.0975  1.20859  56973.58909   52.6039   4.14445  22.83802     57021.04 
    13.81364  1.94317  2.44875       2.34762         2493.59684   0.4898  0.01807     0.14962   9.93529     21.15356   7484.19231   -17.34863  0.94208  11040.77993   0.7912  56969.83137  52.68514  32.62366  22.74374  57022.11707 
    13.85308  1.84072  1.45333       4.58356         2110.76221  0.23047  0.01047     0.24014  37.02896     21.32827   8495.24178   -13.07195  1.34707  11238.82816  1.18305  56974.10805  52.80971  19.73575  22.73895     57021.04 
    13.64169  1.48205  1.98928       2.88663         2673.76272  0.00494  0.01283     0.33818    9.1479     21.16878   7828.05312   -14.34218  1.54928   6474.44107  0.81942  56972.83782  52.21369   0.32339  22.78557     57018.05 
    14.01745  1.88297  4.35236       2.57399          2915.5108  0.25283  0.01413     0.01569  11.31824     20.61166   6658.09553    -17.3422  0.98897   8114.66529  0.22719   56969.8378   52.4298  17.31677  22.83774  57019.45569 
    13.92027  1.47909  3.36313       3.06874         2945.94766  0.06525  0.02672     0.09429   5.60981     20.67813   8653.58783   -19.38208  0.86493    5833.7791  0.26476  56967.79792  52.07349   3.80672  22.75809     57021.04 
    14.46851  1.74758  2.12356       3.02915         2834.73709  0.01017  0.04144     0.01281   4.54022     20.96942   6097.91739    -6.71499  0.62361   5461.77572  0.51778  56980.46501  51.99287   0.56223  22.85766  57014.13293 
    14.26173  1.85734   2.3478       3.29756         2488.90578  0.00172  0.04128     0.05464   4.32467     21.16222   4832.68611   -17.56932  0.32617   8104.46661  0.80713  56969.61068  52.33009   0.09379  22.68413     57019.04 
      13.806  1.24685   1.2663       2.71501         2576.41686   0.0248  0.01897      0.0139  14.13704     21.26973    9408.7262   -14.42875  0.67296   7780.26083  1.03385  56972.75125  52.41318   1.77856  22.83792     57021.04 
    14.00101  1.88501  1.87315       3.31603         2422.92669  0.00129  0.01545     0.02035  10.65188     21.26474   3107.89093   -17.37997  0.65056   6303.18144  1.02204  56969.80003  52.20478   0.08727  22.77726     57018.05 
    13.49959  1.66733  1.47354       4.19305         2221.40132  0.05823  0.05588     0.02417   4.93199     21.31794   4136.37228   -20.81868  1.48888     9582.067  1.15522  56966.36132  52.49042   3.28856  22.77979  57016.79431 
     13.9249  1.36023  1.74703       2.84432          2436.2159  0.02536  0.02057     0.17568   9.81038     21.19959   8666.41196   -13.63059  0.51968  10603.78418  0.87967  56973.54941  52.64887   1.68481  22.76718     57018.05 
    13.83461  1.64768  2.22773       2.74009         2762.52097  0.07745  0.01742     0.24505    7.7334       21.114   8889.21925   -16.15772  1.10587   5372.14473  0.72232  56971.02228  52.03514   4.87794  22.92263     57021.04 
    14.38559  1.81997   1.4398       3.20581         2664.73732  0.06824  0.01417     0.03703  25.65695     21.16546   4908.47159    -8.56295  0.58568   6877.76219  0.81319  56978.61705  52.35538   5.48146  22.81773  57016.79431 
    13.79757  1.94408  1.22173       2.71324         2388.50459  0.10594  0.01036     0.02957  18.91595     21.39463   7718.56767   -14.60034  0.89512   8245.87661  1.37835  56972.57966  52.48845   8.04266  22.81692  57016.79431 
    14.76407  1.53397  1.65904       3.52526          3014.6037  0.00182    0.012     0.02427  37.56374     19.79088   5439.15316   -12.81829   0.2762   3086.40553  0.03432  56974.36171  51.68822   0.15653  22.75117  57016.79431 
    14.09557   1.8635  1.11908       3.09536         2591.03146  0.05697   0.0101     0.27326  19.73678     21.26358   5668.57661     -6.6691  1.45798   5250.43706  1.01932   56980.5109  52.09987   4.35997   22.8136     57018.05 
    13.72501  1.19695  1.65145       2.46878         2695.90821  0.00196  0.04366     0.03702   3.99896     21.15702   8272.10792    -17.0853   0.5266    8961.0049  0.79754   56970.0947  52.40825   0.10457  22.75427  57019.45569 
    13.72339  1.64419  1.73817       2.62043         2505.53065  0.03714  0.01303     0.06879   9.16211     21.24954   6638.84674   -14.74139  1.12607   6861.65963  0.98688  56972.43861  52.26429   2.43006  22.75613  57019.45569 
    13.88313  1.81616  2.12859       3.64803         2462.66181  0.09151  0.03036     0.35568   6.34905     21.21572   9856.60299   -15.45037  0.92702   8126.31293  0.91296  56971.72963  52.37451   5.50224  22.73144  57016.79431 
    13.91698  1.75227  0.92206       4.86338         2004.89342  0.00276  0.05414     0.23981   8.23497     21.37244   4643.53833    -6.93755   1.1757  11472.05759  1.30968  56980.24245  52.70035   0.17646  22.69717     57018.05 
    14.86009  1.81546  1.41594       3.13149          2547.0515  0.00278  0.01705     0.04698  14.31338     21.31223   9250.79313   -12.36731  0.10625   7041.28098  1.14015  56974.81269  52.32758   0.19971  22.82644  57016.79431 
    13.97844  1.70539   1.5704       4.65996          2242.1377  0.01563  0.02538     0.04882   13.6702     21.27924   6788.89261   -14.82288  0.68787   8916.44421  1.05673  56972.35712  52.52862   1.11348  22.82921     57018.05 
    13.74516  1.46398  1.50332       4.49019         2312.26394   0.0643  0.01664     0.01634  10.50293     21.28395   5646.26842   -14.87883  0.84066    6435.1932  1.06827  56972.30117  52.22147    4.3343  22.71802     57018.05 
    14.34086  1.42054   1.4723       2.69435         2893.42687  0.01154  0.02605     0.01614  10.03359     20.98269   8623.61828    -8.36474  0.58387   5562.56201  0.53384  56978.81526  52.09062   0.76994  22.80673     57018.05 
      14.376  1.51727   3.0268       2.95427         2672.57944  0.36451  0.05916     0.04005   3.46732     20.83428   9642.64119   -17.86131  0.31335   6910.76163  0.37932  56969.31869  52.16549  18.72902  22.78867  57016.79431 
    14.10615  1.57054  1.72197       3.11955         2854.79042  0.02273  0.01275     0.01079  12.31758     21.03703   7066.11312    -7.82676  1.05226   3539.31846    0.605  56979.35324  51.71679   1.58443  22.80286     57018.05 
    13.83268   1.4143  1.16152       2.36638         2523.35852   0.0834  0.02118     0.01942  11.37397     21.34421    6268.4866   -17.13988  0.43554   8768.61438  1.22727  56970.04012  52.49757   5.71799  22.74868  57016.79431 
    13.78797  1.43206  1.88647       3.18098         2652.13011  0.28009  0.01835     0.45543   8.76768     21.16132   6623.95735   -14.47164  1.56886   5695.56752  0.80547  56972.70836  52.09826  18.14927  22.77851  57014.13293 
    14.54826  1.87036  2.50515       3.48832         2789.85763  0.01222  0.01849     0.02814   8.11557     21.06072    7408.0757     -11.132  0.35045   4434.00116  0.63892    56976.048  51.87322   0.77846  22.85484     57018.05 
    13.83577  1.63297  1.42181       4.62149          2299.5307  0.02471  0.01025     0.19916  14.75485     21.30107   3865.96291    -9.03538  1.18629   5068.99772  1.11121  56978.14462  52.04476   1.78752  22.79132     57018.05 
    13.89724  1.63053  2.11792       2.41183         2743.91383  0.02088  0.01292     0.08171  10.84696     21.13206   7749.46525    -13.2505  1.49446   6427.48452  0.75298   56973.9295  52.22342   1.41694  22.78085  57016.79431 
     14.2962   1.3189  1.97736       3.48026         2223.89569  0.33612  0.09596     0.12336   6.92454     21.02764   6829.19013   -13.71624  0.37157  16937.71511  0.59207  56973.46376   53.0214  20.63282  22.83154     57019.04 
    13.67479  1.74001  1.36612       3.14106          2405.9887  0.07585  0.01024     0.06766  17.35738     21.35831   8059.77967   -18.12978  0.90182   7300.87286  1.26777  56969.05022  52.37555   5.66441  22.79919     57018.05 
    14.30589  2.15015   1.9441       2.85942         2518.37266  0.00599  0.03526     0.03811   6.52751     21.23462   7323.83488   -10.43611   0.6803   8031.46464  0.95355  56976.74389   52.3672   0.36231  22.76767  57019.45569 
    14.13778  1.73898  3.98592       2.43613         3195.18328  0.02032  0.02561     0.05142   6.43956     20.46292   7520.80001   -16.39975  0.93212   5791.15018  0.16131  56970.78025  52.08173   1.22603  22.68763     57018.05 
    13.84869  1.74254  2.09726       2.42926         2743.89799  0.01986  0.01444     0.19929   8.95556     21.19405   9159.43824   -14.99175  0.95806   7129.54323  0.86851  56972.18825  52.29536   1.29285  22.85528     57021.04 
    14.53945  1.50205  2.66697       2.66685         2941.98455  0.41735  0.02345     0.04712   9.85654     20.86972   8480.11036   -14.63336  0.28481   6305.01361  0.41157  56972.54664  52.19776  27.74995  22.76629     57021.04 
    13.77143  1.42221  1.56697       3.46039          2139.7961  0.48707  0.04216     0.26771   6.61765     21.27855    8624.7289   -14.84799  0.68489  14251.55696  1.05506  56972.33201  52.86675  29.57919  22.80968     57019.04 
    13.91496  1.39645  2.43783       3.08942         2774.74065  0.01195    0.014     0.01342  17.26669     20.83309   9508.76144   -12.39872  1.54344   6658.43075  0.37828  56974.78128   52.2951   0.89142  22.86866     57021.05 
    14.18712   1.7201  2.19993       2.93668         2672.95929  0.00329  0.02129     0.11421   7.11398     21.13946   5550.59514   -12.26238   0.6074   5965.38816  0.76593  56974.91762  52.11772   0.20326  22.56956  57016.79431 
    14.14084  1.76809  2.56896       2.95078         2743.08021  0.02091  0.01282     0.13211  11.42535     21.06327   4852.57942   -12.09602  0.84652   5491.82949  0.64269  56975.08398  52.09156   1.43486  22.77156     57021.05 
    14.43792    1.718  1.44772       3.26106         2879.93758  0.00124  0.03161     0.06752   9.70285     20.92967   3117.50774    -4.83588  0.72961   4978.38945  0.47249  56982.34412  51.99108   0.08227  22.72195     57018.05 
    14.25181  1.79094   1.2494       3.09706         2283.00282  0.01043   0.0126     0.32828  25.35011     21.29999   6059.16076   -11.59015  0.43012   8189.05901  1.10846  56975.58985  52.50601   0.83607    22.834  57014.13293 
    14.86351  1.85486  2.35463        2.4415         3233.20586  0.00794  0.01726     0.01295   9.72167     20.88399   6883.17736   -10.45376  0.23069   4095.38787  0.42532  56976.72624  51.82168   0.52664  22.76434     57018.05 
    14.74402  1.66417  5.55182       2.08463         2870.77071  0.44038  0.02452     0.02261  17.65937     20.17127   5951.08795   -13.39348   0.3296  16190.35589  0.08241  56973.78652  53.06876   32.9951  22.78225  57014.13293 
    14.86462  1.94411  2.53104       3.23783         2886.95718  0.00802  0.02253     0.17163   9.55351     20.73909   3659.88971   -10.02293  0.29206   4056.11979  0.30466  56977.15707  51.81165   0.52971  22.85507  57016.79431 
    14.98184   1.9548   3.1232       3.73489         2768.93635  0.23037  0.04935     0.05741   4.19924     20.90113   7560.68157   -11.77757  0.17175   5632.54697  0.44244  56975.40243  52.01065  12.47481  22.81804     57019.04 
    13.69608  1.49593  2.40621       3.90295         2362.40261  0.21031  0.04354      0.3451   4.18497     21.08123   6327.24961   -14.71602  1.46952  10339.96701  0.66981  56972.46398  52.53788  11.37848  22.62673     57018.05 
    14.00364  1.93501  2.18541       2.99032         2568.60188   0.1351  0.01439     0.11113  11.67348     21.19665   8340.14139    -18.6951   0.5052   7284.80326  0.87373   56968.4849  52.33892    9.3132  22.73534     57021.04 
    14.13786  1.77034  2.26143       2.95807         2785.06893  0.22875  0.01499     0.07143  14.36966     21.12166   8783.38709   -13.28318  0.76915   6738.40373  0.73517  56973.89682  52.28973  16.45674  22.71661  57016.79431 
    13.98143  1.52359   1.9264       2.88001         2772.17489  0.01099  0.05244     0.11424   4.03939     21.13524   5582.57753   -11.15179  1.30324   6888.30527  0.75852  56976.02821  52.18094   0.58895  22.79073     57018.05 
    13.87963  1.57237  2.75491       3.09116         2844.43445  0.03972  0.03104     0.23167   5.21691     20.94069   7241.30186   -16.77947  1.03008    5496.7944  0.48464  56970.40053  52.01392   2.27575  22.75868     57018.05 
    14.18116  1.82825  3.91886       3.76866         2802.61794  0.00784  0.01835     0.36354  10.00543     20.53863   6312.06267   -15.12563  1.43808   5500.20615  0.19202  56972.05437  52.08056   0.52297   22.8108  57019.45569 
    14.10889  1.67303  2.02722       2.14078         2606.02237  0.14674  0.03155     0.23183   8.92921     21.15255   6372.15854   -17.49533  0.52468   9580.28744  0.78937  56969.68467  52.55171   9.54735   22.6548     57018.05 
     14.1887  1.57301  2.19908       3.28107         2875.24703  0.01003  0.02827     0.09303    7.9654     20.89828   4824.60168    -9.73093  1.08617    5165.2188  0.43955  56977.44907  52.00396   0.63627   22.8138  57019.45569 
    13.95602  1.64405  2.75602       3.50311         2776.92599  0.05149  0.01001     0.21005   7.33438     21.01966   8374.59818   -15.69967  0.67793   4420.31274  0.58128  56971.48033  51.86044   3.20384  22.79922  57022.11707 
    14.16198  1.85872  4.26565       3.13064          2804.7461  0.06831  0.01564     0.01152    15.273     20.43898   4447.09148   -17.53071   1.3858   6550.79577  0.15265  56969.64929  52.27049     4.975  22.85277  57019.45569 
    14.39904  1.93236  3.60548       2.13731         2986.94633  0.04862  0.08574     0.19169   2.16592     20.85909   5448.82509   -15.45446  0.45891   8369.05535  0.40163  56971.72554  52.27009   2.16718  22.78225  57024.77845 
    14.26544  1.90575   1.2779       2.01673         2332.40522   0.0012  0.03066     0.31485  12.52718      21.2996   6277.33111   -11.20566  0.48571  12326.93213  1.10746  56975.97434  52.80218   0.08427  22.84818  57019.45569 
    14.04098  1.58849  1.69761       2.45454         3043.41529  0.03765  0.01078     0.12437  16.26408     21.07846   8358.25818   -10.56834  1.37277   4215.24201  0.66556  56976.61166  51.89294   2.77592  22.85908  57022.11707 
    13.99021  1.57118  1.34718       4.97253          2261.3127   0.0318  0.02385     0.39879  13.30154     21.29616   3766.08439    -7.82649  0.84218   9466.09059  1.09873  56979.35351  52.57816   2.25233  22.78371     57021.04 
    14.83276  1.92989  2.00392       2.92254         3124.69868  0.01126  0.01031     0.03444  19.87346     20.73673   4987.01386    -5.71372   0.3967   3938.94687  0.30301  56981.46628   51.8508    0.8628  22.80128  57016.79431 
    14.33631  1.70286  2.45302       2.84658         2981.46922  0.41069  0.02229     0.22792  12.82054     20.70864   8169.61625    -9.05162  1.49477   5888.43144  0.28404  56978.12838  52.16254  28.86889  22.87475     57019.04 
    14.01635  1.41205  0.89822       2.11271         2803.06632  0.00235  0.04353     0.24602   6.16106     21.22209   5455.67269    -5.99486  1.00077   7499.37265  0.92645  56981.18514  52.30162   0.14005  22.72722  57016.79431 
    13.97619  1.48939  3.11362       3.14607         2940.18105  0.02862   0.0146     0.02025   6.29385     20.84596   4173.04542   -14.75882  0.75259   4546.00063  0.38966  56972.42118  51.86907   1.71714  22.87107  57022.11707 
    14.32126  1.41612  1.16985        2.9161         2847.62911  0.00235  0.01973     0.01683  20.07614     20.98027   3275.37316    -5.36324  0.70263   6849.76804  0.53088  56981.81676  52.33222   0.18016  22.72487  57016.79431 
    13.72708  1.44762  3.44171       3.21446         2775.37333  0.07378  0.01468     0.07788  13.81228     20.40425    9603.8134   -19.43174   1.3037   9080.46744  0.14092  56967.74826  52.54536   5.26556  22.79165     57019.04 
    14.01983  1.39957  1.70197       2.49078         2875.05229  0.00495  0.02367     0.08041   9.24187     21.07422    9747.8665    -9.19846  1.23221   6749.46289  0.65909  56977.98154   52.2508   0.32431  22.79052     57021.05 
    14.30467  1.43049  1.27706       2.87657         2952.47091  0.00428  0.06872     0.05443   3.89127     20.82717   4132.13967    -4.60434  1.02967   5491.69114  0.37316  56982.57566  51.97973   0.22694  22.75858     57018.05 
    14.47586  1.60405  2.51437       3.44038          2920.0539  0.11719  0.03547     0.04517   6.52957     20.74039   6124.28408    -9.20464  0.59398   5193.64603  0.30557  56977.97536  51.98858    7.0942  22.72837     57019.04 
    14.11833  1.48256  2.48755       3.66435         2927.94329  0.00825  0.01791     0.12779  10.26467     20.77071   6836.73563   -11.09817  1.20956   3984.77006  0.32767  56976.08183  51.80301    0.5536  22.64459     57018.05 
    13.94952  2.02283  1.97967       3.37117         2388.86453  0.23498  0.01678     0.20827   9.81125     21.23725   5476.29039   -12.69888  1.49586   6186.48981  0.95936  56974.48112  52.18084  15.60852  22.77407  57016.79431 
    14.07523  1.73674  1.91159        2.5402         2720.32815  0.05176  0.01736     0.10166  12.55993     21.13519   5315.06638   -14.05425   0.9261   5563.25386  0.75842  56973.12575  52.11136   3.62269  22.66834  57016.79431 
    14.05573  2.01139  1.37856       2.34272         2682.02306  0.00143  0.01994      0.0343   11.6364      21.3246   8276.07893   -10.82062  0.84129   7703.90131  1.17307  56976.35938  52.38722   0.09867  22.81101     57018.05 
    14.10514   1.8555  1.97354       4.38238         2441.40801  0.02099  0.01618     0.13089  17.49855     21.17826   4109.50267    -7.66727  1.45184   8900.95362   0.8375  56979.51273  52.54836   1.56988  22.82339  57019.45569 
    14.48009  1.77281  2.45222       3.72194         2349.29406  0.39772  0.07167     0.12129   3.44968     21.13053   5502.78421   -12.36119  0.25575  11104.83276  0.75034  56974.81881  52.57684  20.40635  22.87132     57018.05 
    14.13442  1.83666  2.67907       3.04586         2861.39964  0.04905   0.0145     0.06863   8.32471     21.02962   7991.59726   -13.02618   0.9079   4445.94908  0.59476  56974.15382  51.87806   3.14179  22.81498  57016.79431 
    14.31723  1.50073  1.60699       3.31503         2370.49967  0.01176  0.03099     0.03845   6.27026        21.25   6815.87969   -12.68878  0.23785   8109.37848  0.98793  56974.49122  52.37139   0.70518   22.7964     57021.04 
     14.0276  1.30533  2.73096       1.81721         3307.53342   0.0276  0.06004     0.09528   5.10069     20.46458   3518.09682   -13.57419   1.3172   8160.10831  0.16192  56973.60581  52.35462   1.57199  22.71988     57019.05 
    13.99698  1.68639  2.52727       2.41119         2932.79394  0.02923  0.01524       0.046  15.00563     21.00413   5914.16729   -15.08994  1.29988   7159.47133  0.56087  56972.09006  52.34614   2.12105  22.79071  57016.79431 
    14.26361  1.73133  1.98289       4.10857         2216.50246  0.43938  0.03148      0.1564   6.74076     21.21212   8844.86075   -17.96959  0.20998  11846.76293  0.90541  56969.21041  52.70813  26.80062  22.72627  57019.45569 
    14.34126  1.52235  3.21136       2.24232         3125.56712  0.15222  0.01203     0.02041  16.59385     20.67548   4094.30019   -16.14959   0.4927   6214.43798  0.26315  56971.03041   52.2318  11.26785  22.72888     57021.04 
    14.08327    1.807  4.04039        3.1874         2919.16678  0.00269  0.02882     0.36174   4.71364     20.55616   6068.65022   -19.58554  0.84382    5886.0963  0.19993  56967.59446  52.06209   0.15009  22.85385     57021.05 
    14.14714  1.78533  3.14515       2.50428         3006.51181  0.00128  0.01209     0.07023    7.3262     20.92459   8860.70753   -13.66527  0.53062   5711.63912    0.467  56973.51473  52.08294   0.07985   22.7393  57016.79431 
