 texplosion  fnickel    Pspin  log(Bfield)      Mns  thetaPB   mejecta    kappa  kappagamma      vejecta  temperature    alpha  cutoff_wavelength  log(nhhost)      A_V         MJD0  kenergy  mnickel           TSD   log(L0)  Peak_mag     Peak_MJD  log(E_rad)  log(Peak_lum)  Rise_Time    E_fold  tau_1  delta_m15     r_peak     frac 
   -5.41757  0.02575  1.67373     14.34851  1.47754  0.92481   4.27171  0.06821     0.05228   5788.76213   6705.06175  0.96617         4560.67232     19.30426  0.01119  58812.18212  0.85389  0.11001   77215.29285  47.10331  18.39699  58842.32096    51.09418       44.62663    9.64541   25.7211   32.0    0.38236  -21.13597  0.99809 
   -3.32634  0.02593  2.26457     14.37659  1.53009  1.03885  13.43044  0.03585     0.02199   6762.82321   6262.11524  2.85384         3891.47865     20.68405   0.2684  58814.27335  3.66415  0.34825  128627.15639  46.63426  18.35749  58842.32096    50.83927       44.27271   16.07569  27.39405   32.0    0.34743  -21.50956  0.98918 
   -3.93434  0.02795  2.06811     14.57702  1.54791  0.56694   12.6558  0.02849     0.01925   6180.76273   7350.11822  1.77306         4112.38752     20.42271  0.14704  58813.66535  2.88404  0.35376   43119.54162  47.19277  18.33318  58842.32096    51.00788       44.47568   15.12537  25.85483   31.0    0.37567  -21.38109  0.99107 
   -4.15505  0.00416  4.03861     14.82525  1.77097   0.3693   6.86689  0.05284     0.33899   5192.96879   6357.29202  4.14607         3844.80763     20.06222  0.06411  58813.44464  1.10463  0.02856    59977.8101   46.5266  18.34631  58842.32096    51.04211         44.552   12.70687  22.65964   33.0    0.35453  -21.26985  0.99763 
   -4.13829  0.00531  4.47304     14.44938  1.82261  1.15921   6.35877  0.04982     0.37911   5019.81558   6346.61916  3.69229         4002.43876     18.56933  0.00206   58813.4614  0.95582  0.03374  427507.37707  45.59739  18.34883  58842.32096    50.77662       44.18176   17.64056  28.37783   32.0    0.36253  -21.21658  0.99671 
   -4.22997    0.015  3.91468     14.63127   1.6748  0.59377  10.66566  0.03954     0.19145   6034.09886   4781.66039  3.69114         3925.25077     17.78605  0.00034  58813.36972  2.31654     0.16  130205.15211  46.19279  18.33719  58838.46279    50.80475       44.22427   16.80058  28.21134   33.0    0.35009  -21.22512  0.98664 
   -3.98053  0.04374  3.42609      14.5211  1.97453  1.10488   8.30336  0.05057     0.03474   7080.17269   5523.06148  2.19759         3894.33062     20.05991  0.06377  58813.61916  2.48295  0.36322  195285.45186  46.20404  18.39499  58842.32096    50.77035       44.19552   16.80058  29.21781   31.5     0.3833  -21.30554  0.98211 
   -3.04518  0.09202  2.62269     14.48603  1.58701  1.06363   9.60552  0.04674     0.01404   6583.89937   5316.63239  2.69683         3836.12561     18.67868  0.00265  58814.55451  2.48379  0.88394  108099.82769  46.59811  18.36114  58838.46279    50.83264       44.24476   17.70639  29.13873   34.0    0.33416  -21.18419  0.96643 
   -4.29294  0.00121  2.13667     14.48535  1.47048    0.656  18.95408  0.01356     0.01917   4672.78081    5759.0829  1.59634         4517.28042     18.09428  0.00069  58813.30675  2.46877  0.02289   66687.08062  46.95279  18.36381  58842.32096    50.78676       44.20775   17.70639    28.312   31.0    0.39055  -21.21966  0.99932 
   -4.37625  0.00234  2.80668      14.3187  1.57688   1.3463   9.99271  0.03111      0.2287   5500.82864   5723.47936  1.80188         4321.19663     19.00254  0.00559  58813.22344  1.80371  0.02341  265823.45498  46.14566  18.40735  58842.32096    50.84737       44.28717   15.99421  27.47553   31.5    0.36608  -21.23333   0.9989 
   -5.20773   0.0111  1.94067     14.35937   1.6509  1.29995   8.70956  0.04065     0.03839   5890.82433   7347.34472  1.25033         4482.51866     19.91001  0.04516  58812.39196  1.80292  0.09666  110332.46862  46.86796   18.3484  58838.46279    50.72357       44.11373   18.48638  29.30255   31.5    0.36023  -21.21911  0.99808 
   -4.39593  0.00224  1.98002      14.4511  1.63088  0.91114   7.52862   0.0372     0.05095   4853.74202   6079.27334  1.44866         4461.23102     17.63583  0.00024  58813.20376  1.05803  0.01687    74366.5933  47.01655  18.35051  58842.32096    51.03817       44.51806   12.86055  27.34283   31.0    0.36015  -21.18331  0.99964 
   -3.54679  0.00388   1.8182     14.41012   1.3212  0.72658   3.42442  0.10175     0.38098   5513.32038    6971.9908  1.58033          4215.3293     19.36943  0.01301   58814.0529  0.62093  0.01328   61352.99164  47.08269  18.39576  58842.32096    50.94865       44.42274   15.12537  25.07801   31.5    0.35632  -21.15059  0.99967 
   -3.71406  0.00213  2.15902     14.50598  1.85489  0.89469   9.30692  0.03872     0.12782   5623.90234   6906.27067  1.87949         4128.36275     20.61701     0.23  58813.88563  1.75594  0.01982   78108.02527  46.97596  18.39386  58842.32096    51.08506       44.61615    9.64541   25.7211   31.5    0.37248   -21.4496  0.99958 
   -5.18542  0.00886  4.84847     14.52008   1.7342  0.71044   6.35595  0.06167     0.14628   6505.68107   5327.01842  4.71624         3689.84878     16.49676    2e-05  58812.41427   1.6047   0.0563  345108.30778  45.59878   18.4001  58842.32096    50.95114       44.42489   12.86055  26.45253   33.0     0.3757  -21.21954  0.99306 
   -5.04573   0.0037  3.70645     14.21836  1.37283  1.24388   6.73003  0.05896     0.26611   6360.48131   5324.89038  3.62925         3836.75209      17.5158  0.00018  58812.55396  1.62414  0.02491  640662.88727  45.46192  18.34935  58842.32096    50.98286       44.48709   12.86055  24.00461   32.5    0.36568    -21.235  0.99745 
   -4.99323  0.00506  2.29398     14.23608  1.42333   1.3552  12.40891  0.02378     0.10223   5485.64331   5014.28211  1.41898           4457.222     16.34109    1e-05  58812.60646  2.22749  0.06283   234499.1446  46.33083  18.39152  58842.32096    50.88341       44.33639   15.19486  26.60193   32.0    0.37713  -21.20394  0.99771 
   -4.44565  0.00668   2.7848     14.42214  1.45686  0.78701  18.34519  0.01868     0.01605   5584.57864   6284.08938  2.09763         4249.01194     18.43612  0.00152  58813.15404  3.41295  0.12259  150158.30489  46.36612  18.32316  58838.46279    50.75522       44.16687   17.64056  28.37783   32.0     0.3664  -21.23985  0.99362 
   -4.51784  0.00261  2.37208     14.53968  1.86697   0.7486  19.60894  0.01732     0.07196   6323.17047   5221.58919  1.50181         4163.41199     20.54504  0.19488  58813.08185  4.67683   0.0511   81255.97303  46.87987  18.41333  58842.32096    50.84696       44.27916   15.19486  29.24577   31.0      0.396  -21.42704  0.99868 
   -4.62342  0.00186  3.28119     14.40947  1.74476  1.10601  18.89411  0.01511     0.02116   5402.21495   5512.29244  1.89971         4288.36441     19.44829   0.0156  58812.97627  3.28925  0.03518  264644.54627  46.05586  18.34566  58842.32096    51.00064       44.48427   12.86055   25.7211   31.5     0.4033  -21.24067  0.99805 
   -3.83962  0.00452  2.23009     14.71977  1.79343  0.52288  13.08085  0.02059     0.24007   4759.69451   6113.66584  1.53463         4586.59661     17.55375   0.0002  58813.76007  1.76775  0.05907   30102.05751  47.34729   18.3665  58842.32096    50.95911       44.45394   12.86055   25.6567   30.5    0.36974  -21.22554  0.99862 
   -4.77562  0.01672  4.79124     14.41894  1.70123  0.99498   10.7943  0.03453     0.30282   6298.61162   5626.05846  4.65897         3806.82278     18.64722  0.00247  58812.82407  2.55453  0.18048  526744.64429  45.41711  18.31039  58838.46279    50.84135       44.28984   15.99421  26.68451   32.0    0.39647  -21.25347  0.97799 
   -5.40946  0.00147  2.50261     14.31888  1.54438   1.1502   15.1188  0.01955      0.0304   5265.61054   7239.57914  1.54424         4498.76565      16.5287    2e-05  58812.19023  2.50059  0.02216  206816.94107  46.34523  18.36356  58842.32096    50.89771       44.36071   15.12537  26.67142   31.5    0.38336  -21.20835  0.99914 
   -4.00222  0.01191   4.1758     14.67788  1.89757  0.67997  15.86982  0.02522     0.03061   5265.15268   5615.72575  4.03515         3996.06939     19.46681  0.01628  58813.59747  2.62435    0.189  135433.07445  46.17384  18.37142  58842.32096    50.88262       44.33647   15.12537  25.85483   33.0      0.347  -21.21826  0.98516 
   -4.14385  0.01017  3.46413     14.71091  1.59327  0.43921  22.93269  0.01602     0.01283   5507.75028   5725.74993  3.83898          3893.2155     20.22206  0.09264  58813.45584  4.14983  0.23322   67215.95412  46.56447  18.36364  58842.32096    51.00023       44.50818   12.70687  24.15829   32.5    0.36861  -21.32959  0.98365 
   -5.69196  0.00188  2.86326     14.31717   1.6251  1.34653  10.80013  0.03093     0.14308   6079.75295   6181.34844  1.51641          4163.0859     16.56655    2e-05  58811.90773  2.38138  0.02026  287127.33321  46.10793  18.38208  58842.32096    50.80091       44.22588   16.80058  28.21134   32.5     0.3845  -21.14756  0.99905 
   -5.30702  0.00684  2.58037      14.4429  1.95134  1.47628   6.72318  0.04888     0.18482   5915.79905   5808.64734  1.23288         4580.63056     16.44878    2e-05  58812.29267  1.40355  0.04598  156934.92997  46.54009  18.35762  58842.32096    50.91854       44.40734   15.12537  25.07801   31.5    0.36449  -21.20233   0.9987 
   -6.73177  0.00623  1.78837     14.26501  1.48854  1.41806   8.10963  0.04839     0.04348   6309.05184   8564.18515   0.9915         4612.04482     19.61062  0.02266  58810.86792  1.92556   0.0505  130459.61303  46.82122   18.3423  58842.32096    50.94726       44.43402   12.86055  26.37016   32.0    0.35376  -21.07687  0.99899 
   -2.43247  0.04598  2.07373     14.66938   1.8382  0.92351  19.90197  0.02085     0.01128   6272.33999   5460.77182  2.29952         4144.42952       16.891    4e-05  58815.16722   4.6707  0.91504   33647.19575  47.37279  18.33909  58842.32096    50.76878        44.1836   17.70639    28.312   32.5    0.37458  -21.25806  0.98528 
       -5.1  0.01208   2.0023     14.36349  1.75041  1.28695   5.84797    0.048     0.32615   6096.89844   4824.10559  0.96381         4297.71832     17.70027  0.00028  58812.49969  1.29673  0.07062  122188.29985   46.8219   18.3525  58842.32096    50.75234       44.15962   17.70639  29.13873   31.5    0.42185  -21.17568  0.99861 
   -4.97423  0.00668   2.9372     14.18842  1.35174  1.52628  10.40648  0.03166     0.02705   6213.23878   5722.03414  1.84894         4220.64368     16.23803    1e-05  58812.62546  2.39644  0.06954  454709.20513  45.80614  18.32764  58838.46279    50.87023       44.28398   17.70639  29.84461   32.0     0.3972  -21.22848  0.99545 
    -4.7655  0.00104  3.39719     14.52922  1.52283  0.60625  14.28985  0.02339     0.27662   5252.24762    6442.9968  2.63912         4073.63807     17.11719    7e-05  58812.83419   2.3515  0.01491  142649.17252  46.23499  18.35299  58842.32096    50.73085       44.13149   17.70639  31.50904   32.5    0.36134  -21.18951  0.99891 
   -2.28506  0.04309  1.77076     14.48987   1.7745  1.48543  20.43844    0.027     0.36784   7022.04409   6046.20782  3.00059         3758.83087     20.68075  0.26637  58815.31463  6.01176  0.88066   54134.71633  47.28812  18.39254  58838.46279    50.82004       44.23786   16.80058  28.21134   33.0    0.31335  -21.48858  0.98901 
   -5.39028  0.00438  2.57149     14.31573  1.60825  1.30004   4.64464  0.07114     0.39283   6039.80183   5784.14014  1.34735         4198.24311     16.36632    1e-05  58812.20941  1.01071  0.02035  230713.38768  46.29176  18.36991  58842.32096    51.03059       44.52342   12.86055   25.6567   32.5    0.38278  -21.14661  0.99922 
   -3.83065  0.00131  2.67057      14.4387  1.85259  1.34314   7.47615  0.03682     0.01696   4602.10442   6578.21049  1.94374         4368.49277     19.88798  0.04293  58813.76904  0.94454  0.00982  162707.40872  46.47201  18.40538  58842.32096    50.78372       44.21387   16.80058  28.21134   31.0    0.35945  -21.27483  0.99968 
   -4.76262  0.00537   1.7272     14.33586   1.5367  0.90603  11.20363  0.02739     0.05308   5656.77757   5638.67632  1.36934         4451.62433     20.65325  0.25002  58812.83707  2.13857  0.06013    90650.2253  47.02338  18.35742  58838.46279    50.71549       44.12551   18.48638  29.06462   31.0    0.37823   -21.4775  0.99892 
   -5.69999  0.01616  2.22428     14.25483  1.48636  1.51232   9.95003  0.03998     0.31823   7315.84295   5014.09449   1.0633         4237.52624     18.87645  0.00418   58811.8997  3.17673  0.16079  211183.73525  46.42193  18.36868  58842.32096    50.76601       44.18037     18.463  27.55539   32.0    0.38405  -21.18875  0.99488 
   -4.32601  0.00237  3.57185       14.375  1.75193  1.49339   7.65487  0.04122     0.02518   5605.23653   6842.09146  2.40009         4068.68218     18.56416  0.00204  58813.27368  1.43467  0.01817  369074.06766  45.83946  18.36622  58842.32096    50.79705       44.22007   16.80058  27.64005   31.0    0.38653  -21.25376  0.99881 
   -4.44899  0.02021  2.80996      14.5431  1.86148  0.89792   6.83546  0.05525     0.08684   5819.14243   6080.80785  2.03043         4252.15858     20.21357  0.09084   58813.1507  1.38074  0.13815  111911.91371  46.59243  18.35243  58842.32096    50.88751       44.34845   15.12537  26.67142   31.5    0.34429  -21.32748    0.995 
   -5.44082  0.00159  3.16503     14.42513  1.86925   1.2363   2.71321  0.14963      0.3795   6772.35379   4996.73408  1.64318          3799.2178     19.27829  0.01054  58812.15887  0.74232  0.00432  245460.59694  46.14978  18.34299  58838.46279    50.88095       44.33849   15.19486  27.48385   33.0    0.34904  -21.14475   0.9998 
   -5.74153  0.00474  4.06947     14.42712  1.87489  1.11844   5.20344    0.065     0.10919   6054.08908   5821.02255   1.9776         4209.33307     16.65825    3e-05  58811.85816  1.13767  0.02464  403306.77138  45.71711  18.38725  58842.32096    50.92265       44.38206   15.12537  25.07801   33.0    0.38847  -21.18911  0.99809 
   -5.05504  0.02949  2.61058     14.60576  1.57136  0.52793    6.0403  0.05483     0.12869   5926.81771   5273.43792  1.57279         4185.18915     16.21278    1e-05  58812.54465  1.26569  0.17815   61101.46035   46.8456  18.35395  58842.32096    50.75113       44.16431   17.70639  29.13873   32.0     0.3904   -21.1799  0.99278 
    -6.5517  0.05148  2.46124     14.63637  1.93301  0.63213   3.60446  0.09899     0.15583   7292.46004   5014.57776  0.82115         4405.74176     17.11647    7e-05  58811.04799  1.14345  0.18555   58026.32519  47.00915  18.36904  58842.32096    50.85005       44.28763   15.19486  28.27488   33.0    0.40337  -21.14237  0.99515 
     -4.039  0.00752  3.15435     14.79184  1.78377  0.43567  17.85985  0.01829     0.03138   5199.97017   5491.46229  2.21359         4251.96559     17.36892  0.00013  58813.56069  2.88076   0.1343   42982.67717  46.88907  18.32839  58838.46279     50.7156       44.12231   18.48638  29.06462   31.5     0.3808  -21.22804  0.99341 
   -4.15398  0.00925  3.96786     14.49116  1.61742  0.80018  18.99454   0.0175     0.43778   5172.06977   5069.63691  3.88927         3916.20019     17.73363   0.0003  58813.44571  3.03099  0.17561  246284.80237  45.88912  18.34633  58842.32096    50.81093       44.25423   15.99421  28.44643   32.5    0.37373   -21.2259  0.98413 
   -5.22672  0.02538  3.48211     14.20993   1.3707  1.36209   5.65579  0.06148      0.3065   6161.39118    5273.3539  2.66138         3989.31402     17.51601  0.00018  58812.37297  1.28079  0.14356  586916.92626  45.55353  18.39209  58842.32096    50.76715       44.15965     18.463  29.91086   32.5    0.38926  -21.21326  0.98714 
   -4.60762  0.00102  4.09297     14.31865  1.64501  1.20219   2.32027  0.13669     0.13121    6406.5865   5542.93398  2.68738         3915.30895     17.48704  0.00017  58812.99207  0.56809  0.00236  589883.19464  45.49017  18.37388  58842.32096    51.13758       44.70448    9.64541  22.18368   31.5    0.41306  -21.27601  0.99977 
   -4.66001  0.00247  3.57758     14.46621  1.76701  0.96089   5.12832  0.05882     0.47913   5094.12326   5928.75973  2.36656         4125.71704     16.32304    1e-05  58812.93968  0.79386  0.01268  245360.82982   46.0191  18.38036  58842.32096    50.96868       44.45858   12.86055   25.6567   32.0    0.38314  -21.20273  0.99918 
   -4.34433  0.00467  2.42131     14.68704   1.8366  0.52957  17.18548  0.02007     0.14529   5796.48366   5704.63267  1.66326         4117.25571     20.33986   0.1215  58813.25536  3.44444   0.0803   42252.06084  47.13891  18.40974  58842.32096    51.23467       44.79373    9.64541  24.49041   32.0    0.38003  -21.32626  0.99781 
   -4.45997  0.01268  2.40178     14.33582  1.64392  1.56248  11.12439  0.02397     0.10358   5259.75433   6149.97532  1.48868         4516.13488     19.41092  0.01431  58813.13972  1.83584  0.14105  187556.70196  46.45053  18.33745  58838.46279    50.92784       44.39548   15.19486  25.78534   30.5    0.40317   -21.2559  0.99551 
   -4.72943  0.00235  4.28108     14.49891  1.73546  0.85346   2.97733  0.16101     0.23792   6781.71184   5214.36763  4.64375         3772.60803     17.02307    6e-05  58812.87026  0.81683  0.00701   296841.2053  45.77263  18.36695  58842.32096    50.92013       44.37969   15.12537  26.67142   32.0    0.36841  -21.26596  0.99933 
   -4.58316  0.05585  2.42952     14.52105  1.61664  0.72871   7.07544  0.06259     0.22256   8402.98546   5107.64584  1.34533           3510.727     18.57876  0.00211  58813.01653  2.98022  0.39514   80419.88915  46.80105  18.37309  58842.32096    50.77023       44.17605   17.70639    28.312   31.0    0.40688  -21.20242  0.98695 
   -4.88376   0.0025  2.63387     14.41248    1.819  1.23272  15.36999  0.01815      0.1356    5535.9138   4965.34982  1.34311         4498.54514     17.50458  0.00018  58812.71593  2.80983  0.03844  175338.21849  46.44361  18.37034  58842.32096     51.0351       44.50396   15.12537  25.85483   31.0    0.41048  -21.21894  0.99873 
   -3.91955  0.00751  2.86251     14.59823  1.89956  0.84873  13.66168  0.02388     0.11363   5144.30034   7030.03394    2.005         4281.21013     16.65909    3e-05  58813.68014  2.15667  0.10259    91940.2398   46.6705  18.34253  58842.32096    50.89534       44.37314   12.86055  26.45253   31.0    0.35583  -21.21246  0.99628 
   -4.54868  0.08468  2.56501     14.43904  1.77489  1.23103   3.84533  0.08374     0.17356   5919.67241   6189.04369  1.46662         4360.20951     17.96595  0.00051  58813.05101  0.80381  0.32561  143574.58616  46.54276  18.33431  58842.32096    51.07283       44.55748   12.86055  27.34283   31.0    0.40429  -21.20421   0.9896 
   -6.70834  0.01143  1.56766     14.62867  1.87932  0.62176   5.18976  0.06669     0.28192   6972.72666   5366.86738  0.54431           4682.997     17.85531   0.0004  58810.89135  1.50515  0.05934   23712.69172  47.77736  18.43199  58842.32096    50.94734       44.42149   12.86055  27.34283   33.0     0.3892  -21.04126  0.99942 
   -4.90598  0.00244   2.6001     14.48383  1.40363  0.56833   7.84221  0.03239     0.01831   4765.39907   6849.43324  1.79742         4472.35718     18.81429  0.00362  58812.69371  1.06234  0.01913   94929.16824  46.60872  18.35138  58842.32096    50.98823       44.49013   12.86055  24.00461   31.5    0.39534  -21.23827  0.99908 
   -4.99456  0.00433  3.50309     14.46951  1.82427  1.02225  15.33053  0.02421     0.06233   6032.99117   5439.44617  2.05912           4185.801     17.37482  0.00013  58812.60513  3.32851  0.06642  239210.82712  46.06225  18.36269  58842.32096    50.84993       44.29128   15.99421  27.47553   32.0    0.36189  -21.22838  0.99607 
   -4.46684  0.00396   3.2641     14.40048  1.81353  1.56283   7.39328  0.04515     0.03932   5696.03324   6331.16027   2.1007         4108.28207     19.73459  0.03015  58813.13285   1.4309  0.02925  283730.75062  46.04694   18.3303  58842.32096     51.0214       44.53073   12.70687  24.15829   31.5      0.384  -21.24717  0.99848 
