 texplosion  fnickel     Pspin  log(Bfield)      Mns  thetaPB   mejecta    kappa  kappagamma      vejecta  temperature    alpha  cutoff_wavelength  log(nhhost)      A_V         MJD0   kenergy  mnickel            TSD   log(L0)  Peak_mag     Peak_MJD  log(E_rad)  log(Peak_lum)  Rise_Time    E_fold  tau_1  delta_m15     r_peak     frac 
   -8.51797  0.25179    2.4906     14.32226  1.99461  1.21403   6.48194  0.02176     0.16852   7652.87339   8802.83516  1.25085         2402.21468     21.11682  0.72702  55424.73103   2.26455  1.63209   260472.16003  46.36033  19.82312      55448.9    51.37915       45.01619   10.51785  15.77677   50.0     0.4548  -21.30543  0.95893 
  -13.39001  0.07938   4.06096     14.26682  1.68173  1.05646   2.13434  0.13436     0.17599  12579.12461   8760.56175  0.64562          2154.8357     20.96351  0.51079  55419.85899   2.01462  0.16943   753671.32308  45.40016  19.79285  55452.63085    51.29656       44.87979   12.27082   21.0357   30.0    0.49934  -21.19105  0.98475 
   -4.49998  0.19829   2.37515     14.47406  1.93359  0.86718   7.38561  0.03889     0.01866   9669.20039   4234.51318  4.85151         2227.05747     21.29451  1.09455  55428.74902   4.11903   1.4645      114140.19  46.74639   19.7844  55452.63085     50.5781       43.98694   19.28272  28.04759   32.0    0.51459  -21.73906  0.96514 
   -6.95067  0.16076   1.36052     14.19668  1.58695  1.19754  12.10522   0.0145     0.06146   8912.80356   6779.56697  1.35964         2067.32648     21.23679  0.95834  55426.29833   5.73626  1.94602   110262.73804  47.15957  19.84443      55450.9    50.86073       44.33881   12.27082  26.29462   51.0    0.52474  -21.51734  0.98005 
  -11.05606  0.01133   5.08104     14.39684  1.97641  0.89596   1.31178  0.13666     0.22656  10412.13909   9560.90842  0.49277         2948.10717     20.82099  0.36789  55422.19294   0.84834  0.01486   761945.51975  45.27089  19.82441      55450.9    50.65868       44.17505   19.28272  22.78867   33.5    0.43511  -20.99531  0.99833 
   -8.67293  0.02952   2.80058     14.17891  1.55319  1.36523   6.31879  0.03599     0.13549   8540.08566   8177.01109  1.02478          3620.9211     21.11593  0.72554  55424.57607   2.74907  0.18656   496271.67479  45.86985  19.88611      55448.9     50.9596       44.52976   12.27082   21.0357   34.5    0.48829  -21.37608  0.99101 
   -8.81179  0.32503   0.84657     14.72677  1.40456  0.99803   7.04682  0.06125     0.02611   9558.94509   5579.28263  0.67205         4678.72166     20.48156  0.16838  55424.43721   3.84096  2.29043       3289.572  49.04393  19.85756      55450.9    50.78271       44.21034   18.52314  25.30122   34.5    0.48729  -20.88692  0.99873 
  -11.36459  0.01675   3.99434     14.59175  2.04671  1.13336   6.72274  0.07961     0.09113   9784.69381   4420.92787  1.03032         3443.03127     20.74041  0.30559  55421.88441   3.83944  0.11259   198732.72611  46.07874  19.83009    55453.149     50.8311       44.30067   18.13952  27.43782   29.0    0.44292  -20.90594  0.99278 
   -8.75284  0.26731   9.61492     14.54201  1.59335  0.97764   8.18333  0.01729     0.04295   9266.68942   7818.82738  2.07463         3421.28247     20.19975    0.088  55424.49616   4.19186  2.18749  1127179.56872  44.45327  19.84071  55450.37267    51.02652        44.4722   17.52975  26.29462   54.5     0.5053  -20.66239  0.45013 
   -8.47705  0.03983   6.21652      14.5509  1.38134  0.56522   4.72985  0.06242      0.2269   8121.00564   5480.52721  3.84065         3464.43928     20.04227  0.06123  55424.77195   1.86078   0.1884   392120.13913  45.22863  19.87083  55450.37267    50.64941       44.09254    14.0238  26.29462   31.0     0.5022  -20.68944  0.94848 
  -14.77141  0.01581   6.98231      14.4021  1.62399  0.76368   4.59448  0.08203     0.15179  10193.34876   3898.06954  2.59653         3230.56668     19.86433  0.04065  55418.47759   2.84772  0.07264  1153993.79993  44.72923  19.79643    55453.193    50.82739       44.20218   10.51785  24.54165   36.0    0.43897  -20.65456  0.97951 
  -10.00868   0.0033   6.41808     14.25684  1.70983  1.43155   1.64661  0.14441     0.07463  11924.93558   5050.96544  1.09458         2048.06119     20.21814  0.09181  55423.24032   1.39679  0.00543  2004004.55752  44.58509  19.81133      55450.9    50.94804       44.34761   13.26344    25.302   31.0    0.50239  -20.73033  0.99878 
  -10.15085  0.12811   7.00356     14.77088   1.9082  0.43018   2.72524  0.10914     0.45772  12835.48879   7044.67018  0.21574         2874.49763     20.19787  0.08762  55423.09815   2.67828  0.34913    249640.4577  45.46152  19.79229      55450.9    51.26758       44.88078    8.76487  19.28272   33.0    0.54338  -20.78216  0.92688 
  -12.57684  0.03714   5.14017     14.34296  1.74872  1.20653   5.86601  0.05409     0.11835  10016.15538   4026.29055   0.2233         4055.20264     20.56276    0.203  55420.67216   3.51052  0.21789   884249.28297  45.14304  19.84855      55450.9    50.61371       44.09436   15.77677  24.54165   36.5    0.45885  -20.80401  0.97079 
  -17.36642  0.00297   1.01187     14.45063  1.42813  0.85547   11.5205  0.04825      0.0274   7346.52213   7415.73573   1.2988         3451.80261     20.96412   0.5115  55415.88258   3.70904  0.03423    17043.87702   48.1818  19.87726  55450.37267    51.28884       44.78445   14.48791  22.32455   32.0    0.33654  -20.50284  0.99986 
  -10.56667  0.00436   2.23781      14.5364  1.56554  0.82233   5.69749  0.11037     0.24969   8076.41672   4186.27386  1.32565         3933.34009     20.86334  0.40557  55422.68233   2.21691  0.02481    61564.45491  46.97453  19.86579      55450.9    50.55452       43.90192   16.38655  28.72225   31.0    0.34707  -20.99498  0.99929 
   -7.91095  0.05645    3.4633     14.28493  1.67055  0.92108   2.98677   0.0799     0.06651  11855.13232   5216.40661  2.21956         2112.60248     21.10679  0.71042  55425.33805   2.50404  0.16859   500946.50485  45.71293  19.80873  55454.88904    51.03955       44.55682   17.52975  22.78867   37.0     0.4854  -21.39385  0.98883 
    -5.9399  0.00698   1.29532     14.30113  1.48142  1.37316   6.10795  0.06691      0.4165   6634.05049   3474.63944  3.51986         3225.24659     21.26534  1.02346   55427.3091   1.60354  0.04262    57674.75982  47.45378  19.86263  55452.63085    50.67951        44.0137   19.28272  28.04759   29.5    0.37586  -21.68832  0.99962 
   -5.98645   0.1879   3.47462     14.64776  1.87536  0.74825   5.94884  0.06251     0.05096   8631.54563   3647.86875  4.63462         2716.09491     21.07996  0.66786  55427.26255   2.64385  1.11779   106462.26999  46.43292  19.87514  55452.63085    51.03654        44.6396   12.27082  19.28272   33.0    0.42855  -21.25111  0.94151 
   -5.48045  0.00917   2.21906     15.09684  1.93145  0.30538   8.05422  0.07707     0.21612  10293.57214   5609.67226  4.27157         2828.43707     21.06801  0.64974  55427.76855   5.09077  0.07386     5654.10563  48.11003  19.78877  55450.37267    50.99727       44.57471   12.27082  19.28272   28.5    0.40781  -21.28301  0.99864 
  -16.61874  0.00658   4.11664     14.61142  2.06814  0.77182   8.26308  0.04688     0.18792   7744.37573   6209.43591  2.76189         2257.78872     20.82379  0.37027  55416.63026   2.95626  0.05436   194827.42405  46.06569  19.99499  55454.88904    50.56542       44.01887   18.52237  28.80795   37.5    0.36417  -20.67726   0.9963 
     -11.05  0.01359   0.76311     14.65193  1.47153  0.42984  11.84666  0.04172     0.08783     8597.299    7383.2828  1.22554         3275.24127     21.21253  0.90627    55422.199   5.22333  0.16098      3952.8189  49.07453  19.81575      55448.9    50.68299       44.06514   20.27534  28.80795   30.0    0.39403  -21.35751  0.99971 
   -11.9715  0.00856   7.75655     14.55076  2.01513  1.00074   3.72824  0.09207     0.44811    9316.5375    3723.5946  1.78377         3805.48092     20.10347   0.0705   55421.2775   1.93037  0.03191   891116.57574  44.84388  19.78537      55448.9    50.57389       44.03629   17.99386  27.58348   31.0     0.4832  -20.69927  0.99193 
  -14.48595  0.10283   4.86003      14.3139  1.51361   1.1131    4.6257  0.07274     0.21867   9436.74311   4874.48108  2.43798         2369.98413      20.4656   0.1623  55418.76305   2.45725  0.47567    782194.0182  45.18227  19.91893    55447.135     50.7342       44.11058   20.60985  30.22642   38.0    0.42645  -20.71609  0.93209 
  -15.60473  0.49701   6.22716     14.49084  1.73216  1.06838   2.89135  0.12644      0.2323    9128.8692   6383.31439  0.49853         4274.92143     19.94366   0.0488  55417.64427   1.43735  1.43703   650584.54393  45.10555   19.8734    55453.193    50.75713       44.21474    14.0238  26.29462   47.0    0.38376  -20.61211  0.77222 
   -9.82321  0.00103   1.53022     14.92184  2.16892  0.52539   7.37533  0.06787      0.1756   8190.28787   6902.84896  1.88524         2718.17149       20.969  0.51728  55423.42579   2.95126  0.00762      6759.2001  48.40568  19.86318  55450.37267    50.84176       44.29935   15.77677  26.29462   29.5    0.36653  -21.14412  0.99996 
  -12.39688  0.05806   1.71316     14.51001  1.66816  0.51991  11.46681   0.0332     0.37495  10226.10333   7153.48343  0.31525         3254.78637     21.14638  0.77822  55420.85212   7.15303  0.66577    43413.96375  47.38586   19.8083  55452.63085    50.90303       44.43838    14.0238  22.78867   36.5    0.43293  -21.41308  0.98955 
   -5.35639  0.04159   1.68486     14.49094  1.88033  0.87949   6.14995  0.05533     0.12576    7551.4758   4398.60617  4.40814         2082.62963     21.17003  0.82179  55427.89261     2.092  0.25581    51677.38434  47.37665  19.97138  55452.63085    51.20212       44.76225   15.01642  21.79605   34.0    0.37586  -21.40632  0.99696 
  -14.46369  0.02085   6.53109      14.4309  1.83263  0.81031   2.12299  0.13374     0.06043  10441.64993   4449.61894  2.70048         2509.79125     20.35329  0.12532  55418.78531   1.38075  0.04427   997850.68374  44.90288   19.8423      55450.9     51.1069       44.63144   12.27082  22.78867   34.0    0.43866  -20.77255  0.99081 
  -10.76131  0.13169   6.81183     14.62834  1.85478  1.05998   5.55231  0.08143     0.13209   9146.97593   7534.95419  2.11212         3644.32659     19.14492  0.00776  55422.48769   2.77112  0.73119   442545.89711  45.22465  19.82221    55453.149    50.73375       44.18625    14.0238  29.80057   31.5    0.44467  -20.63606  0.86093 
  -13.14573   0.0821   1.72788     14.37179  1.72708  1.22314  14.03903  0.01793     0.02579    8912.8493   5373.59086  0.21392         3406.69669     20.94288  0.48709  55420.10327   6.65269   1.1526    86410.79525  47.09456   19.9588    55453.149    50.57377       44.05065   18.13952  23.93187   43.0    0.46552  -20.96996  0.98365 
   -8.54025  0.04786   1.20258     15.07664  1.71583  0.46445  15.86423  0.05698     0.03138   9584.20736   6976.30413  4.06846         2734.09307     19.53324  0.01897  55424.70875   8.69278  0.75927     1618.93908  49.13386  19.83827    55444.196    50.84011       44.20393   19.28272  33.30652   34.0    0.31993  -20.50933  0.99882 
  -13.55328  0.05705   6.08349     14.58673  1.62569   0.4256   2.18805  0.09773     0.10268  11411.36119   6706.41482  0.23955         2003.09671     19.85634  0.03991  55419.69572   1.69965  0.12482    374719.0789  45.33787  19.83091      55450.9    50.96201       44.40353    7.74298  22.05758   37.5    0.45612  -20.69425  0.97352 
   -8.19716  0.13323   0.94307     14.33993  1.31051   0.5008  14.34562  0.02568     0.33297   9031.56137   5466.74119  1.29827         3389.35974     21.40392  1.40814  55425.05184   6.98027   1.9112    22619.03626  48.08272  19.91668    55453.149    50.74803       44.14343   17.52975  29.80057   33.0    0.44986  -22.04232  0.98802 
   -9.95564  0.01448   3.24413     14.17804  1.44356  1.49451   4.07177  0.07336     0.10821   7819.44388   4088.39911   2.7289         3054.65208     21.08331  0.67304  55423.29336   1.48512  0.05895   621405.38097  45.61271  19.85938  55450.37267    51.31345       45.01617     7.0119  15.80144   33.0    0.46085  -21.28504  0.99572 
   -6.19842  0.10798   2.43229     14.49247  1.61853  1.18325    6.7448  0.08602     0.01012  10162.29489    4008.6272  1.39533          3846.2472     20.94575  0.49032  55427.05058   4.15508   0.7283    92049.37458  46.74192  19.84907  55452.63085    51.50396       45.15211    8.76487  17.52104   25.5    0.49031  -21.19394  0.97737 
   -5.93582  0.04407   4.82207     14.44577  2.00161  1.52878  10.16864  0.02562      0.0199   7894.91128   9637.27792  4.92696         2696.65776     21.00231  0.55851  55427.31318   3.78081  0.44813   554791.08499  45.45963  19.86721  55452.63085    50.65455       44.11761   15.77677  22.78867   29.5    0.49961   -21.1685  0.95762 
  -11.68717  0.19778   2.12982     14.56869  1.38479  0.94951   4.73164  0.14089     0.16951  11844.53584   7822.54348  0.16928         3262.12699     20.26156  0.10146  55421.56183   3.95982  0.93584    42511.98709  47.12503  19.85639  55450.37267     51.3737       44.94345   10.51785   21.0357   26.0    0.49093  -20.61664   0.9755 
   -14.7857  0.01993   6.36733     14.51153  2.03032  1.27856   2.04189   0.2307     0.16672  10010.15004   4569.18763  0.88005         2757.85243     19.97006  0.05185   55418.4633   1.22051   0.0407   724833.08679  45.10826  19.82976  55452.63085    50.95243       44.59119   10.51785  17.52975   31.0    0.44476   -20.5673  0.99316 
   -15.4729  0.00274     3.907      13.8784  1.28887  0.92647   1.30498  0.14399     0.03312  11527.76783   6238.10414  0.35327         2527.10088     20.77224  0.32883   55417.7761   1.03448  0.00358  3198215.60294  44.69046  19.87915      55450.9    51.17356       44.71324   12.27082  22.78867   31.0    0.49659  -21.01831  0.99954 
  -13.00608  0.09316   5.65428     14.58809  1.55659  0.50532   2.15852  0.09924     0.08719  11315.22546   6539.60213  0.37256         2072.79777     19.87323  0.04149  55420.24292   1.64858   0.2011   308002.07219  45.46771  19.84419      55450.9    50.74384       44.28951   17.52975   21.0357   33.0    0.53233  -20.65928  0.96144 
   -1.70585   0.0039   0.82775     14.58797  1.67877  1.52299  23.26995  0.02804     0.42081  10671.19203   9541.20791  3.77821         2857.95237     21.09272  0.68778  55431.54315  15.80697  0.09072     7123.04943  48.80537  19.82415    55453.193    50.99692       44.58771   15.77677  19.28272   26.5    0.45507  -21.92749  0.99994 
  -15.09622  0.03107   6.84174     14.32262  1.81866  1.16754   3.79158   0.0567     0.18856  10719.45563   3931.33608   0.1525         5990.67826      19.2103  0.00902  55418.15278   2.59892  0.11781  1789177.95864  44.60561  19.79901  55454.88904    50.88957       44.44187   15.77677   21.0357   39.5    0.44184  -20.67719  0.97328 
  -15.97269  0.18031   7.09413     14.61555  1.78602  0.58485   3.75498  0.14323     0.02752  10171.88313   4489.99297  3.84229          3244.4154     20.38233  0.13399  55417.27631   2.31759  0.67705   490228.94796  45.12853  19.80441  55454.88904    50.84518       44.31547    8.76487  26.29462   31.0    0.41287  -20.74738  0.85213 
  -12.43336  0.02297   5.90267     14.26616  1.64379  1.53688   2.47833  0.09508     0.41502  10513.08826   4906.86234  0.60592         2834.56566     19.96372   0.0511  55420.81564   1.63398  0.05693   1561098.9754  44.74916  19.82434      55450.9    51.24355       44.80895   10.51785  22.78867   37.0    0.48699  -20.69033   0.9887 
   -5.10759   0.0019   1.97383     14.40013  1.85881  0.78593   7.10876  0.04256     0.07767   7561.01821   6351.19617   4.8121         2378.93873     21.34263  1.22281  55428.14141   2.42427  0.01348   106515.38813  46.92005  19.79353  55452.63085    50.57522       44.02724    21.0357  26.29462   32.0    0.43374  -21.86133  0.99976 
   -11.7665  0.03688   0.72515     14.56692  1.83661  1.00305  36.02807  0.01587     0.09858  11341.91885   3385.88945  0.80308         2274.98108     21.10937  0.71466   55421.4825  27.64657  1.32872     6589.47756  48.99316  19.80985      55450.9    51.36784       44.98003   12.27082  19.28272   31.5    0.42251   -21.1245  0.99921 
  -14.60176  0.04786   1.61776     14.46465  1.59291  1.03564  20.06632   0.0232     0.15969   7717.70544   8194.45147  0.78402         3859.89031     20.84044  0.38474  55418.64724    7.1297  0.96036    45554.16342  47.39468  19.86605      55450.9     51.1759        44.7089    14.0238  22.78867   34.0    0.35634  -20.73108  0.98798 
  -11.31732  0.17097   7.03745     14.44103  1.86065   0.6323    4.5703   0.0747     0.01136  11637.62525   3680.27639  2.82903         2727.27211     20.33153  0.11919  55421.93168   3.69233   0.7814  1122666.18638  44.79343  19.81555      55448.9    51.13096       44.64033   15.01642  20.04308   27.5    0.55278  -20.89391  0.84183 
   -6.92324  0.20897   3.15882     14.44024  1.78334   0.9252   5.84105  0.04156     0.04239   8347.54675   7498.96459  2.51133         2990.47256      21.1969  0.87423  55426.32576   2.42793  1.22059   217582.90449   46.1834  19.83221  55454.88904    50.70672       44.22238   12.27082  24.54165   33.0    0.54614   -21.4928  0.94247 
  -10.93751  0.01383   2.75151     14.19614  1.75439  1.27902   7.82332  0.03281     0.25735   6164.91945   6238.32404  2.79822         3024.78762     21.26222  1.01614  55422.31149   1.77367  0.10822   499799.84417  45.93503   20.0478      55450.9    50.57986       43.93768   22.78867  36.34392   36.0     0.4123  -21.61188  0.99578 
  -10.41294   0.0671   7.90778      14.4594  2.06579  1.17561   3.24062  0.10534     0.43913  10946.55451   4383.65785  4.68116         2582.18777     20.23808  0.09612  55422.83606   2.31638  0.21745  1446161.53196  44.62761   19.8599  55452.63085    50.67641       44.16272   15.77677  22.78867   36.0    0.47126  -20.76037  0.94718 
    -8.9207  0.04022   5.59216     14.59831  1.92778  0.78783    4.2996  0.09228     0.38771  10379.61008   6789.22786  3.64141         2716.08936      20.7242   0.2944   55424.3283   2.76323  0.17294   355963.00804  45.50734  19.93863      55450.9    50.80942        44.2206   17.52975  24.54165   31.0    0.48896  -20.96892  0.97623 
   -8.66181    0.008   4.31276     14.27857  1.51112  0.60809   2.82435  0.07332     0.02215   9920.98197     3547.104  2.81887         2895.35003     21.08348  0.67329  55424.58719   1.65827  0.02259    723580.9595  45.31915  19.86267  55448.11449    50.74787       44.15936   19.28272  26.29462   33.5    0.47062  -21.33238  0.99725 
   -9.32373  0.13417   1.55544     14.88462   1.6881    0.796   9.57262  0.10237     0.04515  12623.89295   6440.58454  2.33842          2851.8056      19.8535  0.03965  55423.92527   9.10007  1.28436     6451.72468  48.30286  19.81072  55454.88904    50.78943       44.31428   17.52975  22.78867   32.0    0.36375  -20.79334  0.99491 
   -9.28437  0.00712   2.23231       14.304  1.51825  0.98519  11.90248  0.02687     0.02029   7552.65926   5348.06056  1.42382         3709.28897     21.13908  0.76525  55423.96463   4.05009  0.08472   173250.22501  46.51401  19.98105  55452.63085    50.59363       44.05892   19.71035  25.86699   30.5    0.44659  -21.42023  0.99734 
   -2.55521  0.09269   0.71426     14.73063  1.67863  0.60416  10.33301  0.06125     0.13823   9689.01015   7409.58329  4.86501         2194.16994      21.1268  0.74392  55430.69379   5.78646  0.95781      2749.2358  49.34688  19.81229  55452.63085    51.02811       44.57268   10.51785  22.78867   32.5    0.32424  -21.24025  0.99944 
  -10.26712  0.06863   1.62761     14.35098    1.955  1.08595    5.0865  0.07257     0.05187  11466.83071   3650.39702  1.35194         2254.34752     21.25634  1.00245  55422.98188   3.98964  0.34911    95522.03413  47.15679  19.87399  55454.88904    50.56483       43.92631   21.64547  30.94377   32.0    0.47472  -21.77712  0.99617 
