 texplosion  fnickel    Pspin  log(Bfield)      Mns  thetaPB   mejecta    kappa  kappagamma     vejecta  temperature    alpha  cutoff_wavelength  log(nhhost)      A_V         MJD0   kenergy   mnickel             TSD   log(L0)  Peak_mag     Peak_MJD  log(E_rad)  log(Peak_lum)  Rise_Time     E_fold  tau_1  delta_m15     r_peak     frac 
  -39.45586  0.17412  2.63124     13.85186  1.83914  0.51785  14.18039  0.02922     0.14011  6367.17521   5938.15454  0.12804         3399.57287     19.05095  0.00625  59210.19873   3.42933    2.4691   2339001.18691  45.32411  19.74034  59296.31914    51.62559       44.63939   35.96611   71.50223  149.0    0.05132  -21.65955  0.91847 
  -34.23727  0.17501  0.93984     13.85636  2.07946  0.72448  34.75217  0.02169     0.01509  7884.96821   6527.00635  0.02913         2162.50472     21.10796  0.71235  59215.41731   12.8887   6.08202    330487.68234  47.12153  19.66726  59302.19309    51.54197       44.54161   44.20051   80.36457  104.0    0.10244  -22.53293  0.97884 
  -50.65886  0.44712   1.9832     13.84072  1.54536  1.27047  26.05168  0.03917     0.34315  4848.68117   9150.54547  0.51347         5463.64894     16.62532    2e-05  59198.99572   3.65351  11.64815   1175265.44265  45.79301  19.71843  59296.31914    51.47984       44.37858   60.62797  100.45571   97.5    0.07089  -21.70436  0.77589 
  -47.81918  0.17362   2.5794      13.8418  1.70581  1.26181  41.89124  0.03015     0.10174  4216.71233   7958.78637  1.97011         3368.67119     19.17934   0.0084  59201.83541   4.44323   7.27319   2183666.05759  45.33855  19.72747  59290.62059    51.60519       44.55495   42.70927   83.86493  104.0     0.0597  -21.57733   0.7901 
  -45.73848  0.19636  2.74974      13.7098  1.72145  0.75883  24.13472  0.03776     0.03631   5482.2469   7034.85865  1.49601         3067.86904     19.52348  0.01854   59203.9161     4.327     4.739   4599259.27408  44.96347  19.66092  59290.25854    51.38803       44.34088   46.20963   90.41014  134.0    0.06174  -21.69665   0.8297 
  -39.60414  0.13098  1.17857     13.91123  2.02939  0.58966  43.93084  0.02042     0.01347  7216.76678   6756.40139  0.17154         2363.32905     21.05664  0.63294  59210.05045  13.64841   5.75415     393932.1436  46.83808  19.69426  59296.40684    51.78649        44.8938   38.17317   53.26733  109.5    0.08886  -22.42892  0.96756 
  -53.91422  0.07162  2.31292     14.11301  1.90772  0.47664  57.40334  0.01686      0.0213  3970.55146   5445.73942  0.92079         4495.18467     20.04044  0.06098  59195.74036   5.39841   4.11112    563171.56026   46.0704  19.68855  59293.51371    51.54215       44.44828   54.24609   90.41014  112.5    0.06672  -21.71183  0.90709 
  -54.63577  0.11104  1.75593     13.69323  1.44783  1.04546   38.8492  0.02912     0.15707   4072.3631   7938.25747  0.62118         5174.68543     19.19204  0.00865  59195.01882   3.84328    4.3138   1702526.53507  45.70946  19.65637   59291.4403    51.59257       44.61801   40.98794   66.30077  100.5    0.06081  -21.66398  0.91479 
  -46.64092  0.36067  1.58177     13.76968  1.73839  0.73294  26.55514   0.0372      0.0432  6476.95281   6822.20687  0.23025         3137.11212     20.90025  0.44155  59203.01367   6.64534   9.57773   1166494.96539  46.04382  19.69041  59293.51371    51.56585       44.48414   60.27343   86.39191  124.0    0.07159  -22.16625  0.88645 
   -41.9483  0.19038  2.41575     13.76177  1.73726  1.20457  26.90254  0.03376     0.01656   5317.8097   8054.04041  0.52974         5912.54778     17.45285  0.00016  59207.70629   4.53823   5.12177   2820036.41312  45.29235  19.65802   59291.4403    51.64665       44.73366   36.40851   60.34518   95.5    0.08187  -21.84266  0.86152 
  -46.92814  0.20376  2.66188     13.43983   1.6208   1.3818  21.79391  0.03708     0.27553  6073.19206   4106.16885  1.61379         3134.39005     18.88475  0.00426  59202.72645   4.79508   4.44077  14068697.30329  44.47994  19.67668  59287.72747    51.57641       44.69812   34.15494   64.29166  144.5    0.05956  -21.73402  0.83071 
  -53.60378  0.03328  2.38036     13.54424  1.67547  1.33597  15.98796  0.05452     0.07756  6625.31983   6727.86403  0.01055         5734.79065     17.31354  0.00011  59196.05081   4.18633   0.53201   7190537.18973  44.88294  19.66604   59291.4403    51.62899       44.61712    48.0208   68.76202  120.5    0.07186  -21.71322  0.98262 
  -53.30965  0.07463  2.69766     13.82952  2.04466  0.60631  20.21984   0.0363     0.01119  5390.82314   4398.60806   0.2458         5746.85252     16.88152    4e-05  59196.34494   3.50522   1.50892   3029537.83715  45.23612  19.71376  59299.29996    51.62027       44.65789   45.39786   63.09431  108.0     0.0556  -21.73243  0.95351 
  -49.89833  0.13473   2.0003     13.90361  1.71505  0.68236  31.44692  0.02693     0.01167   4567.4236   4103.42926  0.23627          4619.3962      18.8559  0.00399  59199.75625   3.91334   4.23671    993280.70438  45.90386  19.73753  59296.31914    51.50979       44.44116   53.04263   90.41014  114.5    0.06781  -21.57613  0.91543 
   -44.6952  0.39022  2.00778     14.13062  1.47778  0.38574   22.9194  0.04041     0.08544  5688.32454   4681.70618  0.14672         4798.63053     17.78728  0.00034  59204.95938   4.42384   8.94365    303123.52505   46.3514  19.63294  59292.34069    51.76782       44.81597   46.20963   68.30988  114.0    0.07895  -21.65184  0.80344 
  -36.37028  0.23894  2.05275     13.67113  1.68619  0.74285  25.51896  0.03036     0.07011  6589.41598   5533.38879  2.82215         2499.79219     20.87261  0.41432   59213.2843   6.60973    6.0976    3000056.3371  45.39395  19.70452  59296.40684    51.53334       44.52778   50.22786   74.33723  137.0    0.07722   -22.1717  0.87095 
  -52.04492  0.09274  1.95352     13.49515  1.53052  1.46097  36.69614  0.02305     0.09594  4970.14108   7488.88953  0.31101          5452.1224     20.17406  0.08294  59197.60966   5.40736   3.40333   5546218.38962  45.12805  19.64178   59291.4403    51.50836       44.51394   42.24696   70.26344  126.5    0.06302   -21.8042  0.92097 
  -48.32995  0.19607  2.73431     13.67139  1.84774  0.98074  28.86598   0.0345     0.27938   5588.0379   4939.71901  3.29191         2662.58375     20.42066  0.14635  59201.32463    5.3769   5.65989    5825967.5382  44.89642  19.62227  59290.31238    51.95718        44.9647   38.22873   74.28167  136.5    0.06161  -21.83413  0.82211 
   -47.4196  0.36814  1.02181     14.14031  1.73531  0.56673  60.28194   0.0181     0.34528  5600.31508   5648.07274  0.08838         4308.98387     20.69706  0.27656  59202.23498  11.27819  22.19197     88166.91148  47.54418  19.67799   59291.4403    51.80146       44.88549   39.43025    57.8129  137.5    0.06185  -21.89917  0.89232 
  -47.80354  0.16961  1.38416     14.03313  1.78153  0.49688  46.36164  0.02254     0.08727  6013.66303   5435.27468  0.13354         3349.76831     20.76018  0.31982  59201.85105  10.00148   7.86323    272097.95462  46.80254  19.69672  59293.51371    51.63516       44.68289   44.00257   62.48049  113.5    0.07672  -22.00893  0.92873 
  -39.93688  0.24705  2.34488      13.6243  1.99069  1.26096  32.93752  0.02095     0.15346  5405.75049   3139.23806  3.97866         2371.90218     20.86536  0.40747  59209.71771   5.74156    8.1373   5734007.07651  45.06915   19.6508  59280.28124    51.90114       44.98162   29.93877   56.87443  156.0    0.07143  -22.07161  0.83221 
  -41.89018  0.26408  1.94369     13.97407   1.6037  0.33311  27.71693  0.02266     0.02563  5757.21364   7983.11831  1.51399         2541.43151     20.80922  0.35806   59207.7644   5.48021   7.31944    633950.35391  46.09466   19.6178  59284.83434    51.89111        44.9877   38.17317   54.66737  134.5    0.06847   -21.9944  0.85403 
  -50.57006  0.06303  2.37149     13.64502   1.5785  1.52223  41.43135  0.02822     0.24318  3520.86934   9768.73658   2.2974         3512.34691     18.42631  0.00148  59199.08453   3.06377   2.61135   4227302.89117  45.09098  19.66651  59293.51371    51.54747        44.5932   40.18229   63.83707   95.0    0.05585  -21.56506  0.91594 
  -35.43773  0.31774  2.67631      13.8493  1.56403  1.06103  23.98223  0.04087     0.10202  5337.88966   5388.05962   1.4975         3759.81556     19.42429  0.01476  59214.21686    4.0762   7.62011   2082294.31026  45.28947   19.6422  59293.51371    51.59105       44.61713   44.78886   65.96661  101.5    0.08545  -21.71914  0.74523 
  -45.30433  0.08555   2.4403     14.09201  1.79692   0.3617  23.84638  0.03037     0.01299  5350.12909   8347.37638  0.31825         4148.71622     18.72982  0.00298  59204.35025   4.07172   2.04003    650431.77554  45.93529  19.67004  59292.34069    51.56802       44.60353   44.20051   66.30077   99.5    0.07132  -21.65081  0.94064 
  -44.15606   0.3196  1.66953     13.69662  1.33325  1.18454  24.06123  0.04135     0.09937  4741.26493   4200.69273   0.4827         3726.88981     18.53981  0.00193  59205.49852   3.22651   7.68993   1395335.35503  45.80389  19.71661  59301.29963    51.46138       44.40867   54.24609   80.36457  113.5    0.07233  -21.57471  0.85547 
  -49.17264  0.00704  2.45248     13.78124  2.03024  1.00069  31.35586   0.0251     0.03873  4949.28173   5427.96532  0.19669         5840.92049     17.26632   0.0001  59200.48194   4.58174   0.22074   3105188.21574  45.30509  19.74039  59299.29996    51.60727       44.65024    41.6392   67.20751  123.0    0.06755  -21.65331  0.99431 
  -50.07596  0.00608  2.50977     13.69007  1.90843  1.11425  23.09102  0.03848      0.0196  4939.19521   3707.21335  0.60557         5898.34919     17.73459   0.0003  59199.57862   3.36034   0.14042   4651713.38369  45.08264  19.70305  59296.40684    51.62649       44.71881   38.00164   57.45709  111.0    0.07278  -21.86273   0.9958 
  -52.54937  0.16148  2.08891     13.61042  1.56012  1.50646  31.13963  0.03064     0.06513  4653.54671   9364.77389  0.43503         5431.46696     19.24899  0.00986  59197.10522   4.02262   5.02827   3801564.27293   45.2422  19.62649  59292.31133    51.48557       44.48853   43.01629   87.57613   97.5     0.0659   -21.7243  0.87791 
  -47.79279  0.07717  2.79137     13.81591  2.04117  0.77076  30.24891  0.01856     0.01693  4182.79816   4437.86882  0.68315         4180.39865     19.21305  0.00907  59201.86179   3.15697   2.33419   3447549.47049  45.14958  19.68966  59293.51371    51.54709       44.53832   46.20963   74.33723  151.0    0.05786  -21.57015  0.92635 
  -38.81569   0.2551  1.33545     13.82011  1.80281  0.70197   40.1038  0.02307     0.06128  6714.50841   6893.29573  0.58281         2588.22127     20.98762  0.53994   59210.8389  10.78552   10.2303    683602.74374  46.43873  19.70907  59290.25854    51.43806       44.40292   51.88987   81.51733  122.0    0.08391  -22.32199  0.91604 
  -44.94361  0.04678  2.47709     13.66301  1.87614  0.98789  15.28307  0.03608     0.04592  6035.86358   7091.19492  0.04395         3471.72315     19.01059  0.00569  59204.71098   3.32136   0.71502   5046068.56372  45.05127  19.67466  59284.83434    51.55739       44.64101   35.98859   56.43067  127.5    0.06013  -21.65985  0.97873 
  -50.01635  0.06807  2.45143     14.08293  1.78773  0.32192  24.26262  0.03424      0.0556   6128.9909   5894.93723  0.15813         3588.68314     18.41846  0.00146  59199.63823   5.43679   1.65161    680910.67696  45.90922  19.62186  59293.51371    51.53325       44.51235   48.21874   76.34634  129.0    0.06911  -21.71568  0.95002 
  -44.72026  0.23797  2.83418     13.95591  1.68348  0.46829  29.19838  0.03118     0.01601  4569.69923   5344.95145  2.11295         3330.12385     19.98583  0.05377  59204.93432   3.63715   6.94834   1538353.22119  45.40314  19.68541  59293.51371    51.54046       44.45532   52.23697   96.43748  130.5    0.06275  -21.70373  0.75469 
  -41.60232  0.44164  3.70229     13.71391  1.63994  1.42905  23.96739   0.0402     0.02733  5228.99432   6431.66511  3.41207         3232.89704     18.92923  0.00472  59208.05227   3.90917  10.58493   7794113.69232  44.45497   19.6626  59293.51371    51.44938       44.45865   48.21874   72.32811  124.0    0.06545  -21.66907  0.53169 
  -43.32564    0.048  2.61072     13.64186  1.74163  1.08474  27.15006   0.0244      0.0692  5366.32631   7820.59876  0.93907         3534.84693     19.64206  0.02437  59206.32894   4.66393   1.30318   5735590.18605   44.9177  19.68103  59293.51371    51.63559        44.5705   57.45254   81.17634  121.0    0.07473  -21.66602  0.95317 
  -42.34053  0.18541  1.90777     13.83887  1.67782  0.52449  25.85024  0.02563     0.03145   5426.2881   7916.31015  1.98942         2199.09625     20.74556  0.30923  59207.31406   4.54043   4.79287   1190885.82676  45.85667   19.6449  59290.62059     51.5794       44.66474   35.99252   58.85713  133.5    0.06815  -21.91905  0.90913 
  -50.68563  0.42753  1.67232     13.83985  1.69327    0.571  18.65566  0.04736     0.15279  6243.79601   7124.77381  0.02397         2441.61671     20.74416  0.30824  59198.96896   4.33846   7.97578    919369.33366  46.08744  19.59877  59290.62059    52.27196       45.49848    28.1276   40.18229  125.5    0.06454  -22.01394  0.88926 
  -40.68531  0.10402  2.06418     14.16241  1.64665  0.32084  24.74843  0.03273      0.1655  5939.21358   7415.78903  0.05465         5978.83331     17.32614  0.00012  59208.96927   5.20754   2.57425    308381.15035  46.36687  19.68633  59292.34069     51.7496       44.68956   46.79797   85.80357  102.0    0.08689  -21.68779  0.94001 
  -48.95182  0.10111  1.98537     13.84939  1.74487  1.04899  38.68015  0.03504     0.02832  5172.82727   5643.93617  0.36508         4934.77564      18.0376  0.00061  59200.70277   6.17407   3.91081   1277850.70653  45.80844  19.62362  59296.31914    51.52306       44.56981   44.20051   66.30077   94.0    0.07058  -21.70125  0.92477 
  -41.21189  0.30324  2.47265      13.8693  1.63352  0.74522  33.76131  0.02693     0.04978  5371.79112    8025.9959  1.47801         3138.56335     20.47715  0.16668   59208.4427   5.81145  10.23768   1693052.58835  45.46697  19.72414  59301.29963    51.59712       44.65041   35.99252   67.93202  114.0    0.07161  -21.81705  0.72984 
   -31.7588    0.435  0.83247     13.72504  1.77115  0.86427  40.30769  0.01541      0.3071  7265.66892   5219.07918  0.12021         2574.41385      21.0855  0.67644  59217.89579  12.69306   17.5339    404317.84502  47.06964  19.64315  59299.29996    51.61175       44.61784   48.21874   68.30988  143.0    0.09136  -22.43569  0.94153 
  -40.79451  0.24458   2.1554     14.07081  1.61256  0.46799  34.14336  0.01628     0.01315  3884.33784    6481.0648  0.63358         5961.31115     17.92935  0.00047  59208.86008   3.07303   8.35089     502080.5329  46.10853  19.65505  59293.51371    51.58929        44.6919   28.57006   58.24314  129.5    0.07715  -21.70011  0.81188 
  -41.07689  0.28553  2.60841     14.13209  1.77436   0.3817  22.00897  0.03228     0.04898  6093.16447   6682.95772  0.23544         5963.29327     17.24378   0.0001  59208.57769   4.87431   6.28421    610151.90001   45.8997  19.68017  59290.62059    51.65583       44.69322   44.78886   65.71242  118.0    0.08195  -21.76126   0.8164 
  -46.29899  0.08898  2.43153     13.71068  1.82498  0.69394  26.55901  0.03235     0.24115  5673.90286   9100.60875  1.45367         2893.44877     20.47365  0.16534  59203.35559   5.10038   2.36314   3797285.57819  45.17887  19.68848   59291.4403    51.59186       44.52587   49.16163   83.79445  119.5    0.06064  -21.84958  0.93176 
  -39.71287  0.06851  2.22116     13.50621  1.67283  1.35375  19.92997   0.0268     0.12581  5783.27792   9617.59922  0.67885         2873.55262     20.43818  0.15237  59209.94172   3.97632    1.3654   7447379.78068  44.92713  19.70071  59296.31914    51.59299       44.59607   52.06544   72.04506  112.0    0.06404  -21.74623  0.96184 
  -42.31881  0.26082  2.69433     13.93641   1.9248  0.72489  29.95935  0.02807     0.03824  5443.55696   3515.05442  0.83839         3460.56226     20.28848  0.10795  59207.33578   5.29572   7.81388   1738964.52815  45.45204  19.70514  59292.34069    51.59757        44.6204   40.18229   68.56407  124.5    0.07073   -21.7794  0.79146 
   -46.3905  0.17188  1.45017     13.70756  1.83496   1.0413  33.41477  0.02432     0.03749   5735.4403   8555.07095  0.05142         4239.45949     20.79321   0.3451  59203.26408   6.55691   5.74324   1377721.88628  46.07047  19.65162  59284.83434    51.51529        44.5081    46.7275   81.85581  108.5    0.07271  -22.00523  0.94411 
  -48.19924  0.44569  2.84689     14.09686  1.88282  0.28855  15.45122  0.03687     0.01694  6725.64807   6682.48204  0.01323         5289.02785     17.12618    7e-05  59201.45534   4.16925   6.88652    907082.98079  45.67727  19.63191  59290.25854    51.56513       44.61763   44.38353   64.46319   97.0       0.05  -21.73149  0.77903 
  -50.83675  0.10561  1.73731     13.78676  1.57747  1.00286  47.52942  0.02745      0.0572  4792.48746   6132.64625   0.6985            3615.12     20.30087  0.11107  59198.81784   6.51196   5.01975   1180352.34115  45.91504  19.65983  59287.72747    52.01696       45.22727   29.80285   42.52526  102.0    0.06685  -21.69352  0.91499 
  -50.05428  0.15187  1.59472     14.69636  2.07047  0.16491  35.38887  0.04335     0.02887  5355.47958   6516.50101  0.36321         3401.40738     20.51644  0.18246  59199.60031   6.05467   5.37459     19793.50696  47.88302  19.67919  59296.31914    51.66377       44.59741   48.21874   82.37368   94.0    0.06966  -21.77828  0.94757 
  -55.16579  0.10187  2.01935     14.52525  1.88174  0.19541  41.49672  0.04036     0.07129  5027.45737   7724.86339   0.5039         3530.12246     19.77664  0.03322  59194.48879   6.25659   4.22731     63431.09767  47.13068  19.62463  59296.31914    51.56745       44.63363   34.74329   63.70331   91.5    0.06062  -21.64046  0.92485 
  -38.32713  0.06396  2.37533     13.63808  1.62123  0.90681  31.36305  0.01507     0.01877  4838.14795   6937.91553  0.77727         5476.36129      19.5276  0.01872  59211.32745   4.37929   2.00587   4497285.04481  45.07429  19.62174  59280.28124     51.6642       44.79477   32.14583   54.24609  129.5    0.07916  -21.85353    0.935 
  -50.57643  0.07167  1.62063     13.52034  1.48914  1.30409  40.18264  0.01729     0.06599  4214.04362   9763.87698  0.64707         5264.17152     20.61573  0.22933  59199.07815   4.25661   2.87978   3306980.21018  45.50298   19.7177  59290.25854    51.58234       44.69643   24.34523    64.0558  104.0    0.07332  -21.96157  0.95122 
  -38.65925  0.13654  2.11325     13.71549  1.84484   0.5568  14.81623  0.03386     0.11909   6742.0881   5415.29148  1.96505         2410.37401     20.83689   0.3816  59210.99534   4.01748   2.02307   2835955.21271   45.4322   19.6681  59296.40684    51.62944       44.75816   34.60636   54.11088  166.5    0.05838  -22.07515  0.95518 
   -49.5645  0.07784  2.18272      13.7942  1.72654  1.11556  39.21039  0.02725     0.10119  4504.80312   5968.59599  0.56826         4522.59657     18.97928   0.0053  59200.09008   4.74657    3.0521   1970554.21627  45.53344  19.68995  59296.31914    51.54222       44.56137   48.57329   72.32811  104.0    0.06981  -21.60789  0.92728 
  -39.93249  0.47481  1.98251     13.83793  1.34449  1.15826  28.88271  0.03188     0.09171  4953.93876   4578.47951  0.66355         3984.89119     18.77761  0.00333  59209.72209   4.22831  13.71376   1034986.20421  45.78804  19.73857  59293.51371    51.54243        44.5677   34.74329     75.758  124.5    0.07066  -21.59339   0.7051 
  -41.76756  0.22607  2.69199      13.8449  1.78359   0.8825  30.74347  0.02762     0.02161  4883.68759    4004.5872  1.08243         3809.04581     20.02078  0.05828  59207.88703   4.37397   6.95014   2451671.48848  45.27053  19.66373  59287.72747    51.75511        44.7918   42.77975   63.70331  119.0    0.07443  -21.73429  0.79221 
