 texplosion  fnickel    Pspin  log(Bfield)      Mns  thetaPB  mejecta    kappa  kappagamma     vejecta  temperature    alpha  cutoff_wavelength  log(nhhost)      A_V         MJD0  kenergy  mnickel            TSD   log(L0)  Peak_mag     Peak_MJD  log(E_rad)  log(Peak_lum)  Rise_Time    E_fold  tau_1  delta_m15     r_peak     frac 
   -7.26062    0.003   4.6905      14.6181  1.83482  0.56636  3.26423  0.30404     0.01477  5620.41284   5287.68615  0.00547         4072.70958     20.60305  0.22273  59020.18233   0.6151   0.0098   217592.71075  45.85236  19.56728  59077.64475    50.59453       43.87176   30.31763   42.1529   38.0    0.20672  -20.21983  0.99896 
   -7.52205  0.01272  5.37002     14.25827   1.5833  1.34526  3.19525  0.30877     0.01413  5620.12177   4464.17093  0.01874         3918.55219     19.82167  0.03685   59019.9209  0.60204  0.04065   1290591.8352  44.89767  19.58012   59075.0312    50.73235       44.02973   26.99806  40.69226   38.0    0.21448  -20.05368  0.99292 
   -9.65189   0.0847  3.68795     14.52052  1.81556  0.68257  3.77472  0.31485     0.01055   5744.0517   5334.42061  0.00532         3799.20929     20.84175   0.3859  59017.79106  0.74293  0.31972   208624.77704  46.07492  19.57308  59077.51813    50.62482       43.90538   31.49984  41.08354   38.5    0.20397  -20.38145  0.97909 
  -11.50269  0.00589  6.66668     14.63819  1.84644   0.5135   4.1426  0.18695      0.0199   5064.9675   3810.19622  0.22943         4158.74205      19.7522   0.0314  59015.94026  0.63395  0.02442   403255.31797  45.28178  19.56433  59077.64475    50.50102       43.74938   37.18713  42.97502   44.5    0.16668  -20.00131  0.99477 
   -7.47345  0.00128  7.75249     14.33553  2.02971   0.9808  4.00288   0.2371     0.01282  6628.16488   6349.14862  0.00621         3469.29033     19.77346  0.03297   59019.9695  1.04903  0.00514  2415807.56695  44.41433  19.56132  59077.64475    50.46593       43.72212   34.58674  42.95521   38.0    0.24725   -20.1321  0.99868 
   -8.24931  0.09439   2.2055     14.48482  1.86732  1.08432   3.8001  0.22451     0.01759  5263.26299   6063.13559  0.09126         5151.33625     20.92955  0.47237  59019.19364  0.62796  0.35868    90449.31857  46.89664  19.57273  59076.35938     50.4596       43.69608   34.84777  45.54045   40.0    0.19843  -20.45276  0.99235 
   -8.38525  0.01537  4.81061     14.33205  1.75005  0.98931  3.48837  0.30526     0.01037  5685.76307   4360.05082  0.02045         3778.05909     20.63983  0.24241   59019.0577  0.67271  0.05362   815012.43675  45.23633  19.55534  59076.50887    50.42269       43.62881   44.34064  46.23128   38.0    0.21418  -20.24843  0.99355 
   -8.41548  0.00267  5.70385     14.46393  1.95113  0.77847  3.65931  0.28432     0.01186  5860.23131   5272.63034   0.1516         2643.99812     20.58838  0.21533  59019.02747  0.74964  0.00977   695956.96317  45.20421  19.57868  59077.30078    50.73396       43.99677   29.52565  45.25835   38.5    0.20751  -20.24734  0.99859 
   -7.63105  0.01526  1.87977     14.52541  1.85058  0.86656   3.3054  0.31749     0.02107  5614.27718   4739.45354  0.05562         4256.29927     20.98903   0.5417   59019.8119   0.6215  0.05042    54014.17551  47.25543  19.56006  59077.64475    50.67753       43.95676     30.927  41.64793   38.5    0.17849  -20.53093  0.99923 
   -10.8607  0.00802  5.78543     14.34927  2.07883  1.18051   3.3205  0.32608     0.01275  5853.15835   3644.03457  0.00052         2214.93293     20.67801  0.26469  59016.58225   0.6786  0.02663  1293501.33022  44.95023  19.61138  59077.40625    50.81328       44.08367   24.62122  45.58898   39.0    0.21489  -20.29845   0.9964 
    -9.3148  0.00252   6.6402     14.29285  1.70738  0.97195  6.38096  0.19065     0.01001  6469.27433   5081.45375  1.60422         2722.78401     19.78607  0.03395  59018.12815  1.59303  0.01606  1814692.09158  44.59801  19.55819  59075.51547    50.68371       43.95689   27.89282  44.03634   39.5    0.19924    -20.122  0.99612 
  -12.76097  0.00497    6.985     14.48429  1.97584   0.7057  3.40436  0.29123     0.01424  5554.87598   6344.83763    0.215         2257.45961     19.64624   0.0246  59014.68198  0.62663  0.01691   962336.67549  44.89294  19.53906  59077.30078    50.94615       44.25167   22.09071  42.30074   41.0    0.20239  -20.05809  0.99638 
  -10.94878  0.03266  6.14952     14.26737  1.77224  1.33897  4.19603  0.32475     0.01178  5895.19681   4142.27108  1.43561         2811.60159     20.20523  0.08912  59016.49417  0.86989  0.13704  1816734.21346  44.68039  19.57158  59076.50887    50.62713       43.88015   33.70891  43.84007   41.0     0.1788  -20.11784  0.97393 
  -10.33874  0.01141  5.89921     14.42256  1.92031  0.91303  4.10619   0.3081     0.01129  5969.26817    5636.0528  0.07162         2501.88932     20.31756  0.11542  59017.10421  0.87279  0.04687    886433.6852  45.06298  19.55941  59077.30078    50.44356        43.6714   38.08519  45.13136   39.0    0.20903  -20.15636  0.99262 
  -10.85393   0.0054  6.82032     14.36929  1.99798   1.4121  3.96122  0.31283     0.01356  5821.24772   5907.90468  0.11368         3848.30326     19.66902  0.02593  59016.58902  0.80073   0.0214  1575592.38033  44.70438  19.55693  59076.50887    50.74255       44.01188   29.52565  43.37371   40.5    0.19425  -20.04013  0.99573 
   -11.1983  0.03027  7.48748     14.27152  2.00745   1.2896  3.70096  0.25517      0.0117  5804.51249   6180.97323  0.13184         4354.10994     19.93585  0.04793  59016.24465  0.74383  0.11202  2992899.22494  44.34673  19.53076  59076.50887    50.58223       43.84695   38.01586  40.54497   41.0    0.21557  -20.10126  0.97348 
   -7.12148  0.01328  4.86394     14.45111  1.92989   0.8871  2.93992  0.33552     0.01219  5568.71044   5045.99418  0.16009          2532.2548     20.66142  0.25477  59020.32147  0.54384  0.03905   531018.11644  45.45529  19.58192  59076.50887    50.63884       43.90147   33.70891   42.1529   37.5    0.22122  -20.26126  0.99586 
   -7.58217  0.00934  1.95036     14.49824  1.94313  1.14832  3.94884  0.32634     0.01683  5846.43717   4943.22875  0.01294         5193.87746     20.94335  0.48761  59019.86078  0.80515  0.03689    69193.55922  47.13705  19.53681  59076.35938    50.45336       43.68051    40.4642   43.4805   38.5    0.17722  -20.49069  0.99944 
   -7.61747  0.07015  2.69267     14.42609  1.92947  1.25005   3.3917  0.28604     0.01521  5565.89172   3442.53345   0.0508         4057.32195     20.96345  0.51071  59019.82548  0.62678  0.23791   182573.77342  46.43248  19.56928  59076.50887     50.4586       43.68127   38.74401  45.20069   38.0     0.2006   -20.4882  0.99248 
  -10.34586  0.09856  3.62604     14.54695  1.96848  0.85596  3.89165  0.25658     0.01067  5090.92166   4363.52491  0.10605         3861.15615     20.76945  0.32672  59017.09709  0.60166  0.38357   193599.79071  46.15721  19.51608  59078.32422     50.8537       44.13626   24.44254  44.27837   40.0    0.18344  -20.27971  0.97865 
   -8.90338  0.00175  6.47316     14.46503  2.12329  1.19926  4.58902  0.26476     0.01047  5769.23938    6519.3833  0.73412         2457.73719     20.12109  0.07342  59018.53957  0.91114  0.00804   970505.62287  44.98662  19.56366  59076.35938     50.7469       44.03078   28.74797  41.46224   39.0    0.20132  -20.07934  0.99868 
   -6.22113  0.03327  3.68112     14.47452  1.68836  1.43655  4.63278  0.25885     0.02517  5653.78189   5919.22113  0.06955         4998.60066     19.76801  0.03256  59021.22182  0.88338  0.15411    238895.4696  45.98614  19.57566  59077.30078    50.48301       43.72406   37.97802  42.97502   42.0    0.17133  -20.00201  0.98887 
    -8.8969  0.00379   5.1366     14.28101  1.80062  1.08426  2.80388  0.33024     0.01119  5381.92941   6217.98354  0.06018         2545.77778     20.62515  0.23436  59018.54605  0.48446  0.01062  1209387.14969  45.02035  19.53738  59076.35938    50.54601       43.79102   36.25453  43.14971   38.5    0.21838  -20.23211  0.99859 
  -10.42169  0.00592  5.66958     14.37955  1.71365  0.94282  4.67625  0.17731     0.01038   4954.7723   3061.81084  0.19804         5639.44314      20.1624  0.08075  59017.02126  0.68481  0.02767   890728.85155  45.04592  19.57011  59076.35938    50.50412       43.74657   40.56478  42.95521   40.5    0.18666  -20.08329  0.99521 
   -8.16694  0.09889  1.36232     14.41884  1.93529  1.29204   3.8185  0.24347     0.01562  5331.92206    5692.5896  0.09263         3498.84214     21.11144  0.71807  59019.27601  0.64757  0.37759    48465.37591   47.6016  19.56657  59076.35938    50.48098       43.71222   34.61698   46.3905   40.0     0.1922  -20.66568  0.99753 
   -5.75228  0.00624  2.84713     14.47661  1.86356  1.11179  3.45094  0.33202      0.0119  5531.78573   3474.29013   0.0266          2474.4473     20.73572  0.30231  59021.69067  0.62993  0.02155   156226.98064  46.43662  19.53317   59075.0312    50.63826       43.91527   31.15339  41.74596   37.0     0.2074  -20.29261   0.9992 
  -13.40969  0.02684  5.72134     14.19942  1.69287  1.54713   3.5015  0.31156     0.01162  5347.13961   5698.44642  0.09583         2932.62373     20.25721  0.10045  59014.03326  0.59721  0.09399  2053936.99923  44.66989  19.59153  59076.35938    50.49627       43.72191   39.51554  44.74474   41.5     0.1887  -20.07771  0.98325 
  -10.97156  0.00331  4.26648     14.44701  1.73688  0.56664  4.66806  0.15229     0.01068  5253.46991   3395.61168  0.11352         4881.49995      20.9446  0.48903  59016.47139  0.76852  0.01546   374722.86806  45.67476  19.61931   59075.0312    50.44535       43.63292   40.88126  48.59957   42.5    0.19505  -20.47732  0.99851 
   -11.3249  0.00507  2.93915     14.39585  1.83092  0.96504  3.95371  0.26747     0.01518  5370.14314   5606.14546  0.05115         3465.06174     20.96587  0.51357  59016.11805  0.68015  0.02004   237263.51866  46.21984  19.58391  59075.51547     50.7307       43.99915   28.19606  43.07945   41.0    0.16781  -20.47034  0.99917 
   -9.46254  0.17877  2.87147     14.42563  1.79673  0.85842  3.43961   0.2779     0.01269   5454.1044   4560.92109  0.06093          3228.6991     20.97961  0.53007  59017.98041  0.61036  0.61489   193753.69059  46.31987  19.56856  59076.50887    50.43402       43.66534   38.74401  44.04302   40.0    0.18613  -20.53215  0.97549 
   -9.45596  0.00266  5.87886     14.36622  1.93822   1.3568  4.70471  0.25403     0.01007  5779.56961   4853.98814    0.166         3837.45801     20.30167  0.11127  59017.98699  0.93746  0.01252  1151785.71402  44.95629  19.56631  59077.51813     50.4957       43.74077   37.55421  43.37902   39.0    0.20452  -20.14002  0.99806 
   -8.18031  0.01431  6.66057      14.3372  1.92235   1.1865  2.74849  0.33119     0.01873  6055.32925   5951.88681  0.03451         2774.60418     20.24786  0.09831  59019.26264  0.60117  0.03934  1675973.61851  44.68139  19.54092  59075.32812    50.43987        43.6582   37.55421   46.3905   38.5    0.21553  -20.15534  0.99208 
  -11.25899  0.00116  4.24012     14.19529  1.50529   1.5336  4.47775  0.32736     0.01033  5682.42763   3867.07688  0.08506         5193.88765     20.40794  0.14212  59016.18396  0.86249  0.00521  1022399.26692  45.18209  19.54679  59076.50887    50.92061       44.21922   23.14031  42.85907   40.0    0.18825  -20.16393  0.99939 
  -14.49464   0.1678   6.3936     14.41073  1.74309  0.76657  3.72564  0.33226     0.01184  5595.43656   6341.95715  0.03501         4694.06479     19.52416  0.01857  59012.94831  0.69582  0.62517   998096.91545   44.8995  19.56393  59076.35938     50.4745       43.70979   34.67453  45.55035   43.0    0.18134  -20.03598  0.88068 
   -7.64134   0.0484  3.69647     14.44842  1.80121  0.98641  4.29137  0.20489     0.01492   5356.7655   6204.25422  0.10363         2478.05026     20.75506  0.31607  59019.80161  0.73456  0.20771   289815.07446  45.92671   19.5603  59076.35938     50.4521       43.67924   38.81335  43.97368   40.0    0.18432  -20.28523  0.98613 
  -14.70644   0.0023  8.01505     14.74254  1.92052  0.30855  3.75716  0.21537     0.02308  5643.44791   6355.55564  1.65284         2495.53635     19.24564  0.00978  59012.73651   0.7138  0.00866   374938.08782  45.17049  19.55177  59073.52217    50.43443       43.64548   42.25855  44.33895   48.0    0.16327  -20.00335  0.99742 
   -9.82978  0.00561  5.63096      14.1123  1.64038  1.19631  2.95133  0.27725     0.01528  5904.35177   6142.60571  0.48988         2144.39657     20.64191  0.24358  59017.61317  0.61375  0.01655  2879523.17373   44.5233  19.56466  59076.35938    50.57094       43.83294   36.18849    41.129   41.0    0.21275  -20.29188  0.99693 
  -17.71921  0.01593  6.57337     14.65755  1.71703  0.18547  1.96756  0.32876     0.01905  5254.73286   6476.09819  0.71902         3337.10588     20.08586   0.0677  59009.72374  0.32408  0.03133   333485.47821  45.34497  19.53853  59076.50887    50.71081        43.9934   25.27923  43.98681   49.0    0.18619  -20.09951  0.99227 
    -9.9925  0.02943  5.34375     14.42206  1.66941   0.7763  3.57332  0.30685     0.01504  5658.45015     6745.005  0.19575         3618.49634     20.31497  0.11474  59017.45045  0.68249  0.10516   633801.14162  45.23376  19.52683  59076.50887    51.02112       44.34857     18.448  42.22379   40.0    0.18866   -20.1385  0.98341 
  -10.78846  0.05847  1.41496     14.33679  1.56396  1.40326   4.0964  0.31349     0.01076  5366.24017   6697.34707  0.04645          4775.4031     20.87927  0.42073  59016.65449  0.70367  0.23953    61653.71198  47.37162  19.54495  59076.50887    50.56069       43.84017   35.34514  39.18255   38.5    0.18841  -20.34445  0.99761 
  -11.96042   0.0239  6.38527     14.35815   1.7986  0.99068  4.85277  0.21436     0.01405  5884.17006   4254.52276  0.09833         2295.04851     20.01926  0.05807  59015.48253  1.00228  0.11599  1308583.76293  44.79662  19.54614  59076.50887    50.44313       43.66464    40.4642   43.4805   40.5    0.18927   -20.1027  0.97667 
  -13.83019  0.01628  6.39643     14.32464  1.76515  0.88834  3.33753   0.3304      0.0151  5692.09451   6421.25713  0.16931          2348.4643     20.02739  0.05917  59013.61276  0.64505  0.05435  1503773.49686  44.72657  19.57973  59076.50887    50.83322       44.13229   20.56458  44.70842   41.5    0.19161  -20.06696  0.98853 
  -10.24015  0.01029  7.16543     14.38839  2.00085  1.11948  4.01662  0.20727     0.01157  5267.88042   6772.49787  0.03271         4367.78571     19.46356  0.01615   59017.2028  0.66491  0.04131  1594933.91809  44.65683  19.60052  59075.51547    50.44323       43.67432   37.24986  44.80902   40.0    0.20344  -20.00758  0.99093 
  -11.55222  0.01337  6.94656     14.40848  1.87244  0.88286   4.9748  0.19366     0.01199  5465.07373   3047.05624  0.23551         2593.40904     19.79328  0.03451  59015.89073  0.88633  0.06653  1278771.38407  44.75092  19.55543  59077.30078    50.46104       43.68848   38.74401  44.04302   42.0    0.17704  -20.01285  0.98493 
  -10.23585  0.05491  6.29676     14.32678  1.92974  1.35479  3.94026   0.2673     0.01078  5429.74848   5349.78293  0.53493         3619.64859     20.47625  0.16633   59017.2071  0.69297  0.21638  1577594.33857  44.75811  19.55733  59077.64475    50.80562       44.07958   20.56458   48.1647   41.0    0.18703  -20.16725  0.96252 
  -10.36097  0.02088  4.94954     14.50157  1.61252  0.60379  4.09381  0.25104     0.01123  5354.70575   4049.17244  0.08713          4361.8961     20.29111   0.1086  59017.08198  0.70021  0.08547   364169.31429  45.52592  19.56079  59076.35938    50.59738       43.84081   27.26705  46.53633   39.5    0.19437  -20.10848  0.98778 
   -6.00289  0.01921  2.14935     14.46278  1.76096  1.20804  3.95051  0.29184     0.01016  5266.58478   7418.44972   0.0841         5351.90814     20.73643   0.3028  59021.44006  0.65364  0.07587    89664.31945  46.89736  19.57096  59077.30078    50.64232       43.89985   28.71793  44.18143   36.0    0.19385  -20.28501  0.99834 
   -9.81968  0.04166  7.73522     14.46336  2.06501  0.66455  3.19291  0.28503      0.0143  6279.93686     6439.549  0.26883         2857.13366     20.10072  0.07006  59017.62327  0.75115    0.133  1358190.99052  44.67386  19.60586  59075.51547    50.44387       43.66984   38.74401  45.20069   39.5    0.22742  -20.14839  0.96787 
   -8.93861   0.0693  6.55056     14.39121  1.80318  0.90656  3.00352  0.33341     0.01743  5883.71239   6137.58705  0.23816         2631.22671     20.07429  0.06592  59018.50434  0.62024  0.20815    1185758.286  44.81833   19.5313  59075.51547    50.45802       43.71152   37.97802  42.09677   39.5    0.20518  -20.09279  0.95698 
   -11.2261  0.09463  4.59303      14.2448  1.32393  0.81083  4.02853  0.33416     0.01214  5979.79878   4658.22435  0.00889         3666.93021     20.19029   0.0861  59016.21685  0.85931  0.38121   839987.39299  45.14224  19.56768  59076.50887    50.44996       43.66925   43.05096   43.4805   40.0    0.18836  -20.12394  0.93981 
   -8.52789  0.00163  5.23356      14.5947  1.79517  0.52817  3.96638  0.26301     0.01176  5714.66263   5167.62498  0.06118         3354.10131     20.52241  0.18498  59018.91506  0.77269  0.00646   295197.74159  45.61524  19.58102  59075.51547    50.53792       43.79691   36.18849  41.36049   38.5    0.20497  -20.19761  0.99911 
  -11.01773  0.06569  3.53518     14.59937      2.0  0.69513   4.0015  0.28643     0.01136  5370.74421   6590.43334  0.04205         2893.50089     20.83629  0.38108  59016.42522  0.68852  0.26287   146866.47274  46.30613  19.55555  59076.35938     50.4196       43.66143   36.60428  43.78394   40.0    0.18203  -20.34023   0.9863 
   -9.11158   0.1133  4.91589     14.56206  1.73338  0.70086  3.98979  0.32102      0.0108  5635.53778   4370.21398  0.33503         2015.09151     20.11152  0.07182  59018.33137  0.75587  0.45205   292270.50268  45.65875  19.55325  59077.30078    50.47292       43.72586   36.53494  42.18922   39.5    0.19719  -20.05439  0.94548 
  -13.58053  0.07491  7.31133     14.30798  1.98268  1.09549  3.01738  0.32468     0.01646  5586.94117   4429.57989   0.1491         2926.27179     20.03649  0.06042  59013.86242  0.56183  0.22603  2382833.45994  44.46101  19.55718  59077.30078    50.56532        43.8063   36.25453  43.82026   42.5    0.19002   -20.0852  0.94941 
    -8.8718  0.01716  5.35824     14.61574  1.87593  0.54225  2.84305   0.3261     0.01303  5359.73323   3700.70917  0.19631          4602.2113     20.54057  0.19289  59018.57115  0.48719  0.04878   293493.93707  45.61642  19.52347  59076.50887    50.49798       43.76036   33.66557  42.23214   38.0    0.20813  -20.20862  0.99344 
  -11.40391   0.0448   7.1361     14.55925  1.86834  0.55024  4.92222  0.23918     0.01134  5960.23256   3890.88805  0.45648          3820.6775     19.85912  0.04017  59016.03904  1.04307  0.22053   672495.55058  45.00569  19.55413  59077.64475    50.46967       43.70724    38.8776  43.18127   41.0    0.19293  -20.08962   0.9489 
   -7.39519   0.0033   4.7913     14.58638  1.92616  0.62804  4.56154  0.27297      0.0111  6161.65245   5765.42636  0.19066         2020.46257      20.6575  0.25248  59020.04776  1.03308  0.01503   275833.04562  45.75198  19.58544  59076.50887    50.68562       43.94194   27.81536  46.96864   38.0    0.20939  -20.30832  0.99844 
     -8.278  0.00942  5.71715     14.51373   1.7994   0.5009  3.04139  0.28881     0.01087   5534.4436      3509.14  0.38174         3240.10936     20.63399  0.23917  59019.16495  0.55571  0.02864    512686.2024  45.29976   19.5382  59076.35938    50.76363       44.05363    22.7039  44.59511   39.5      0.217  -20.25131  0.99528 
   -7.21937  0.00606  5.23687     14.30279  1.69966  1.23207  3.77653  0.32117      0.0118  5919.40187   5095.83412  0.38999         4038.79614     20.43369  0.15081  59020.22358  0.78936   0.0229  1073362.48477  45.03032  19.54518  59075.51547    50.50396       43.72017   40.38389  45.73019   38.5    0.20509  -20.20045  0.99658 
