 log(Bfield)      Mns    Pspin  cutoff_power  cutoff_wavelength  fnickel    kappa  kappagamma   mejecta  log(nhhost)  temperature  texplosion  thetaPB      vejecta      A_V        MJD_0   log(KE)      M_Ni  Peak_mag     Peak_MJD 
      14.561  1.72128   4.0848       4.12315          4130.6551  0.00627  0.05399     0.03052  11.79504     19.55951   6192.70498   -22.25798  1.55821   5968.32024  0.02015  55205.20502  52.16673   0.43321  18.52976  55231.69374 
    14.74349  1.83509  3.49031       4.78074         3987.56255   0.1064  0.13192     0.02374   6.58486     17.29309   5328.16392   -21.89722   1.0868   7827.59592  0.00011  55205.56578  52.34577   6.45421  18.52143  55231.69374 
    14.72017  1.47492  1.46881       4.94803         3886.56943  0.11442  0.11027     0.05233   7.77685      19.7669   6035.34369   -15.97983  1.17802   9235.56158  0.03248  55211.48317  52.50633   7.21585  18.56553  55231.69374 
    14.83005  1.64457  3.35323       1.51249         4594.39805  0.00534  0.11574     0.21575   4.16365      20.0654   6072.13982   -24.91181  0.45312   5328.72591  0.06458  55202.55119   51.9615   0.28836  18.55801  55231.69374 
    14.65905  1.96144  5.18357       2.48173         4401.43271  0.00107  0.13076     0.03267   4.24049     16.51148   6722.57166   -26.73487  0.92162   5686.74056    2e-05  55200.72813   52.0201   0.05822  18.49418  55228.99732 
    14.57015  2.00052  5.01429       2.33937         4403.19749  0.00774  0.12727     0.03887   3.40255     20.54389   5470.17795   -21.82804  1.39597   5580.71446  0.19436  55205.63496  51.97751   0.39557  18.58949  55231.69374 
    14.80229  1.60565  1.23639       4.98446         4166.25557  0.08724  0.09974     0.11485   7.33974     18.94102   5364.42897   -13.72764  1.29835   7162.47491  0.00485  55213.73536  52.27973    5.4285  18.51614  55234.39016 
    14.71353  2.12214   4.9259       4.07543         3302.99734  0.09297   0.2143     0.20339    4.6005     16.10979   6036.96625   -25.28007   1.0539   9116.18839    1e-05  55202.18293  52.43932   5.15701  18.50338  55231.69374 
    14.65432  1.80411  3.22652       4.09832         4208.88912  0.01594  0.06162     0.15852   9.30321     20.06934   7615.43779   -26.02627  1.06918   4930.91843  0.06517  55201.43673  51.97875   1.04623  18.60255  55231.69374 
    14.47546  1.64152  4.45651       0.95193           3896.309  0.05627  0.09425     0.06601   6.98329     19.33375   5206.60035   -22.52648  1.30654   9102.75733  0.01198  55204.93652   52.4829    3.4613  18.51188  55228.99732 
    14.64253  1.49201  4.97677       4.04942         4215.87608  0.09014  0.16347     0.04802   2.86746     19.82235   9172.72013   -20.05846  0.68103   6168.59469   0.0369  55207.40454  52.04295   4.38388  18.47735  55228.99732 
    14.63519   1.7362  6.24957       4.28065         4110.03342  0.00316  0.08321     0.05442   5.92668      17.2841   4026.72859   -21.70593  0.76746   6142.91294  0.00011  55205.75707  52.12422   0.18679  18.41121  55223.60447 
    14.78829  2.10864  2.97426       4.71476         3967.78334  0.03123    0.049     0.08889  19.37855     19.14049   3351.97703   -28.03855  1.15665   7608.02407  0.00768  55199.42445  52.42051   2.38182  18.60835  55231.69374 
     14.5284  1.57563  2.61509       4.04878         4025.84269    0.002  0.10734     0.24251   8.84016     19.38199   5530.89097   -36.02066  0.93954   6020.33898  0.01339  55191.44234  52.14723   0.12985  18.53649  55231.69374 
    14.67754  1.66195  4.32123         1.698         4600.74162   0.0729  0.15101     0.04245   3.60081     16.46438    6255.5449   -23.72584  0.72722   6312.25262    2e-05  55203.73716   52.0914   3.78532  18.53462    55227.507 
    15.02846  1.94048  0.77289       4.99244         4164.93715  0.04506  0.03857     0.48697  17.47619     19.83352   6382.86625    -9.29124  1.21287   7834.21628  0.03787  55218.17176  52.43737   3.36897  18.48788  55234.39016 
    14.77377  1.25561  1.38452        1.8685         4202.68479  0.05732  0.07779     0.06783   10.5838      16.3449   5023.29637   -22.74413  0.51513   7494.77217    1e-05  55204.71887  52.35458   3.87019  18.54097  55234.39016 
    14.62248  1.63029  3.96551       1.92874          4257.6257  0.02007  0.05102     0.04474   14.7958     17.28934   6356.56926   -21.52446  0.89268   7948.60214  0.00011  55205.93854  52.43574   1.45229  18.52724  55231.69374 
    14.90496  2.13688  2.61605       1.35173         4632.27476  0.01883  0.02884     0.07286  18.59831     18.80005   6626.32425    -22.2431   0.7867   5980.22551  0.00351   55205.2199  52.20801   1.42466  18.53441  55234.39016 
    14.55835  1.76642  4.78904        3.3425         4101.65483  0.00185  0.15151     0.04076    3.6751     16.53382   4442.71138   -22.60761  1.33177   5691.89545    2e-05  55204.85539  52.00401   0.09639  18.53786  55228.99732 
    14.84185  1.84735  0.75177       1.87856         4548.47469  0.04561  0.09263     0.24187   6.46621     17.75603   8608.01423   -33.07512  0.77498   4401.42564  0.00032  55194.38788  51.84381    2.7549  18.49443  55231.69374 
    14.86815  1.99613  0.87201       3.88098         4012.37228  0.01563  0.05355     0.02951  19.46085     16.51911   5358.70469   -29.05597  0.97274   6111.70561    2e-05  55198.40703  52.23064   1.19269  18.58063  55231.69374 
    14.52058   1.6434  2.61814       0.87608         4660.27346  0.02664  0.07325     0.11897   9.85125     17.84132   3648.18821   -34.22771  1.00772   6288.51805  0.00039  55193.23529  52.19544   1.77085  18.52302  55228.99732 
     14.4346  1.65634   3.0795        1.2645         4095.24966  0.05441  0.18107     0.10036   4.18818     20.56401   6991.11495   -28.14605  1.35563   7666.37617  0.20358  55199.31695  52.27811   2.94444  18.50845  55226.30089 
    14.58919  1.78142  4.11126       2.62437         3969.06264  0.00285  0.06901     0.01959  11.10308     16.12493   3027.01874   -33.16053  0.83419   6475.83154    1e-05  55194.30247  52.23209   0.19459  18.48757  55231.69374 
    14.98158  1.66251  0.79277       4.93006         4300.54261   0.0257  0.03091     0.08796  24.33077     16.62467   5221.20722   -12.14433  0.85767    7285.4162    2e-05  55215.31867  52.40123   2.04476  18.55129  55231.69374 
    14.55695  1.74246  3.19825       1.67191          3769.9825  0.00309  0.18661     0.20048   6.10852      19.7601   6901.57033   -45.79466  0.69986   7110.13074  0.03198  55181.66834  52.25442   0.18392  18.50389  55231.69374 
    14.38878  1.47427  4.00635       1.04779         4791.59431  0.00237  0.17024     0.02293   2.97074     18.59893    5963.7445    -29.1127  1.00186   5873.47334  0.00221   55198.3503  52.00491    0.1163  18.50289  55234.39016 
    14.56205  1.52864  3.63944       2.33855         4008.07979  0.00101  0.10045     0.02394   6.59845      19.6862   6444.14299   -30.27678  0.70225   6215.49638  0.02697  55197.18622  52.14568   0.06131  18.55853  55234.39016 
    14.78735  1.63651  2.04196       4.78908         3826.61402  0.09192  0.09758     0.07362   9.76167     18.33223   4146.20909   -14.31121  1.22672  10053.21232  0.00119  55213.15179  52.60209   6.09899  18.56853  55234.39016 
    14.66265  1.60926  1.94724       1.49976         3991.01035  0.00615   0.0644     0.02727  16.29077     19.98763   3682.28509   -38.08699   0.6231   6680.80805  0.05399  55189.37601  52.29309    0.4533  18.43039  55223.60447 
    14.67739  1.69467  4.41483        1.8411         4307.58823  0.08074  0.16694     0.48473    3.9229     19.16607    8862.1027   -23.62625  0.76156   7496.44871  0.00814  55203.83675  52.25098   4.29286  18.57746  55237.08658 
    14.76039  1.63035  1.35641       4.33034           3796.771   0.1634  0.17732      0.1251   5.42799     19.97059   4840.36078   -15.14437  1.49357  10235.18633  0.05192  55212.31863  52.55822   9.45515  18.58111  55234.39016 
    14.70782  1.46887  1.86945       4.58978         4150.56432  0.05483  0.07045     0.35886   9.21467     19.98677   5681.44036   -13.47563  1.14464   6791.23696  0.05389  55213.98737  52.25588   3.59199   18.6363  55234.39016 
     14.6289  2.06179  4.76698       1.13025         4313.50782   0.0942   0.2287     0.15292   2.36074     16.48123   6383.75809   -28.57988    1.037   6770.87433    2e-05  55198.88312    52.098   4.31631  18.44966  55226.30089 
    14.73056  1.97776  6.46313       3.92265         4262.62111  0.00584  0.10511     0.27322   4.11161     18.31341   4704.90179   -20.98338  0.80809    5319.0892  0.00114  55206.47962  51.95846   0.31436  18.52577  55231.69374 
    14.85114  2.14126  3.99159       1.96234         4283.89819  0.00179  0.11779     0.06096   5.71107     16.49061    4260.8431   -34.60186  0.58977   5559.88863    2e-05  55192.86114  52.03365   0.10477  18.44962  55231.69374 
    14.75931  1.65944  0.90231       3.98254         3701.31831  0.02656  0.02494     0.15524  40.02784     20.28248    5281.1322    -18.0172  1.48114   9998.66234  0.10646   55209.4458  52.71382   2.30442   18.5548  55231.69374 
     14.9422  2.17065  1.13598       3.75926         3773.91585   0.0271  0.03474     0.01327  26.35259     18.80554   7227.67619   -18.62559  1.40365   8236.69673  0.00355  55208.83741  52.51408   2.18745  18.56977  55231.69374 
    14.57776  1.45783   3.5423        4.7458          3878.5296  0.00112  0.14555     0.11448    5.4297     20.02031   6017.55656    -23.7052  0.75412    6873.7224  0.05822   55203.7578  52.21245   0.06487   18.5788  55231.69374 
    14.68937  1.47858   4.0531       3.77081         3925.64476  0.00301  0.13854     0.16378   4.66577     20.53296   6526.41515    -23.3215  0.47537   7368.00283  0.18953   55204.1415  52.25599   0.16732  18.55479  55234.39016 
    14.59511  1.30074  0.81301       1.11641          4270.8947    0.031  0.03571     0.25828  21.04019     20.13905   3253.13844   -26.86539  0.82664   7013.54301  0.07652  55200.59761  52.35657   2.40102  18.45612  55226.30089 
    14.80648  1.92834  3.75886       4.63979         4209.97727  0.00415  0.11333     0.08746   5.52472     20.87375   6613.38588   -24.16218  0.57476   5503.91292  0.41541  55203.30082  52.02129   0.24108  18.49658  55228.99732 
    14.45124  1.68731  6.13911       3.91855         4283.49757  0.00926   0.2161     0.15766   2.63404     16.13033   4611.80881   -22.44633  1.45805   7032.94896    1e-05  55205.01667  52.14574    0.4388  18.47706    55227.507 
    14.57317  1.82062  2.16448       0.47884         5293.13915  0.00125  0.02902     0.03048  26.79029     17.60391   5089.90246   -37.87976  0.98601   6043.32632  0.00022  55189.58324   52.2464   0.10105  18.56148  55234.39016 
    14.46675  1.61076  3.51273       1.69255         4639.39003  0.00207  0.07398     0.07299   8.05512     17.29991   6472.40923   -28.07831  1.32644   5612.04471  0.00011  55199.38469  52.07714   0.13169  18.45813  55226.30089 
    14.59121  1.77778  2.22265       1.73935         4360.40181  0.07127  0.10606     0.03197   6.43867     19.82677   7196.32963   -31.13309  1.49042   5774.28256  0.03728  55196.32991  52.07918   4.30005   18.5413  55231.69374 
     14.6003   1.6034  3.06048       0.94131         4091.82642  0.00806  0.20315      0.0537   3.94311     19.94583   5571.80841   -33.63218   0.6311   7245.92737  0.04904  55193.83082  52.22206   0.42926  18.51359  55231.69374 
    14.57868  1.92474  1.56964       0.97635         4929.69899  0.00133  0.03239     0.16504  27.27783      19.4824   4828.07137   -40.91195  1.43632   5406.52454  0.01687  55186.55105  52.15109   0.10774   18.5661  55231.69374 
    14.86842  1.66765  1.56813       3.81895         4062.31133  0.07085  0.05326       0.056  12.44914      20.5069   6522.34038    -9.71111  1.02054   8796.03975   0.1785  55217.75189  52.50848   4.95032  18.53532  55231.69374 
    14.57088  2.01077  5.02371       2.29774         4165.27615  0.03598  0.10551     0.06506   5.96955     18.19919   3194.75039   -30.53461  1.28203   6269.59491  0.00088  55196.92839  52.14271    2.1313  18.47665  55231.69374 
    14.77969  1.73599  1.76976         4.336         3963.96792  0.03211  0.04736      0.0836  18.38513      18.2256   3746.35756   -21.68942  1.04885   7646.93686  0.00093  55205.77358  52.42059   2.42443  18.56541    55227.507 
    14.71678  1.74718  4.09258       2.04458         4532.97586   0.0096  0.04195     0.32085  13.23129     18.31756   4486.28675   -25.94077  0.67482   5882.92263  0.00115  55201.52223  52.16454   0.67938   18.4985  55234.39016 
    14.44802  1.18572  1.86179       1.72292         4657.27199  0.19351   0.1699     0.05257      2.84     16.51987   4496.21865    -19.5585  1.31057   5967.29101    2e-05   55207.9045  52.01288   9.38418  18.40317    55227.507 
     14.5937  1.68657  5.09872       4.63079         4165.87595  0.04386  0.15786     0.28487    3.3194     16.87329   5704.96101   -24.58107  0.93985   5931.70738    4e-05  55202.88193  52.02743   2.22586  18.56369  55228.99732 
    14.64362  1.71149  4.33519       4.70165         4104.76061  0.00116  0.14384     0.08054   5.43396     19.78688   4806.29215   -23.85686  0.85067   6517.96328  0.03401  55203.60614  52.16637   0.06734  18.55746  55234.39016 
    14.57353  1.61115  4.84684       2.33333         4438.34504  0.06021  0.17245     0.14665   3.38549     18.39157   7963.73926    -23.5878  0.85688   7082.52491  0.00137   55203.8752  52.18388   3.07284   18.5552  55234.39016 
    14.71024   1.7912  3.50291       3.93102         4227.47699  0.00145   0.0557     0.21238  13.81925      16.3048   5369.51724   -28.92474  0.78755   5483.31702    1e-05  55198.53826  52.10728    0.1038  18.54837  55226.30089 
    14.46695  1.63342  2.01285       1.94494         4266.77016  0.00533  0.15537     0.21049   4.19533     20.58663   5634.32974   -30.68438   1.4154     5460.932  0.21447  55196.77862  51.98366   0.28844  18.47728  55228.99732 
    14.92475  1.75936  1.14833       0.59855         4908.76967  0.01489  0.01817     0.02869  38.42393     17.37975   4642.13682   -23.32847    0.603   7290.58538  0.00013  55204.13453  52.43649   1.28341  18.54464  55234.39016 
    14.50965  1.56698  4.12873       3.29941         3882.19237  0.00596  0.10196     0.04843   7.36656     17.03395   5002.71139   -33.31506  0.78819   6572.20245    6e-05  55194.14794   52.2054   0.37106  18.53579  55228.99732 
    14.66726  2.01683  3.25975       1.40812         4508.66784  0.00177  0.11834     0.06674   5.97458     16.31862    5828.3098   -32.19205  1.00957   5602.91767    1e-05  55195.27095  52.04515   0.10482  18.44952    55227.463 
    14.45552  1.33506  2.69663       1.21666         4681.39914  0.00257  0.17869     0.09467   3.57944     17.27658   4622.91784    -34.6169  0.71945   5632.06404  0.00011   55192.8461  51.99164   0.13326  18.49685  55226.30089 
    14.27632  1.49243  5.64866       1.65239         4725.91316  0.04083  0.12339     0.01861   2.97461     17.27726   6636.54642   -26.73528  1.26377   5938.44601  0.00011  55200.72772  52.01463   2.00754  18.47298  55228.99732 
    14.54359  1.18378  4.05776       2.20827         4181.36423  0.17153  0.14169     0.03134    3.8615      19.1666   4547.50931   -21.29769   0.6109   7832.40306  0.00815  55206.16531  52.28719   9.08052  18.49627  55231.69374 
     14.6689  1.32948  2.42151       4.47445         4244.70315  0.09221  0.09621     0.09551   5.81385     19.57684   5926.85854   -16.47858  0.88669    6095.0879  0.02097  55210.98442  52.11538   5.42692  18.46492  55231.69374 
    14.63668  1.89127  4.02919       3.76415         3970.71272  0.00446  0.16159     0.06729   5.29715     20.81235    5805.4515   -27.58545  0.74964   7667.56626  0.36064  55199.87755  52.30469   0.25678  18.57501  55234.39016 
     14.6742   1.8116  4.30726       4.31916         4006.16502  0.17382  0.17034     0.07037   3.47726     20.62916   4690.54986   -16.73351  1.12672   7660.19288  0.23653  55210.72949  52.25527   8.93854  18.52709  55231.69374 
     14.8338   1.6465  1.89399       3.00985         4078.92035  0.03155  0.04897     0.01235  19.97292     19.43831   4464.65943   -28.18442  0.62591   7392.07041  0.01524  55199.27858  52.39798   2.42018   18.5407  55234.39016 
    14.52855   1.7932   3.1992       0.64947         4792.77755  0.00834  0.20915     0.15771   3.70067     19.05645   7723.81737    -39.9328  0.92216    6162.0485  0.00633   55187.5302  52.07378   0.43617  18.49701  55231.69374 
    14.78615  1.73922  1.49186       1.50594          4485.8488  0.02825  0.03242     0.02383  22.77055     16.90791    4989.3246   -26.82993  0.88275   6748.08499    4e-05  55200.63307  52.32941   2.22012  18.43555  55228.99732 
    14.95321  1.77492   1.1523       4.30179         4171.64969  0.04447  0.05629     0.08475  14.25596     18.27396   5848.84083   -14.47244  0.91491   7697.92884  0.00104  55212.99056  52.40467   3.19416  18.52734  55228.99732 
    14.55488  1.51102  4.83154       1.97912         5112.50787  0.00194  0.10992      0.0389    3.1078     18.63185   6338.13058   -19.25655  0.84511   5073.43517  0.00238  55208.20645  51.88345   0.09667  18.35888  55220.90805 
    14.61524  1.59323   2.5283       1.39522         4648.01724  0.09255  0.10329     0.15573   6.09103     18.48152   6180.40207   -19.46094  1.39282   7475.80914  0.00168  55208.00206  52.29768   5.50944  18.56196  55231.69374 
    14.54139  1.70538  5.11734       3.95133         3867.79145  0.02095  0.16277     0.17072   4.04022     20.29909   4984.06825   -22.46045   0.9501   7730.03271  0.11062  55205.00255   52.2811   1.12265  18.54747  55234.39016 
    14.67366   1.3309  1.90089       4.76465         3930.84039  0.04131  0.03977     0.07696  18.10984     17.90808   4787.15553   -15.52355  0.99928   7721.82947  0.00045  55211.93945   52.4278   3.11029  18.53868  55234.39016 
    14.68782  1.99576  3.91337       1.61037         4335.24283  0.02125  0.18589     0.07727    4.3734      18.8412   3360.43183   -31.99732  0.87576   6328.69305  0.00385  55195.46568  52.11655    1.1632  18.35187  55220.90805 
    14.56413  1.24086  1.02602        0.5343         3954.71255  0.04619  0.14124     0.34284   7.08241     18.87214   6453.91906   -34.30224  0.62973   7207.94191  0.00414  55193.16076  52.28161   2.85014   18.4406  55220.90805 
    14.62066  1.32529   4.7957       4.29079         4112.13725  0.00121  0.08913     0.07628   5.91839     20.15188   5046.27708   -23.26041  0.45303   6757.13636  0.07881  55204.20259  52.20685   0.07128  18.48299    55227.507 
    14.33671  1.39125  4.39798       2.68606         4106.26855  0.02445  0.12011     0.02543   5.20003     16.80471   4634.33654   -25.13916  1.48057   6689.87119    4e-05  55202.32384  52.18419   1.39986  18.55458  55231.69374 
    15.02414  2.08259  2.96554       0.77605         4866.71016  0.08771  0.14944     0.11703   3.83122     19.75196   4587.83071   -32.08844  0.39585   5719.47987  0.03138  55195.37456  52.01318   4.63318   18.4528  55226.30089 
    14.62501  1.81485  2.46834       0.85349          4610.5934  0.02884  0.09753     0.08457   7.47802     16.42715   7279.25389    -36.4506  0.89215   5850.68363    1e-05   55191.0124   52.1059   1.80254  18.51392  55231.69374 
      14.567   2.0147  5.94268       1.05801         4820.91734  0.00233  0.25849     0.07085   1.62118       16.512   5799.84956   -25.94306  0.99739   6754.47222    2e-05  55201.51994  52.04106   0.09402  18.41883  55218.21163 
     14.4599  1.37875  3.92311       3.85308         3722.69588  0.10187  0.14109     0.14382   5.29626     19.55619   5677.81794   -20.45046  1.17114   8783.93456  0.01999  55207.01254  52.42273   5.85809  18.56136  55231.69374 
    14.61289   1.9121  4.06639       2.37311         4625.28178  0.00808  0.06992     0.25882   6.47191      17.9258   5391.80778    -25.0321  1.50309   4478.12569  0.00047   55202.4309  51.85891   0.48788  18.48642    55227.507 
