 texplosion  fnickel    Pspin  log(Bfield)      Mns  thetaPB   mejecta    kappa  kappagamma      vejecta  temperature    alpha  cutoff_wavelength  log(nhhost)      A_V         MJD0   kenergy  mnickel           TSD   log(L0)  Peak_mag     Peak_MJD  log(E_rad)  log(Peak_lum)  Rise_Time    E_fold  tau_1  delta_m15     r_peak     frac 
  -21.26365  0.00114  3.28515     14.67115    1.875  1.54711    12.093  0.05364     0.04095   6190.19358   6391.84728  3.16157         4376.94726     18.40286   0.0014  55206.19935    2.7642  0.01382   85432.55126  46.57711  18.53828  55232.79161    50.48603        43.8805   17.03941  33.33219   33.0    0.32696  -20.68108  0.99938 
  -17.36609  0.01247  1.38582     14.74641  1.63853   1.1759  26.34573   0.0325     0.18734   8045.83263   5131.94172   2.9324         4294.85384     19.44724  0.01556  55210.09691  10.17371  0.32861    9394.16386  48.22703  18.54409  55230.49467    50.45697       43.83961   17.03941  35.00299   32.5    0.26272  -20.72188  0.99905 
  -17.96255  0.01592  1.54778     14.81383  1.75471  1.11389  17.94202  0.05598     0.01794    8019.7637   5416.26103  4.87115         4140.70791     19.33093   0.0119  55209.50045    6.8837   0.2856    9199.72659  48.16986  18.55824  55230.49467    50.56227       43.91333   15.70429  37.29768   35.5    0.30903  -20.63044  0.99901 
  -24.10122   0.0012  3.32345     14.81135  1.66591  0.53015   10.4026  0.05593     0.17463   5481.52429   5837.38157  2.89638         4592.40711     20.40325   0.1406  55203.36178   1.86454  0.01245   40733.32557  46.83737  18.56487  55232.79161    50.53281       43.89839   11.77822  37.29768   35.0    0.28606  -20.58567  0.99926 
  -28.27158   0.0025  1.22486     14.74707  1.90529  1.10063   14.7307  0.10157     0.01628   9300.49807   4909.42464  2.57322         3984.09191      17.3967  0.00014  55199.19142   7.60086  0.03682     8507.7895  48.44282  18.51808  55235.08856     50.5307       43.96153   15.07638  30.07345   34.5    0.29999  -19.75812  0.99993 
    -27.644  0.00113   1.8624     14.78357  2.07948  1.09921   8.43668  0.15609     0.02114   8657.92336   5635.33176  2.76854         4104.16131     16.52192    2e-05    55199.819   3.77247  0.00952   18145.86853  47.78788  18.56889  55232.79161    50.50623       43.90649   17.66732  33.37161   35.5    0.29147  -19.92119  0.99993 
  -18.62121  0.04825  1.02029     14.78853  1.73335  1.41171   7.46857  0.12287     0.01347   7802.58277   6229.73536  4.35127         4219.93599      17.5764  0.00021  55208.84179   2.71232  0.36034    4437.07091  48.84319    18.548  55230.49467    50.47257       43.84409   13.74125  37.29768   34.5    0.26738  -21.73682  0.99977 
  -24.49296  0.02751  3.70557     14.64857  1.88606  1.21024    6.0473  0.17283     0.09588   9274.86901   4913.46264  3.46962         3828.26647     16.05316    1e-05  55202.97004   3.10316  0.16637  121321.14664  46.32275  18.55505  55232.79161    50.54708       43.94435   11.18791  34.96539   33.5    0.31418  -20.46082  0.98997 
  -15.01451  0.00447  1.82988      14.8292  1.68666  0.94203  22.07846  0.02938      0.4588   6368.93107   6568.40944  3.80856         4357.05225     19.51876  0.01834  55212.44849   5.34231  0.09875   11515.56936  47.90974  18.56761  55232.79161    50.45676       43.84882   15.70429  34.37508   31.5    0.30137  -20.62601  0.99928 
  -16.39871  0.00828  2.92585     14.75629  1.67826  0.94935  13.14851  0.05713     0.42958   7065.76992   5865.52281  4.65308         4311.41358     19.90406  0.04454  55211.06429   3.91582  0.10882   40982.40383   46.9486  18.57125  55232.79161    50.66061       44.04625   13.74125  37.45579   33.5    0.30769  -20.76622   0.9958 
  -14.52465  0.03435  2.74236     14.99552   1.8745  0.63503   7.38181  0.11399     0.02475   8736.53657   5590.42284  3.51935         4365.27879     19.74037  0.03056  55212.93835     3.361  0.25358   13363.31175  47.53957  18.49681  55228.19772    50.54496       43.89585   17.66732  39.26072   31.0    0.32363  -20.75347  0.99391 
   -26.6715  0.00134  2.38507     14.65551  1.54777  0.79877  11.21355  0.09737     0.01609   7909.97855   5580.00961  3.59131         4097.07344     16.45583    2e-05   55200.7915   4.18524  0.01499   39948.51802  47.10205  18.57587  55232.79161    50.57839       43.95375   15.70429  35.33465   35.0    0.29419  -20.16513  0.99954 
  -15.55595  0.01623   1.0363     14.77832  1.56134  1.02123  11.63645  0.08335      0.1056   8055.02287   5819.26401  4.94276         4141.06872     19.98844   0.0541  55211.90705   4.50382  0.18886    4321.49689  48.79574  18.55889  55230.49467    50.52353        43.8814   13.74125  38.26355   33.0    0.31705  -20.56504  0.99982 
   -29.3605  0.00415  1.73386     14.57404  1.61123  1.17655  21.74696  0.04517     0.19465   7210.57382   5107.52961  1.86613         4446.81587     17.66944  0.00026   55198.1025   6.74474  0.09015   31983.29463  47.49305  18.55744  55232.79161    50.57825       43.98043   13.74125  35.33465   35.5    0.27391   -19.9426  0.99895 
  -21.63209  0.01989   3.0201      14.6479  1.70528  1.20293   7.56099  0.09295     0.03397   6653.37456   5823.08481  2.78205         4484.31016      16.6611    3e-05  55205.83091   1.99659  0.15037    73088.4865  46.67675  18.62618  55235.08856    50.46733       43.84393   13.74125  35.33465   33.5    0.30322  -20.61354  0.99348 
  -18.01805  0.01764  0.80758     14.82975  1.82485  1.42518  14.30478  0.06493     0.40017   7128.40741   5902.95696  4.67376         4159.35375     19.56504  0.02041  55209.44495   4.33604  0.25237    2420.54841  49.33179  18.60593  55232.79161    50.50461       43.89124   11.77822  37.29768   36.5    0.30583   -20.4681  0.99995 
  -17.06334  0.01358  0.99198     14.82869  1.56107  0.82553   12.6004  0.10693     0.06406  10558.47769   5577.61124  4.42233         3769.09973      16.9733    5e-05  55210.39966   8.37942  0.17113    3139.46683  48.97241   18.5449  55232.79161    50.45793       43.86042   11.77822  34.37508   32.5    0.28311  -20.48736  0.99985 
  -23.83912  0.00779  1.76103     14.85595  1.81275  0.76414  17.05849  0.07009     0.03466   8532.91791   5133.10655  4.48004          4019.8821     17.34757  0.00012  55203.62388   7.40906  0.13296   10133.95019  48.02987  18.59484  55235.08856    50.45881       43.86615    11.1503  33.99952   35.0    0.29673  -20.17613  0.99904 
  -17.85455  0.00971  1.66522     14.84714  1.91558  1.10723  23.68412  0.04063      0.2645   8533.50766   6094.13446   2.9652         4187.31414     17.45928  0.00016  55209.60845   10.2882  0.22992    9972.11051  48.10941  18.49757  55230.49467    50.50942       43.89192   11.77822  38.30115   33.0    0.33954   -20.7089  0.99909 
  -23.00775  0.00198  2.78246     14.68116  1.84051  1.38737   7.90867  0.09861     0.01296   6230.88136   6184.39039  4.11074         4304.89782     18.54829  0.00196  55204.45525    1.8316  0.01567   57451.15143  46.88563   18.5471  55228.19772    50.73327       44.06837   15.70429  41.22375   35.0    0.28424  -20.40264  0.99952 
  -24.75168  0.00586  3.16219     14.79524  1.88911   0.7796   5.40603  0.16029      0.0431   7143.30673   5618.82861  3.95427         4096.75146     19.52146  0.01846  55202.71132   1.64552  0.03169   45037.13738  46.89156  18.54165  55232.79161     50.4144       43.81141   13.74125  34.02815   34.5    0.28645  -20.36546  0.99867 
  -13.47224  0.03454  1.11074     15.14911  2.00152  0.61986   8.88711    0.111     0.08107   9657.15106   5865.40671   4.0891         4148.84781      16.3992    1e-05  55213.99076   4.94408  0.30698    1153.94758  49.41679  18.60243  55235.08856    50.41292       43.80716   13.74125  34.81013   30.5    0.32468  -20.57851  0.99985 
  -32.74437  0.00146  3.64932     14.52894  1.77887  1.11732   7.86686  0.10849     0.01012   6812.13385   5504.10532  2.36699         4382.65522     16.09226    1e-05  55194.71863   2.17768   0.0115  192531.05638  46.11006  18.53039  55230.49467    50.60914       43.95913   13.74125  39.26072   33.5    0.28859  -20.21743  0.99924 
  -23.23706  0.00608  2.25982     14.74536  2.02451  1.22459   8.35558  0.11699     0.06623   8604.10058   5924.66366  1.64613         4429.16023     17.71785  0.00029  55204.22594    3.6899  0.05077    31014.2134  47.37546  18.52271  55230.49467    50.65954       44.01207   13.74125   39.4231   32.0    0.31868  -20.37933  0.99927 
    -15.093  0.00218  1.77424     14.82401   1.7202  0.92998  10.41004  0.10341     0.23275   8761.06309   5293.65702  4.36565         4135.15267     16.10292    1e-05     55212.37   4.76643   0.0227   11308.29886    47.953  18.51014  55230.49467     50.4982       43.87898   17.03941  33.99952   34.5    0.23467  -21.12584  0.99985 
  -15.52861  0.00359  0.84108     14.75527  1.41652  0.96445  45.84714  0.02211     0.04047   8089.96589   5471.67906  4.47154         4286.07274      16.7336    3e-05  55211.93439  17.89917  0.16461    2871.95728  49.11222  18.54231  55230.49467    50.56393       43.92229   17.66732  38.26355   33.5    0.27955  -20.48322  0.99992 
  -27.08867  0.00545   0.8988     14.71355  1.52014  0.81203   9.96405  0.13226     0.08659   8868.44154   5266.78853  1.71416         4240.81154     18.78797  0.00341  55200.37433   4.67474  0.05431    4265.15577  48.91346  18.58398  55235.08856    50.48111       43.87913   13.11334  33.99952   35.5    0.31118  -19.76468  0.99995 
  -17.35843  0.00138  1.17648     14.68664  1.43581  1.03616   5.35423  0.17394     0.38142   7627.43441   6175.90479  3.71162         4385.11388     16.77554    3e-05  55210.10457   1.85815  0.00741    7812.66953  48.39198   18.5452  55230.49467    50.57368       43.94813   11.77822  37.29768   31.5    0.28895  -20.75637  0.99998 
  -15.29487   0.0053  2.51829     14.62571  1.59771  1.31747   9.89617   0.0825     0.02555   7869.19401   6424.34584  4.63568         4189.06235     20.42092  0.14644  55212.16813   3.65557   0.0525    52735.4007  46.94803   18.4961  55230.49467    50.50051       43.89126   13.74125  36.63036   32.5     0.3096  -20.90537  0.99845 
  -13.94971  0.04203  1.52823     14.80128  1.66458  1.21836  10.80129  0.07817     0.04209   8686.11533   4882.43236  4.89704         4064.97984     19.55752  0.02006  55213.51329   4.86132  0.45396    9014.21281  48.16685  18.53629    55227.463    50.66987        44.0119   21.59339  37.45494   31.5    0.31369  -20.67089  0.99854 
  -36.99116  0.00336  2.30121     14.43144  1.44471  1.04176   8.40341  0.13117     0.01468   7070.86239   5455.63652  3.39307          3790.9784     18.70698  0.00283  55190.47184   2.50627  0.02826   97418.02211  46.71607   18.5839  55232.79161    50.52619       43.91135   13.74125  34.73227   37.5    0.26561  -19.86452  0.99903 
  -24.58575  0.00141  2.58626     14.51881  1.38003  1.02289  11.19092  0.06714     0.32307   6450.85077   6174.07983    3.669         4346.50591     17.95537   0.0005  55202.87725   2.77797  0.01582   78599.80763  46.68797  18.54205  55232.79161    50.46998       43.84463   17.66732  34.33748   34.5    0.29974   -20.3756  0.99929 
  -21.38767  0.00275  0.73392     14.84126  1.95324  1.23734  26.05743   0.0629     0.03588  10518.41517   4898.71971  4.28317         3750.78642     16.80482    4e-05  55206.07533  17.19727  0.07158    2029.32242  49.52096  18.53455  55230.49467    50.52829       43.86476   13.74125  39.91725   34.0    0.26661  -20.23775  0.99999 
  -19.81564   0.0491  1.48541     14.67365  1.57515  1.44507   6.94212   0.1333     0.03658   7748.59865   5929.79915  3.99065         4084.45783     19.11971  0.00732  55207.64736   2.48637  0.34086   14505.28944  47.96095  18.54338  55230.49467    50.50332        43.8694   13.74125  36.33812   35.5    0.29071  -20.75781  0.99848 
  -22.51408  0.03948   4.4852     14.65842  1.95653  1.42873    5.9549  0.11516     0.01085   6715.42194   6214.51848  3.20395         4410.13243     16.26211    1e-05  55204.94892   1.60195  0.23508  176204.71071  46.01075  18.57766  55232.79161     50.4323       43.80709   15.70429  37.29768   32.5    0.29912   -20.6369  0.98017 
  -21.53624  0.00317   2.7139     14.89332  1.98804  0.80525  21.62122  0.03706     0.08027   6679.15167   5975.39391  4.28601         4281.62811     16.62694    2e-05  55205.92676   5.75374  0.06848   22221.86583   47.3533  18.50197  55228.19772    50.51813       43.90499   13.74125  37.29768   34.0     0.2727   -20.6111  0.99841 
  -22.11832  0.00244  0.98117     14.98006  1.96477  0.72575  26.08694   0.0424     0.04363   7994.13704   5712.80479  2.73274         4170.18263      18.9152  0.00457  55205.34468   9.94474   0.0637    1925.25545  49.29418  18.57322  55232.79161    50.48159       43.85606   13.15094  33.96192   34.5    0.27539  -20.12529  0.99997 
  -24.19454  0.02482  1.85315     14.86969  1.83256  0.70856   9.12427  0.11992     0.07017   8886.46312   4881.18965  3.35274         3957.79044     19.69663  0.02763  55203.26846   4.29817  0.22647   10649.10186  47.96877  18.57049  55232.79161    50.49257       43.87684   11.77822  38.26355   34.0    0.30942  -20.25126  0.99799 
  -15.41902    0.003  1.78115     14.80474  2.00245    1.426  33.40911  0.02105     0.02439   6678.46965     6515.208  4.71417         4235.57633     20.62322  0.23332  55212.04398   8.88886  0.10024   14497.71498  47.90771  18.56454  55228.19772    50.50377        43.8561   13.74125  40.22658   32.0    0.34327  -20.94874   0.9995 
  -17.78009  0.00687  1.68889     14.86198  1.80083  0.91469   23.3722  0.03817     0.01581   7678.60965   5877.78276  4.34051         4232.41354     18.03997  0.00061  55209.68291   8.22038  0.16054    9005.89871  48.11459  18.53736  55230.49467    50.51753       43.89161   13.74125  36.33812   34.0    0.30423  -20.86401  0.99922 
  -13.96931  0.01121  1.08604     14.75083  1.58665  1.25815   7.39982  0.14885     0.22773   9126.66478   5978.49241  4.67614         4117.37622      19.2136  0.00909  55213.49369   3.67682  0.08293    5474.23239  48.65931  18.56456  55228.19772    50.72683       44.06515   19.63036   39.4231   32.5    0.29487  -20.56935  0.99991 
  -18.15332  0.01406  1.04771     14.70576  1.52494  1.12132  11.71399   0.0794      0.0465   7919.70528   6033.99115  3.34239         4307.66277     19.95472  0.05005  55209.30968   4.38278  0.16475    6025.98174  48.63159  18.56088  55230.49467    50.45056       43.84481   13.11334  35.96256   33.0    0.25149  -21.25644   0.9998 
  -19.72305  0.00636   3.5803     14.83679  1.99441  0.89516   15.4025  0.04378     0.08006   6207.29778   5483.46112  4.85088         4205.62288     19.90144  0.04428  55207.73995   3.54016  0.09796   50337.15275  46.75893  18.58627  55232.79161    50.43823       43.81181   11.77822  37.65258   33.5    0.29309  -20.81717  0.99522 
  -22.15858  0.00933   1.8732      14.6037  1.53957  1.37525  17.68766  0.05381     0.03606   7232.77736   5227.92722  3.09007         4359.72486     18.13197  0.00075  55205.30442    5.5196  0.16504     31116.348  47.41809  18.50832  55232.79161    50.44041       43.83485   15.70429  32.37444   35.0    0.27382  -20.36547  0.99784 
  -31.07948  0.00234  1.49554     14.64455  1.82873  1.23813  33.16272  0.02868      0.0243   7233.97707   5480.33247  1.28292         4875.29327     17.13347    8e-05  55196.38352  10.35217  0.07771   19518.63107  47.89095  18.54829  55235.08856    50.43413        43.8404    9.81518  34.37508   35.5    0.29226  -19.86719  0.99959 
  -17.78645  0.00124  1.43056     14.78629  1.69181  0.94343  16.30698  0.10036     0.01208  10796.36574   5733.98104  4.59406         3998.71181     16.23937    1e-05  55209.67655   11.3385  0.02021    8602.05503  48.25158  18.53431  55230.49467    50.52041       43.89679   13.74125  38.26355   34.0    0.27272  -20.80008  0.99993 
  -34.34324  0.01577  0.79724     14.60185  1.52317  1.14238  15.04218  0.10305     0.01833   8264.44456   4708.42616  4.37648         4033.84747     16.31847    1e-05  55193.11976   6.12866   0.2372    5623.93043  48.89838  18.55845  55230.49467    50.47174       43.85336   13.74125  36.33812   42.0    0.26856   -19.3793  0.99985 
  -16.97304   0.0019  1.73709     14.63206  1.56079  1.44275   8.43439  0.16586     0.20375  11034.76971   5433.12341  3.90908         4022.08951     16.79172    3e-05  55210.48996   6.12643  0.01603   23805.27072  47.60587  18.53433  55232.79161    50.58905       43.95422   11.77822  37.29768   31.5    0.31361  -20.73205  0.99985 
  -36.15393  0.00189  0.92069     14.68475  1.97189  1.39062  32.82201  0.02746     0.11206   5929.95611    5172.6386  1.48501         4857.70766     19.29575  0.01098  55191.30907   6.88486  0.06199    6628.85259  48.81406  18.53844  55230.49467    50.48715       43.87059   11.77822  38.26355   38.5    0.26517  -19.49695  0.99996 
  -24.02123  0.02066   0.8161     14.80337  1.77139  1.06067  15.32338  0.06631     0.02288   7699.71664   5766.83692  3.27551         4086.12704     19.56389  0.02035  55203.44177   5.41915  0.31658    2709.33906  49.26081  18.54287  55235.08856    50.55374       43.99617   11.77822  31.40857   38.0    0.27231  -19.92539   0.9999 
  -19.72818  0.00153  0.79215     15.09334  1.84092  0.53311  10.85781  0.11759     0.21471   8679.70994   5302.55221  4.53806         4079.14765     17.07293    7e-05  55207.73482   4.87955  0.01662      697.8837  49.89248  18.52994  55228.19772    50.53829        43.9065   13.74125  38.65834   35.0    0.27937   -20.9296      1.0 
  -21.68318  0.00559  1.26291     14.67201  1.46873  1.08479  31.80449  0.02951     0.17889    6846.2373    5182.9888  4.62427         4198.67613     17.27704  0.00011  55205.77982   8.89241   0.1777    9851.06393  48.23956  18.55112  55230.49467    50.54085       43.91232   17.66732  37.29768   36.0    0.25432  -20.32495  0.99946 
  -25.54869  0.00127  3.25193     14.62327  1.82038  1.36009   10.0823  0.08636     0.08142   6826.17958   5167.22404  4.16499         4185.63866     17.33418  0.00012  55201.91431   2.80248  0.01284  101325.42753  46.49901  18.47966    55227.463    50.47896       43.84437   15.70429  38.26355   35.5    0.28775   -20.3027  0.99939 
  -24.84137  0.00816  3.22253     14.37973  1.35156  1.44703   4.94041  0.14166     0.05911   6702.58455   4868.19184  2.88345          4372.7711     17.28024  0.00011  55202.62163   1.32396   0.0403  226774.70253  46.02769  18.53429  55232.79161    50.43603       43.81988   15.70429  33.37161   34.0    0.30631  -20.50226  0.99688 
  -20.14901  0.01182  2.73141     14.72667   1.7449  1.02446   7.86989  0.12475     0.35566   8457.73524   5702.77045  3.90527          4107.1916     18.34084  0.00122  55207.31399   3.35818  0.09305   42561.91464  47.00882  18.53297  55230.49467    50.60175       43.91582   13.74125  40.22658   32.5    0.27676  -20.79577  0.99709 
  -14.88623  0.00153  1.03658     15.04369  1.99361  0.70089  17.35881  0.08858     0.29883  11200.76268   5137.25008  4.49116         3997.16705     19.92111  0.04633  55212.57677  12.99099  0.02655    1626.59193    49.326  18.57662  55235.08856    50.45285        43.8666   11.77822  32.70428   32.0    0.32229  -20.66744  0.99999 
  -16.38914  0.00551  2.89092     14.80406  1.92698  1.25434  17.48679  0.04318     0.25571   6758.07754   6151.44095  4.70163         4398.27711      17.6374  0.00024  55211.07386   4.76413  0.09632   36867.31262  47.06501  18.60777  55232.79161    50.63829        44.0162   13.74125  39.26072   34.0      0.301  -20.74684  0.99742 
  -27.74021  0.00125    0.707     14.63425  1.53969  1.21305  14.69675  0.06982     0.35553   6931.47184   5681.49898  2.31958         4447.73936     19.56603  0.02045  55199.72279   4.21211  0.01836    3851.21807  49.17184  18.48795  55228.19772    50.51886       43.87914   17.66732  34.66732   36.0    0.28189  -19.62396  0.99999 
