 texplosion  fnickel    Pspin  log(Bfield)      Mns  thetaPB   mejecta    kappa  kappagamma      vejecta  temperature    alpha  cutoff_wavelength  log(nhhost)      A_V         MJD0   kenergy  mnickel            TSD   log(L0)  Peak_mag     Peak_MJD  log(E_rad)  log(Peak_lum)  Rise_Time    E_fold  tau_1  delta_m15     r_peak     frac 
  -30.70784  0.11978  1.51515     14.43977  1.70943  0.93323   7.65472  0.09256     0.01474   5711.30551   7057.02427  1.54764         3092.53208     18.05368  0.00063  58630.71404   1.48946  0.91691    48089.18121  47.45874  20.39464  58677.27937     51.0381       44.39005   18.25371  36.50742   44.5    0.20065   -20.9897  0.99033 
   -26.5549  0.16759  2.27594     14.32908  1.62751  0.89739    5.3584  0.07642     0.09251   7134.99876   4834.72862  0.66385         2959.34007     16.16449    1e-05  58634.86698   1.62723    0.898   171988.81004  46.53055  20.30764  58677.27937    51.00623       44.46356   17.46092  26.36647   44.5    0.30296   -21.0521  0.97409 
  -31.34293  0.00245  2.84849      14.3127  1.97536  1.24816    6.7851  0.06455     0.01552   5005.71041   3166.00752  1.61467         3118.32442     19.87005  0.04119  58630.07895   1.01418   0.0166   352603.40526  46.10798  20.31814  58678.46484    51.38679       44.85865   14.19733  26.36647   46.0    0.21732  -21.01804  0.99942 
  -16.19673  0.01422  1.79652     14.69328  1.33664  0.33553  21.54925  0.01432      0.0284   3108.78495   4500.16159  3.65293         3203.74744     19.38366  0.01344  58645.22515   1.24234  0.30647    16449.18717  47.66985  20.36281  58677.27937    51.34361       44.69582   16.22552  38.53561   40.0    0.23079  -20.95484  0.99275 
   -25.6244  0.09773  1.50595     14.55007  1.79023  0.73694  23.86747  0.02535     0.29832   8592.77115    9129.3363  0.37379         2999.21355     18.01498  0.00058  58635.79748  10.51236  2.33261    29937.15953  47.68992  20.31843  58680.28312    51.02925       44.32961   18.25778  43.80971   34.5    0.28054  -21.20518  0.97814 
  -23.96388  0.00274  0.78495     14.29984  1.33942  0.95902   6.15926  0.19234     0.02089    7581.9818   7507.33553  2.84611         2472.02822     17.12101    7e-05  58637.45799   2.11213  0.01688    19263.54773  48.32134  20.26197  58678.46484    51.02188       44.35806    24.2387  33.00651   38.5    0.17297  -21.10105  0.99996 
  -32.35943  0.12773  1.94215     14.22112  1.56045  0.90473    9.6896  0.04042     0.01908     6255.989   7087.68033  0.28792         5006.14882     17.03183    6e-05  58629.06245   2.26217   1.2377   197420.85417  46.59013  20.27985  58677.27937    51.26932       44.68805   12.16914  34.47923   52.0    0.25998  -21.09613  0.97228 
  -31.36269  0.03141  0.93286     14.75061  1.69298  0.34366  12.29734  0.09264     0.05026   5594.19595   9046.64309  4.01662         2222.52057     19.33615  0.01205  58630.05919   2.29569   0.3863     4314.00172  48.92299  20.38242  58670.44922    51.22954        44.4814   28.39466  42.59199   46.0    0.11973  -20.94251  0.99877 
   -36.5544  0.12995  2.76258      14.2932  2.06685  0.88598   3.82873  0.19626     0.01548   6594.85566   6174.14404    1.516         2261.03145      20.1767  0.08345  58624.86748   0.99333  0.49754   379628.58534  46.12217  20.34193  58677.27937    50.98638       44.27775   22.31009  42.59199   42.5    0.19531  -21.17073  0.98484 
  -20.16959  0.00166  1.74571     14.31969  1.46438  1.07459   33.5105  0.01548     0.07373   5291.38544   8945.44346  2.19602         3367.41243     16.66969    3e-05  58641.25229   5.59689  0.05574    95069.25184  46.97252  20.31387  58677.27937    51.54239       45.09172   11.37635  22.31009   37.5    0.25111  -21.05158  0.99893 
  -21.17969  0.00155  1.13088     14.45573   1.3295   0.6058  23.88299  0.04291     0.48916   6996.05219   7859.48454  2.30131         3254.07851     16.13857    1e-05  58640.24219   6.97304  0.03708     19358.7719  47.99883    20.253  58683.28687    51.19611       44.54612   16.68142  38.53561   41.0    0.17344  -21.19509  0.99971 
  -65.51352  0.02037  0.78708      14.6177  1.71081  0.30967  17.99923  0.05662      0.0386    4422.1125   8988.47806  0.29621         2184.21436     16.33114    1e-05  58595.90836   2.09962  0.36664     5723.39109  48.95235  20.30258  58678.46484    51.16605       44.56362    20.2819  31.18469   53.5    0.11535  -20.35535    0.999 
  -19.77129  0.01187  0.90755     14.60289  1.81599  0.61706  17.54492   0.0195     0.02773   4584.04689    4663.5422  1.01363         3801.93589     18.89596  0.00437  58641.65058   2.19926  0.20829     8647.47394  48.67533  20.34143  58678.46484    51.32772       44.66657    20.2819  36.50742   36.5    0.29908  -21.10668  0.99954 
  -39.24244  0.08663  1.29454     14.31668   1.8085  0.75624    9.9995  0.06787     0.44456   6017.29592    6006.5286  0.09929         3195.90372     19.89193  0.04332  58622.17943   2.15977  0.86623    65464.35675  47.48593  20.23668  58680.28312    51.07185       44.47015   19.47549  32.45104   56.5    0.17316  -20.98474   0.9932 
  -19.19587  0.04858   1.1936     14.46514  1.83422  1.43765   3.83565  0.27145     0.20145   11384.4553   7121.72578  1.54273         2280.28954     19.68578  0.02695    58642.226   2.96545  0.18634    28491.38002  47.92387  20.27485  58680.28312      51.269       44.70283   16.22552  31.14344   29.0    0.34836  -21.35067  0.99925 
  -32.40745   0.0035  2.98342      14.2722  1.86786  0.93928  15.35446  0.02206     0.05341   5445.05359   7881.48097   0.6988         4193.89074     18.85558  0.00398  58629.01442    2.7156  0.05368    440750.5751  45.94657   20.3244  58678.46484    51.05605       44.45585   14.19733  34.47923   49.5    0.25161  -21.07799  0.99775 
  -22.93152  0.28596   1.8523     14.69059  2.03083  0.65847  11.40145   0.0244     0.04588   4381.96096   6368.25097  1.22588         3787.83859     18.55918  0.00201  58638.49035   1.30594  3.26034    26898.04359  47.61138  20.32308  58678.46484    51.48494       44.94613   14.65323  26.36647   68.5    0.26819  -20.99847  0.96103 
  -26.97385  0.05257  2.06751     14.70108  1.62188  0.40117  11.17982  0.06118     0.07825   7175.33893   3236.54442   1.7893           2827.338     19.18945  0.00859  58634.44803   3.43358  0.58769     25501.3723  47.44141  20.28965  58680.28312     51.1651       44.48564   22.94302  34.98534   41.0    0.25083  -21.06544   0.9861 
  -36.95651  0.08718  1.31522     14.13495  1.51742  1.36502   4.70901  0.32687     0.06138   8218.26937   6371.05236  1.28072         2313.21773     19.68594  0.02696  58624.46537   1.89722  0.41053   130925.98878  47.09493  20.30595  58677.27937    51.01112       44.35254   15.63835   36.3018   45.0    0.16516  -21.04848   0.9957 
  -34.98902  0.00126  2.18763     14.29255   1.7039  0.82182   5.28151  0.11448     0.02116   6065.38187   7386.98963  0.89669         2783.98367     18.06739  0.00065  58626.43286   1.15905  0.00664    196838.4749  46.52623  20.35239  58674.27562    51.11224       44.46205   23.12056  31.64057   44.0    0.20416   -20.9793  0.99983 
  -24.54907   0.0023   3.3622     14.17956  1.60884  0.89427   4.48782  0.06525     0.02711   6497.40708   5569.97223  1.58292          2647.0642     16.56896    2e-05   58636.8728   1.13017  0.01034   738662.27984  45.55367   20.2859  58680.28312    51.16834       44.59048   16.22552  30.42285   51.5    0.27889  -21.05268  0.99931 
  -24.43359  0.00274  1.77969     14.13059  1.56981  0.84297  27.01544  0.01044     0.06892    5471.0933   3308.67868  1.22768         2592.95555     20.67645  0.26374  58636.98828   4.82378  0.07393   253028.83041  46.56084  20.28748  58678.46484    51.07057       44.46139   19.71556  33.01738   58.0    0.26401  -21.29788  0.99857 
  -25.76202  0.13718   1.6041     14.40852  1.60985   0.8505  29.12061  0.02435     0.02209    6164.3855   9946.90403  3.84664          2254.0055     19.93557   0.0479  58635.65985   6.60096  3.99471    58616.23537  47.29715  20.31983  58680.28312     51.1351       44.44942   22.31009   40.5638   52.5     0.1436  -21.11557  0.94753 
  -29.63873  0.08727   3.5169     13.88592    1.413  1.06915   5.87587  0.02793     0.01719   5863.88589   5676.55065  1.89468         2485.65249     19.21231  0.00906  58631.78314   1.20523  0.51277  2744283.60102  44.88824  20.35092  58677.27937    51.30852       44.67794   19.33832  35.19982   76.5    0.19782  -20.94967  0.95557 
   -35.5429  0.00669  2.23733     14.33822  1.81314  0.90306   6.86887  0.13742      0.0193   5833.01441   5464.99431  2.64941         2606.74996     16.69063    3e-05  58625.87898   1.39412  0.04596   177530.12577  46.57855  20.36843  58677.27937    51.27109       44.70617   16.22552  28.39466   48.5    0.15037  -20.90807  0.99888 
  -33.91787  0.09927  1.59605     14.18278  1.68308  1.07778  16.57329  0.02176     0.08583    5755.2145   3281.93566  0.22536         3309.36323     19.84848  0.03919  58627.50401   3.27461  1.64529   171570.97207  46.85442  20.33828  58678.46484    51.31915       44.72593   16.22552  32.45104   68.0    0.21655  -20.98768  0.97789 
  -31.60134   0.0017  1.60213     14.29122  1.77638  0.67622  25.57855  0.01288     0.02668   6047.97815   5724.25041   0.0681         2221.41016     19.93283   0.0476  58629.82054   5.58115  0.04351   110737.90742  47.06469  20.35206  58680.28312    51.32008       44.70715   18.25371  32.45104   60.5    0.24006  -21.09467  0.99944 
  -26.92347  0.00292  2.96226     14.24951  1.82329  0.98443   5.18442  0.06552      0.0259   7273.23126   7109.37527  0.92768         2580.08181     20.16319  0.08089   58634.4984     1.636  0.01512   470866.52376  45.91356  20.23974  58680.28312    51.20887        44.6016   19.52008  29.61238   45.5    0.29816  -21.15471  0.99935 
  -33.16418  0.00105  1.33352     14.23452  1.79616  1.08855  12.68845  0.04148     0.02508   6396.18997   5309.27759  0.71209          2311.3102      20.4916  0.17232   58628.2577   3.09655  0.01337   100721.35855  47.27007  20.27935  58678.46484    51.08908       44.45665   20.03434  36.50742   46.5    0.22771  -21.13899  0.99989 
  -33.10757  0.02316  2.82207     14.15939  1.86193   1.4298   3.22228  0.14492     0.01206   7420.08689   7153.97682  0.12709         4221.85561     17.40679  0.00014   58628.3143    1.0583  0.07461    660901.6725  45.81753  20.34083  58677.27937    51.34032       44.68396   18.25371  36.50742   33.0    0.35398  -21.11467  0.99719 
  -35.12371  0.00576  2.77176     14.64868  2.10641  0.37491   8.13893  0.05171     0.01271   5003.15605   7794.85644   1.5696         2454.32869     20.27071  0.10362  58626.29816    1.2153  0.04685    75773.78794  46.82736  20.26999  58680.28312    51.11145        44.4532    20.2567  32.93214   55.5    0.18718  -20.99784  0.99858 
  -21.87351  0.00386  2.42718      14.2673  1.47521  1.01126  33.43834  0.01176     0.01508   3876.91821   3377.19499  3.01123         3298.98921     16.40159    1e-05  58639.54837   2.99809  0.12892   235654.53975  46.29522  20.35283  58674.27562    51.39989       44.82487   16.22552  30.01603   43.0    0.21444  -20.99081  0.99497 
  -29.35323   0.0866  3.07617     14.14285  1.28017  0.72598  13.07319  0.01866     0.08906   4019.05031    3662.0002  1.97077         3494.27228     18.51173   0.0018  58632.06865   1.25967  1.13212   582639.06432  45.63469  20.33806  58677.27937    51.24748       44.63666   16.22552  33.21288   60.5    0.24487  -20.98419  0.91784 
   -35.9387  0.00112  1.12139     14.14115  1.57898   0.9682  14.30314  0.02198     0.03899    5280.4893   8939.69245  0.02817         4987.79632     16.34811    1e-05  58625.48317   2.37907  0.01604    96251.42025   47.3843  20.34624  58683.28687    51.36361       44.67993   18.52088  41.38124   49.5    0.22361  -20.83154  0.99988 
  -33.01686  0.00113  3.50719     13.86319  1.65381  1.43827   1.00757  0.17016     0.04138   5085.79976   8521.31585  1.56918         2513.96112     18.10664  0.00071  58628.40502   0.15546  0.00114  3546897.85705  44.84756  20.29873  58678.46484    51.50279       44.97609   14.19733  26.36647   62.0    0.17144  -20.94504  0.99992 
  -31.19456  0.02772   1.6133     14.39172  1.75252   0.8197  37.64794  0.01837      0.0628    5977.5631   5941.86112  2.27169         2049.38433     16.09241    1e-05  58630.22732   8.02448  1.04343    69737.96088  47.25361  20.26905  58678.46484    50.95552       44.34376   19.48911  34.47923   51.0    0.16655  -21.01384  0.98684 
  -27.48961  0.00475  1.58163     14.21557  1.52569  1.20399  14.64055  0.02719     0.28232   2879.71565    3316.5387  3.72075         2578.75108     16.57612    2e-05  58633.93227   0.72424  0.06948   131327.29226  46.93575  20.34473  58678.46484    51.00208       44.28323   17.96135  45.12629   52.5    0.15707  -20.76939  0.99894 
     -26.09  0.00144  0.71139     14.48592  1.83731  0.90468  13.05446  0.05689     0.09271   4898.07504    5879.1121  1.68139         2846.60043     17.48716  0.00017  58635.33188   1.86826  0.01873     9212.44743  48.86444  20.32083  58677.27937    51.15924       44.54216   18.25371  33.21288   45.5    0.18488  -21.21365  0.99998 
  -27.55912  0.01655  4.39711     14.06126  1.71006  1.15152   5.11809  0.07423     0.48425   9580.26396   3398.67402  1.29356          3100.6936     16.35191    1e-05  58633.86275   2.80214  0.08471  2315512.80166  44.85088   20.3048  58678.46484    51.25389       44.61199   21.80398  30.92896   53.0    0.29524  -21.26455   0.9911 
  -27.70393  0.00543  1.89933      14.3888  1.91255  1.08799  14.67308  0.05387     0.28602   6391.13941   3190.35136  4.55814         2033.42644     18.87125  0.00413  58633.71795   3.57524  0.07965   106914.33941  46.96422  20.25035  58680.28312    51.14059       44.47611   24.45564  34.36186   45.0    0.17635  -21.04623  0.99875 
   -23.8532  0.01551  2.28916     14.41667  2.11181  0.95618  14.70666  0.01344     0.18888   4316.54732   8419.54255  0.85084         3821.14223     19.15586  0.00795  58637.56868   1.63461  0.22812   150825.66312  46.69567  20.30908  58678.46484    51.12103        44.4125   23.85718  36.98852   48.5     0.3136  -20.97647  0.99541 
  -34.50602  0.00472  2.25099     14.53061  1.76489  0.47168    11.708  0.07564     0.04766   6841.24833   3905.88671   0.8728         3248.90354     19.19182  0.00864  58626.91585   3.26874  0.05524    72122.17187  46.95275  20.37158  58674.27562    50.98987       44.29936   22.76599  36.50742   46.5    0.18283  -21.11232  0.99858 
  -41.59113  0.01404  2.17625     13.79066  1.26513  1.44974  12.63317  0.03846     0.02855   5912.35054   9035.32906  0.61333         2302.92277     18.64353  0.00244  58619.83074   2.63427  0.17731  1458989.63679  45.53151  20.37333  58678.46484    51.18502       44.48873   18.25371  42.59199   55.0    0.16891  -21.04141   0.9929 
  -25.00875  0.00137  0.92748     14.44876  1.77368  1.25027  22.06471  0.02277     0.01951    3309.4852   7295.34515  2.38923         3477.69391     16.46592    2e-05  58636.41312   1.44161  0.03014    17938.70425  48.32932  20.27551  58680.28312    50.98726        44.3714   16.34288  36.39005   46.0     0.1731  -20.83983  0.99994 
  -26.32587  0.48667  0.71999     14.56029  1.83592  1.16066  13.14367  0.06059     0.05534   9868.24702   5638.34866   0.1266         5259.48649     19.63835  0.02416    58635.096   7.63526  6.39665     6694.96666  48.99229  20.35397  58677.27937    51.27816       44.75053   16.22552  25.07917   71.5    0.22336   -21.3493  0.99674 
  -36.01665  0.02198  2.73749     14.55463  1.89095  0.41222   5.49178  0.07391      0.1475   6982.17052   8621.80484  0.04831         3751.64721     16.68961    3e-05  58625.40522   1.59706   0.1207   102312.79708  46.66089  20.22688  58678.46484    51.26234       44.73904   17.24975  23.52781   45.0    0.25016  -21.03516  0.99583 
  -17.45726  0.01527  0.98543     14.56599  1.77102  0.93341   5.26116  0.25699     0.01495   8837.91979   8474.66399  3.33848         2883.92503     17.35258  0.00013  58643.96462   2.45137  0.08033    11784.26983  48.45851  20.36789  58674.27562    51.23959       44.37431   35.94108  51.27109   33.0    0.20671  -21.12116  0.99983 
    -36.172  0.00199   1.1477     14.30053  1.53855  0.60751  16.62494  0.01904     0.03501   5047.81642   3277.71217  0.13325         3866.87451     16.26559    1e-05  58625.24988   2.52694  0.03303    47155.99806  47.66276  20.30811  58678.46484    51.00483       44.40813   15.74442  32.93214   60.0    0.22247  -20.79413  0.99974 
  -24.60534  0.01031  2.56448     14.36154  2.13886  1.07212   6.83727  0.07005     0.18157   6001.17442   3227.95393  2.53213         2718.03187     20.72958  0.29806  58636.81654   1.46887  0.07051    247119.9057  46.38812   20.3134  58678.46484    51.24643       44.58616   22.51571  32.24542   44.5     0.2355  -21.38387  0.99823 
  -39.59899  0.04211  2.44487     13.99896  1.47974  1.26496  19.32502  0.02573     0.07261   4553.10559   5001.60887    2.484         2282.46589     17.71313  0.00029  58621.82289   2.38981  0.81381   825273.76175  45.74592  20.33597  58678.46484    51.14023       44.44905    20.2819  42.59199   73.0    0.14388  -20.82691  0.96842 
  -28.99265  0.00189  1.36497     14.23136  1.64415  1.37068   6.46242  0.25348     0.08133   6800.54433   6984.53041  4.25211         2518.53364     17.17515    8e-05  58632.42922   1.78283  0.01218     98013.4386  47.22325  20.29612  58674.27562    51.27885       44.76263   14.19733  26.99337   51.5    0.11216  -21.16895  0.99988 
  -19.51142  0.00186  1.75755      14.3788   1.5368  1.05514  26.12105  0.01259     0.08572   3807.69306   6853.08758  2.45912         3308.96076     16.63249    2e-05  58641.91046   2.25913  0.04848    77026.63496  47.07901  20.21562  58680.28312     51.2099       44.61946   18.14327    28.961   37.5    0.27639  -20.89477  0.99914 
  -45.13637  0.00185   1.0127     14.20739  1.98693  1.35616  23.96776  0.01381     0.01361   4659.51728   7016.85288    3e-05         3380.60207     18.77478  0.00331   58616.2855   3.10411  0.04444    72807.42403  47.69389  20.32952  58678.46484    51.15674       44.46156   23.77194  39.10195   65.5    0.17812  -20.61439  0.99983 
  -33.34966  0.04333  1.42833      14.6576  1.93453  0.55482  26.83056   0.0153     0.01201   3832.07107   3996.54594  1.15825         3784.30736     16.76389    3e-05  58628.07222    2.3503  1.16254    17736.03959   47.9969   20.2753  58680.28312    50.86068       44.23105   16.22552  36.50742   55.0    0.19147   -20.7161  0.99115 
  -31.84249  0.01623   2.6548     14.20614   1.6462  1.11879  18.68766  0.03098     0.09557    3940.3942   7703.53766   4.0688         2785.10441       16.202    1e-05  58629.57939   1.73086  0.30339   416951.57665  46.01718  20.31332  58678.46484    51.14642       44.55709   18.14327  29.72284   56.0    0.14833  -20.92213    0.988 
  -28.44784   0.0033  2.66477     13.85121  1.30374  1.03617   0.96323  0.21546       0.137   7765.07534   6230.63957  0.26944         2464.35036     18.48433  0.00169  58632.97403   0.34646  0.00317  1705711.91737  45.30081  20.28175  58677.27937    51.12185       44.56734   18.14327  26.93281   58.5    0.19888  -21.14067  0.99982 
   -25.0666  0.01415  3.10932     14.41687  2.02534  1.00768    3.9635  0.19657     0.32457    8901.2223   8584.63618  1.28191         3046.94092     19.33869  0.01212  58636.35527   1.87329   0.0561   266622.27147  46.16412  20.29822  58680.28312    51.08317       44.46336   20.39926  32.33367   34.0    0.27115  -21.27095  0.99775 
  -22.81605  0.00127  2.03768     14.48949  1.75748  0.52674   21.6081  0.01119     0.25641   4036.99479   8998.83636  1.02814         3747.83902     16.76061    3e-05  58638.60582   2.10068  0.02737    71119.39374  47.04348  20.34206  58677.27937    51.18439       44.62068   16.68142  28.39466   46.5    0.26907  -21.02272  0.99942 
