 log(Bfield)      Mns    Pspin  cutoff_power  cutoff_wavelength  fnickel    kappa  kappagamma   mejecta  log(nhhost)  temperature  texplosion  thetaPB     vejecta      A_V        MJD_0   log(KE)      M_Ni  Peak_mag     Peak_MJD 
    14.56861  1.76564  2.29818       2.21655         2193.06363  0.49685  0.09453     0.05649   3.99777     19.35253   3114.42671   -21.40376  0.73319  5931.33246  0.01251  58640.01811   52.0498  26.55199  20.36656  58672.46094 
    14.41734   1.6971  2.14727       1.27899         2796.25306  0.09547  0.02764     0.02397  13.43964     18.26186   5916.80222   -30.12116  0.73473  4027.72297  0.00102  58631.30071  51.83685   6.77628   20.3504  58678.46484 
    14.38559  1.82558  2.13862       1.01971         3348.45871  0.02961  0.04314       0.016  10.47604     20.11429   3885.76328   -26.78374  0.96802  5027.70043  0.07228  58634.63813  52.00685    1.9952   20.2574  58679.95826 
     14.3827  1.33454  2.70279       3.09683         2988.88703  0.00188  0.01441     0.01909  15.82708     19.26569    4764.0109   -21.74133  0.50643  2912.83384  0.01024  58639.68054   51.5696   0.13803  20.30071  58679.95826 
    14.29603  1.53935    2.045       2.13263          2505.0036  0.07807  0.13552     0.05595   4.94257     17.57331   7167.40703   -23.31256  1.01509  6588.33029  0.00021  58638.10931  52.16529   4.41141   20.2875  58678.46484 
     14.1091  1.40369  1.88049       2.32536          2173.9809  0.00243  0.08657     0.05647   6.52861     17.69479   4030.38099   -32.28337  1.07525  4451.13425  0.00028   58629.1385  51.85456    0.1471  20.33581  58676.20076 
     14.3743  2.00433  3.35388       0.30804         3759.13654  0.00163  0.04539      0.1307   6.10504     17.56589   7345.38667   -28.35531  0.73423  5469.48218   0.0002  58633.06656   52.0265   0.09732  20.31724  58679.95826 
    14.59256  1.94778  3.11681       4.28251          2085.0747  0.00263  0.05528     0.03926   9.03879     20.27032   9994.32486   -31.78354  0.40152  5234.57131  0.10352  58629.63834  52.02789   0.17152  20.34077  58672.46094 
    14.51192  1.89311  1.24401       0.91907         2394.51998  0.14663  0.15469     0.01565    4.9365     16.82945   4031.87947    -35.0462  0.78407  5141.33313    4e-05  58626.37568  51.94976   8.28341  20.34117  58679.95826 
    14.33951  1.49952  1.89159       1.23449         2859.89901  0.00192  0.03128     0.02045  18.66371     16.94747   8746.50354   -31.68617  0.66317  4572.68602    5e-05  58629.73571   51.9752   0.14514   20.3991  58676.20076 
    14.37629  1.57838  1.60217        2.0453         2615.05946  0.01178  0.15424     0.38641   7.77876     16.90967   5262.09114   -28.52619  0.76718  6717.29228    5e-05  58632.89568  52.22982   0.74306  20.29842  58676.20076 
    14.67849   1.5521  0.81097       3.26187         2109.34155  0.07614   0.0355     0.01366  18.87312     16.10782   9255.21289   -40.62639  0.39082  3702.32269    1e-05  58620.79549  51.79274   5.77812  20.35924  58676.20076 
    14.62426  1.78085  0.81056       0.33324         4006.48107  0.00133  0.15034     0.01679   5.98617     16.56701   4164.51175   -27.59868  0.56875  5854.26861    2e-05   58633.8232  52.08347   0.07878  20.38782  58676.20076 
    14.60811  1.68446  3.20666       0.76401         2442.87824  0.28172  0.02538     0.18821  13.31318     19.59545   8613.33667   -29.47044  0.35183  5788.74342  0.02189  58631.95143  52.15107  19.95697  20.29119  58678.46484 
    14.57918  1.71807   0.8593       0.75243         2439.70258  0.09073  0.10904     0.01374   12.3738     16.42684   3509.72371    -33.0418     0.62  6966.81696    1e-05  58628.38007  52.30543   6.33104  20.30349  58678.46484 
    14.36551   1.8234  1.65578        0.1609         4775.85956  0.00168  0.11414     0.01897   7.25771     16.13575   5155.89857   -34.48141  0.91255  5808.81268    1e-05  58626.94047  52.09665   0.10437  20.30751  58676.20076 
    14.60076  1.98786  1.52924        0.3385         3036.70333  0.02181  0.07717     0.03434   8.99548     19.99114   7032.45265   -41.53297  0.48918  4576.69242  0.05443  58619.88891  51.91077   1.42156  20.31505  58676.20076 
    14.52323  1.88232  2.25243        3.1037         2558.20106  0.10683  0.04031     0.17188  11.31503      19.6266   3940.28692   -20.43695  0.94122  5008.00172  0.02351  58640.98493  52.01056   7.31666  20.38156  58676.20076 
    14.17435  1.62389   2.1103       1.17556         2228.64807  0.16786  0.28934     0.04673   3.07469     19.53673   3896.67188    -39.0765  1.37899   6412.6578  0.01912  58622.34537  52.08557   8.33325   20.2903  58678.46484 
    14.39729  1.90609  3.85434       4.72826         2394.17159   0.0239  0.10849     0.02705   4.42755     18.00458   3076.54865   -27.37024  0.70202  5377.34842  0.00056  58634.05164  51.97647   1.31263  20.31899  58676.20076 
    13.69483  1.29116  3.08498       1.96942         2294.93299  0.00121  0.11374     0.02255   1.34195     16.79353   7517.28684   -28.64558  1.52252  5061.46769    3e-05  58632.77629  51.75999   0.04562  20.35429  58676.20076 
    14.16545  1.75657  2.06975       1.24882          2740.0323  0.00197   0.0293     0.03788  15.89195     20.66086   3175.81783   -26.73824  1.09652  5379.28127  0.25444  58634.68363  52.10277   0.14457  20.30661  58678.46484 
    14.41167  1.67189   2.5026       4.29185         2062.64572  0.11252  0.02215     0.02178  19.33114     19.35722   9164.62267   -21.67593  0.85915  5456.64358  0.01265  58639.74595  52.13162   8.57745  20.30906  58676.20076 
    13.85635  1.34032   3.7006       2.25789         2787.28954  0.36566  0.06539     0.01432   2.71798     18.79133   3892.75185   -21.02394   1.0977  6176.14014  0.00344  58640.39793  52.03704  17.50043  20.30922  58678.46484 
    14.70362  1.95909  2.12063       2.97493         2438.42004  0.05193  0.05846     0.10191  10.11247     19.74822   6169.11932   -28.67768  0.45897  4365.28452  0.03111   58632.7442  51.88083   3.47186  20.31986  58678.46484 
    14.44694  1.59431  3.38443       1.31268           2530.507  0.20964   0.0484     0.08178   8.72141     18.29603   6081.69327   -23.50202  0.60104  7647.51001   0.0011  58637.91985  52.35372  13.56815  20.31136  58678.46484 
    14.57795  1.58361  1.93351       0.94888         2893.24615   0.0076  0.04109      0.3327  13.44526     17.02899    7755.4643   -30.71151  0.40094  4845.27887    6e-05  58630.71037  51.99741   0.53963  20.31213  58683.71577 
    14.60717   1.8653  2.57794       1.00071          2983.7008  0.00995  0.02961     0.05911   9.73796     19.87108   6899.72846    -28.1495  0.40973  3917.55021  0.04129  58633.27238  51.78327    0.6601  20.34138  58672.46094 
    14.38678   1.7184  0.98596       0.67654         2612.72574  0.00615  0.07371     0.01011  11.84563     17.93114   7733.74594   -41.13241  0.77258  4280.72859  0.00047  58620.28946  51.87845     0.425  20.33344  58678.46484 
    14.29968  1.67372  2.54047       0.05637         5766.24936   0.1643  0.06914     0.22412   9.16437     19.77915   9104.99363   -28.39414   0.9518  8332.75176  0.03341  58633.02774  52.43303  10.75161  20.30111  58676.20076 
    14.40897  1.61135  2.77583       1.64258         2722.04013  0.00939   0.0233     0.03936  19.83599      16.4272   5514.88464   -26.20313  0.65076   5660.9871    1e-05  58635.21874  52.16567   0.71919  20.30536  58676.20076 
    14.40607  1.43605  2.00787       3.84921         2913.08886   0.0172  0.01213      0.0171  35.96045     17.19425   3250.56699   -15.45777  0.94001   4633.5843    9e-05  58645.96411  52.03795   1.46579  20.36284  58676.20076 
    14.08753  1.54491  2.80156       0.71381         3897.97199   0.0171  0.02175      0.0902  11.64512     17.75981   3859.74566   -28.78255  0.97859  4253.95239  0.00032  58632.63933  51.87145   1.17853  20.35149  58679.95826 
    14.20127  1.54678  1.16009       0.13028         5334.89968  0.01003  0.04858     0.07222  11.72639     19.53783   4592.92944   -29.58799  1.07364  5054.76832  0.01917  58631.83388   52.0219   0.69214  20.27701  58678.46484 
    14.36177  1.61896  4.25458        4.7738         3093.45373  0.00465  0.11437     0.01167   1.48783     17.46765   6562.81526   -21.20183  0.69255   2921.0719  0.00016  58640.22004   51.2994   0.18215  20.26152  58679.95826 
    14.49443  1.91939  1.98671       2.18889         2026.49176  0.01266     0.03     0.03552  26.71259     18.24525   6690.05186   -33.89556  0.67467  5417.50289  0.00098  58627.52631  52.15123   1.02417   20.2862  58678.46484 
    14.46592  1.59267  1.12916       1.83194         3112.78102  0.09664  0.02858     0.14881  13.44989     19.64041   3824.20317   -17.17494  0.98496  4171.66255  0.02427  58644.24693  51.86742   6.86031  20.30011  58676.20076 
    14.53106  1.83579  2.09113       4.58309         2700.93522  0.02695  0.13777     0.09632   5.50725     19.85931   8979.03726   -23.10264  0.85486  5769.58529  0.04018  58638.31923  52.06189   1.56522  20.28396  58678.46484 
     14.0326  1.70636  4.05918       0.27155          3624.4729  0.00191  0.11671      0.2213   2.71197     16.30935   3575.13619   -28.76539  1.18984  8672.62443    1e-05  58632.65649  52.33161   0.09127  20.30609  58676.20076 
    14.27373  1.61632  2.61227       4.40515         2177.79381  0.00654  0.09524     0.39115   6.26555     17.01752   7859.58677   -22.94925  1.01283  6240.25288    6e-05  58638.47263  52.14374   0.39184  20.30886  58676.20076 
    14.39637  1.65945  0.91761       0.04299         3695.62964  0.03006  0.04444     0.08555  19.48408     17.31818    8268.6599    -32.4265  0.91011  6434.08969  0.00012  58628.99537  52.27539   2.29489  20.21257  58679.95826 
    14.18549  1.44018  1.11131       0.00709         4257.86973   0.2551  0.05185      0.0615  10.80076      19.7639   3356.55462   -34.96652  1.30175  5778.96917  0.03226  58626.45535  52.13065  17.29905  20.36283  58676.20076 
    14.57153  1.52706  1.67577       3.50379         2011.44419  0.34499  0.08272     0.08845   5.78942     19.10948   7049.05853   -23.81102  0.52086  5166.12534  0.00715  58637.61086   51.9713  20.28411   20.3749  58672.46094 
    14.48053  2.08251  2.15175        1.6197         3442.84201  0.00404  0.01553     0.01324  24.83526     17.88414    4691.2957   -28.90056   1.0809  3285.40247  0.00043  58632.52132  51.71111   0.32269  20.33574  58678.46484 
    14.50073   1.8088  0.90672       0.05848          4436.0509  0.38739  0.06837     0.03153   9.82216     19.55026   4498.24536   -29.56259  1.03594  6853.92015  0.01972  58631.85929  52.26994  25.73815  20.37737  58672.46094 
    14.62228  2.12238  3.81411       0.03511          3371.8612  0.00214  0.06482     0.03591   4.76391     17.69951   7382.57222   -29.76904  0.39468  6811.50579  0.00028  58631.65283  52.19012    0.1198  20.32116  58676.20076 
    14.68458  2.04533  1.52962       4.69988         2768.90183  0.19138  0.25741     0.02069   4.37324     17.87854   6532.55381   -14.72749  0.92568   8161.5819  0.00042  58646.69439  52.33747  10.47575  20.27783  58678.46484 
    14.27737  1.64249  1.34352       0.25044         3191.47715  0.01171   0.0463       0.014  15.75984     17.06263    6185.5244   -36.88926   1.0941  5450.31285    6e-05  58624.53261  52.11345   0.85834    20.258  58678.46484 
     14.3416  2.11018   2.5882       2.11389         2711.62748  0.01155  0.05684     0.26317   9.08665     20.80138   3531.84846   -25.83158  1.02193  6103.83591  0.35165  58635.59029  52.16184   0.75455  20.29588  58676.20076 
    14.51611  1.77756  1.86973       2.64415         2351.20419  0.08059  0.05555     0.47349   9.44003     18.16585   4669.39092   -28.14673   0.6944  4469.32243  0.00081  58633.27514  51.89478   5.30792  20.32109  58676.20076 
    14.39436  1.84534  1.19784       4.97896         2423.96815  0.00423  0.32408     0.22376   5.20924     16.87367   7451.81219    -23.2628  1.46734  7902.49533    4e-05  58638.15907  52.32907   0.24217  20.36979  58668.68574 
    14.46171  1.75267  2.40398       1.40323         3287.71252  0.00133  0.03788     0.06074   9.44098     17.73548   7580.73514   -22.53653  0.70996  4161.60275   0.0003  58638.88535  51.83282   0.08781  20.30742  58678.46484 
    14.02954  1.61815  2.54351       0.12529         3141.83815   0.0079    0.143     0.01404   6.13479     16.38584   7722.09981   -51.40083  1.00781   5245.1335    1e-05  58610.02105  51.99063   0.47128  20.29712  58676.20076 
    14.68361  2.05357  1.26682       0.62293         3307.08985  0.31381  0.05798     0.03496  13.94759     17.48523   8993.17873   -22.88524  1.07727  8608.65839  0.00017  58638.53663  52.49988  22.44099  20.34364  58678.46484 
    14.51886   1.6975  2.75461       4.80201         2784.50164  0.00484  0.01441     0.03256  20.84946     16.41676   3142.00146   -21.13602  0.65624  2842.00244    1e-05  58640.28585   51.5712   0.37408  20.27672  58676.20076 
    13.91813  1.52563  3.06376        0.1049         2306.84632  0.00231  0.19093      0.2198   0.98044     16.77397   4661.90431   -34.09981  0.92265  6142.67282    3e-05  58627.32207  51.87236   0.07636  20.31293  58679.95826 
    14.29317  1.71421  2.52828       2.67251         2365.17003  0.26472  0.10771      0.0269   9.22536     16.08869   8865.77523   -23.59047  1.56102  8381.04712    1e-05   58637.8314  52.43869  17.34816  20.38154  58672.46094 
    14.11408  1.70931  3.91223       0.93424         3337.57171  0.00635  0.01862      0.1467   14.1536     16.54555    5753.7949   -25.78641  1.05509  6135.21662    2e-05  58635.63547  52.20695   0.45523  20.25797  58683.71577 
    14.00243  1.66397  3.53645       0.91475          2965.2198  0.01391  0.15447     0.02399   3.08399     18.27167   7194.88678   -35.80291  1.38694  6084.72794  0.00104  58625.61897  52.04036   0.69139  20.32645  58678.46484 
    14.19894  1.52606  3.08161       0.10774         4283.44243  0.07232  0.03731     0.01425  12.22856     17.10958   4956.08352   -30.33036  0.84743  7788.65825    7e-05  58631.09151  52.40122   5.03435  20.33044  58678.46484 
    14.17046  1.47538  2.71389       0.03724         4310.93579  0.02814   0.0775       0.275   3.96082     17.21842   6856.38727   -29.50486  0.74495  6830.13962    9e-05  58631.91702  52.17126   1.50016  20.32956  58678.46484 
    14.42306  1.54845  3.73236       1.52004         3203.95485  0.10207  0.16383     0.17834   2.43271     19.25823   4325.52137   -21.21363  0.46479  7503.80268  0.01007  58640.20824  52.19137   4.72136  20.28271  58676.20076 
    14.54839  1.70945  1.97005       3.32304         2688.64764  0.07329  0.08121     0.04802     8.435     16.07005   6414.45681   -26.37396  0.57937  4450.29789    1e-05  58635.04792   51.8802   4.70818  20.31554  58678.46484 
    14.34632  1.81248  1.47024       4.08876          2126.8632  0.00448  0.26183     0.05228   6.92217     16.43487   7676.26704   -29.52964  1.21713  8119.06269    2e-05  58631.89223  52.38267   0.27491  20.31821  58676.20076 
    14.23959  1.62896  2.10059       3.38444         2044.86913  0.23771  0.07753     0.27392    7.3003     19.90216   3535.00302    -31.5257  1.38205  5335.54637  0.04435  58629.89618  52.02342  14.77334  20.33486  58672.46094 
    14.61359  1.77023   0.9832        3.2035         2209.87735  0.26135   0.0559     0.21098  18.03132     16.22213   4049.88184   -37.77709  0.77387  6197.44654    1e-05  58623.64478  52.23642  19.66003  20.32878  58678.46484 
    14.08475  1.84927  4.22202       1.46692         2805.46118  0.00126  0.08789     0.06477   4.36064     18.66335   4996.71998   -28.35865  1.33403  6757.84752  0.00256  58633.06323  52.17321   0.06892   20.3586  58676.20076 
    14.36578  1.63157  1.71098       2.42199         2447.09807   0.0591  0.07953     0.05404    7.4621      20.3807    8284.5596   -22.16176  0.77546  5470.90803  0.13348  58639.26012  52.04739   3.69194  20.30604  58678.46484 
    14.47547  1.28674  3.41231       0.99411         3099.84397  0.02341  0.02518     0.05855  12.96713      17.7796   4388.83037    -33.5682  0.17371  7496.45632  0.00033  58627.85368  52.37327   1.64936  20.34088  58678.46484 
     14.5171  1.55669  2.03143       0.48267         2735.35993  0.06091  0.07999     0.09268   7.41714     16.19972   7641.92397    -34.6606  0.39652  5330.26009    1e-05  58626.76127  52.02416   3.79934  20.33797  58676.20076 
    14.36668   1.6812  2.48306       4.55348         2437.53532  0.13059  0.14287     0.07173   4.70756     18.04108   5902.11632   -25.55475    0.987  5891.09725  0.00061  58635.86713  52.06269   7.28721  20.19332  58679.95826 
     14.3033  1.85542  4.22792       2.36777         3027.83722  0.00127  0.05202     0.36248   7.69561     19.31726   6648.11487   -29.38342  0.79267  5764.11214  0.01153  58632.03845  52.09582   0.07973  20.30022  58676.20076 
    14.11656  1.51507  3.22366       0.90958         3164.63116  0.01632   0.0584     0.41462   6.99043     16.90699   4451.91887   -33.56013  0.83554  5566.62483    4e-05  58627.86174  52.05584   1.00373  20.31094  58678.46484 
    14.32545  1.91846  2.42166       1.29768         2000.85493  0.00356  0.01861      0.0193   24.5012     19.73828    6901.3083   -32.70208  0.91421  5055.75922  0.03041  58628.71979  52.08444   0.28367  20.35253  58676.20076 
    13.94578  1.45445  3.64457       2.58866         2375.02103  0.00118  0.12999     0.02889   3.66998     18.99014   6198.01219   -32.03533  1.12845  7782.47248  0.00543  58629.38655  52.27556   0.06148  20.29262  58676.20076 
    14.25558  1.54682  0.72297       0.58719         3021.42807  0.02994  0.02957     0.07767  30.90906     19.33718   7847.93624   -48.56837   0.9527  3908.59351  0.01208  58612.85351  51.87885   2.48569  20.33009  58676.20076 
    14.07729  1.50944  2.63376       0.08978          2575.6883  0.02456  0.05777     0.02976    6.2545     18.19997   4551.35837   -27.80573  1.35638  7119.84036  0.00088  58633.61614  52.25809    1.4716  20.33852  58676.20076 
    14.67761  1.77804  3.78678       4.20703         2314.29163  0.06747  0.04082     0.10475   8.56567      17.6374   3644.47209   -27.09183  0.30542  4915.94342  0.00024  58634.33005  51.96814   4.34936  20.25546  58679.95826 
    14.33686  1.52431  1.14394        4.0266         2232.56301  0.04908  0.10938     0.35254    5.5798     17.25604     5599.576   -22.48083  1.14591  4751.47077   0.0001  58638.94105  51.89467   2.85924  20.32917  58678.46484 
    14.45345  1.48603  2.56092       2.93403         2293.49098  0.00672  0.13709     0.02764   3.59778     18.91503   6925.53608   -25.86856  0.46321  5423.03562  0.00457  58635.55332  51.95941    0.3489  20.20449  58678.46484 
    14.60879  1.83379  1.87716       0.56533         2425.70087   0.0649  0.15318     0.05303   6.93536     17.32653   9394.05518   -40.39324  0.45307  6245.05153  0.00012  58621.02864  52.15492   3.98537  20.36569  58676.20076 
    14.36061  2.13584  2.77047       0.07757         2475.23526  0.00785  0.07574     0.02581   6.05923     18.36035   8087.56069   -31.79516  1.04119  6005.67057  0.00127  58629.62671  52.10693   0.46668  20.26785  58676.20076 
    14.44956  1.68876  1.01961       2.16324         2404.47682  0.08222  0.07543     0.03587   6.52465     16.85167   3500.78099   -19.78271  1.03002  4662.73911    4e-05  58641.63916  51.89484   4.97612  20.32079  58678.46484 
    14.31644  1.84124  1.53536       3.00581         2582.66071  0.01287  0.05658     0.04308   9.88047     20.82879   3114.44445   -21.07763  1.04541  5026.24072  0.37456  58640.34424  52.00111   0.85607  20.34571  58676.20076 
    14.53775  1.91962  1.16104       1.70489         2040.76565  0.00175  0.12108     0.01453   6.61502     16.48849   7101.65703   -29.15687   0.6868   4928.4752    2e-05  58632.26501  51.94441   0.10641  20.35537  58678.46484 
    14.42524  1.41631  1.61319       0.01215         5461.29786  0.07468  0.01454     0.04313  41.03901     16.96765   7791.53953   -39.66064  0.51894  5842.37659    5e-05  58621.76123  52.24892   6.50616  20.24723  58678.46484 
