 texplosion  fnickel    Pspin  log(Bfield)      Mns  thetaPB   mejecta    kappa  kappagamma     vejecta  temperature    alpha  cutoff_wavelength  log(nhhost)      A_V         MJD0  kenergy  mnickel           TSD   log(L0)  Peak_mag     Peak_MJD  log(E_rad)  log(Peak_lum)  Rise_Time    E_fold  tau_1  delta_m15     r_peak     frac 
   -38.7761  0.01054  0.73115     14.59929  1.83991  0.66949  12.06787   0.0182     0.05854  4932.54932   6070.53621  0.23683         4983.37826     16.43179    2e-05   57501.1449  1.75146  0.12715      5781.486  49.04359  19.27426  57536.78006    51.36568        44.9677    9.31167  21.14274   47.0    0.32542  -20.19125  0.99988 
  -18.70364  0.01164  5.08636     14.52813  1.95736  1.35738   8.58498  0.01395     0.23346  6474.42528   7088.49006  1.03004         3949.14789     17.71948  0.00029  57521.21736  2.14669  0.09995  413079.81656  45.53167  19.34565  57543.74537    51.03794       44.70602    9.31167    16.761   32.5    0.61549  -20.65774  0.98881 
  -18.07527  0.02738   3.7266     14.62024  1.83936  1.35893    17.803  0.01005     0.15545  5449.96293   7273.44312  1.30088         4187.92321     18.10628  0.00071  57521.84573  3.15433  0.48746  136339.65694  46.25626    19.339  57543.74537    50.99622       44.63863    9.31167  17.77914   28.5    0.55887  -20.60627  0.96972 
  -23.01539  0.02502  2.95176     14.54046  1.51708  0.71644   8.45406  0.01733     0.04359  5189.76981    6024.4045  0.93881         4309.48006     19.25169  0.00992  57516.90561  1.35828  0.21154  101872.84569  46.50163  19.36463  57546.06714    51.13169       44.78395    9.31167  18.62334   32.0     0.5405  -20.66069  0.98851 
  -33.20737   0.0041   3.4134     14.72271   2.0764  0.65555   9.51451  0.02364     0.11883  4797.78126   6706.53689  1.42959         4028.38445      19.4691  0.01636  57506.71363  1.30645  0.03904   80553.52271   46.6137  19.41411  57543.74537    50.96513        44.5803     11.174  18.62334   37.0    0.37621  -20.52372  0.99821 
  -28.89807   0.0072  2.32433     14.58094   1.7805  0.75652   12.7595  0.01413     0.03948  4954.94909   3445.57101  0.58394         4573.99026     17.25584   0.0001  57511.02293   1.8687  0.09183   61528.83308  46.99771  19.36188   57541.4236    50.95578       44.51037   13.03634  20.48567   39.0    0.41185  -20.43267  0.99762 
  -20.97667  0.00884   2.4354     14.40765  1.60074  1.22724   7.54137  0.01797     0.01105  6083.35412   7004.38646  0.49336         4501.73087     17.85282   0.0004  57518.94433  1.66481  0.06668  134887.76334  46.57005  19.34938   57541.4236    51.19147       44.75107     11.174    22.348   32.5    0.57352  -20.61711  0.99776 
   -32.4407  0.00444  1.12999     14.53085  1.67705  0.75248    8.0336  0.02985     0.13968  6073.39163   5686.14613  0.31058          2647.6762     16.22606    1e-05   57507.4803  1.76766  0.03564   17251.04937  48.15042  19.33378   57541.4236    51.01333        44.6152     11.174  18.82412   40.0    0.39034   -20.3203  0.99983 
  -32.06622  0.01143  0.92926     14.41422  1.31355  0.73865  10.06108  0.01596     0.02046  3842.88541   5362.87482  0.84096         4629.33002     16.76489    3e-05  57507.85478  0.88631  0.11499   15634.95883  48.25692  19.36292   57541.4236    51.17149       44.79444    9.31167  19.41973   41.5    0.36375   -20.2499  0.99953 
  -18.59441  0.02867   5.2366     14.41837  1.53499  0.95079   4.07078  0.02763     0.10603  7156.03251   6268.22249  1.49782          3264.1163     16.78245    3e-05  57521.32659  1.24351  0.11669  569234.98402  45.26156  19.24996   57541.4236    50.84402       44.43019     11.174  19.18303   36.0    0.61626  -20.63304  0.98011 
  -28.29877  0.00126  1.34094      14.3921  1.68928   1.4234  15.55471  0.01049     0.20086  5590.96247   5329.39745  0.31205         4653.28931     17.49938  0.00018  57511.62223  2.90043  0.01968   46359.59821  47.57559  19.30792    57539.964    50.84124       44.34048   13.03634    22.348   38.5    0.46197  -20.41686  0.99986 
  -22.50156  0.01772  2.21464     14.59573  1.75653  0.93646   14.5706   0.0143     0.13845  5746.65459   7358.10231  0.56998         5029.30283     16.31495    1e-05  57517.41944  2.87035  0.25813   51476.41848  47.11129  19.29629   57541.4236    51.05784       44.71645    7.44933  18.62334   29.0    0.50713  -20.64319  0.99429 
  -27.51705  0.09766    0.951     14.62173  1.90062  1.32714    8.1161  0.02863     0.29658  5289.63893   4530.31182  0.58709         4583.11777     18.40234   0.0014  57512.40395  1.35465  0.79259    9112.21039  48.63175  19.34157   57541.4236    51.15239        44.7514    9.31167  21.95824   41.0    0.40028  -20.29096  0.99918 
  -21.52737  0.00137  2.88423     14.42035  1.70193  1.33846   3.78603  0.03204     0.05403  5628.04796   6946.07126  0.70907         4241.86184     19.41995  0.01461  57518.39363  0.71536  0.00519  189722.88244  46.30161  19.22662  57539.10183    50.94999       44.48635    9.31167  23.99439   33.5     0.5645  -20.64603  0.99977 
  -32.00854  0.01453  1.93102      14.3785  1.67273  1.49802  19.39005  0.01268     0.05544  6097.93275   5394.24766  0.91876         2610.32176      18.7381  0.00304  57507.91246  4.30102  0.28166  101345.74732  46.91489  19.28633   57541.4236    50.99126        44.6042    9.31167  19.63666   42.0    0.37361  -20.38621  0.99468 
  -22.13176   0.0183  1.06778     14.65715  1.84808  0.71673    7.2838   0.0217     0.40656  6732.43551   4210.83814  0.03486         4402.68304     17.84571  0.00039  57517.78924  1.96938  0.13332    9488.41277  48.50141  19.39585  57543.74537    51.15583       44.75224     11.174  20.48567   34.5    0.60926   -20.5392  0.99964 
  -39.15739    0.009  0.75696     14.49825  1.70748  0.87278  12.05307  0.02287      0.0285  4628.63795   5993.99644     0.41         4391.32766     19.23007  0.00944  57500.76361  1.54039   0.1085    9158.21325  48.78125  19.25628  57543.74537    50.81611        44.4704     11.174  14.89867   44.5    0.29001  -20.05864  0.99988 
  -24.27865  0.04332  1.76814      14.3991  1.38939  1.19727  18.33273  0.01218     0.04927  6677.84568   3811.43892    0.627         3908.62613     18.42053  0.00146  57515.64235  4.87671  0.79412   64190.73446  47.10916  19.35688  57543.74537     50.7586       44.39837     11.174  14.89867   32.0    0.51533  -20.71244  0.98495 
  -30.65656   0.0159  2.97788     14.71431  2.18507  0.76495    3.7192  0.06976     0.13649  5970.03012   6752.89159  0.68782          3690.5596     18.73706  0.00303  57509.26444  0.79073  0.05915   67060.53547  46.83403  19.31709   57541.4236    51.01039       44.61367    9.31167  19.64148   36.5    0.39422  -20.45767  0.99813 
  -24.09851  0.09639  1.93369     14.59856  1.83455  1.37662   9.49493  0.02891      0.0233  7075.26927   3492.08064  1.34818         2585.19574      18.1914  0.00086  57515.82249  2.83534  0.91518   40457.84862   47.3526  19.37942   57541.4236    51.12169        44.7082    9.31167    22.348   33.5    0.47126  -20.66524  0.98827 
  -24.52699  0.08136  0.71179     14.52633  1.73738  1.48131   7.59486  0.02379     0.04526  5068.01742   4762.04513  0.47172         4856.85149     17.93133  0.00047  57515.39401  1.16365  0.61796    7240.09945  48.94429  19.32642  57543.74537    51.16612       44.81858    9.31167  18.62334   31.5     0.5172  -20.57101   0.9997 
  -28.46092  0.11152  0.75676     14.42795   1.3877   1.4231   8.36849  0.03023     0.06349  5329.62791   3965.23367  0.76605         3929.01593     17.15628    8e-05  57511.46008  1.41797  0.93323   10283.28201  48.64109  19.31238  57543.74537     51.0722       44.78346    9.31167  14.89867   45.5    0.36333  -20.20799  0.99909 
  -27.92895  0.00637  1.22633     14.37248  1.51305  1.06175   8.43616   0.0206     0.41656  5704.72996   6478.74793  0.32598         4598.74754      18.2462  0.00098  57511.99205  1.63773  0.05378    38011.6729  47.69157  19.37283  57543.74537    51.18743        44.8217    9.31167  20.09591   38.0     0.4677  -20.47004  0.99961 
  -22.62525  0.02439  2.59042     14.54554  1.65799  0.92766  13.82965  0.01112     0.29563  5095.45704   6900.66422   0.8771         4451.18472     18.44062  0.00153  57517.29575  2.14193  0.33725   83762.19439  46.73864  19.38647  57543.74537    50.98224       44.76365    7.44933  13.03634   31.0    0.54015  -20.65095   0.9881 
    -21.354  0.00225  2.31459     14.74438  2.07735  0.68378   4.10039  0.03349     0.09541  6147.18355    6455.4623  0.38267         4368.38486     18.75535  0.00316    57518.567  0.92428  0.00922   33536.57031  47.33189  19.36489  57546.06714    50.95996       44.66376    9.31167  14.89867   33.5    0.58516  -20.61351  0.99982 
  -37.01832  0.00264  0.76257     14.53403  1.81925  0.82553    6.3131  0.04375     0.41808  5652.54698   6021.73846  0.02255         5881.58297     17.12093    7e-05  57502.90268  1.20326  0.01666    8398.48778  48.83998  19.21256  57539.10183    51.23443       44.86315    9.31167  18.62334   42.0    0.33237  -20.18687  0.99998 
  -32.52519  0.00112  1.75205     14.44549  1.82677  1.44538  13.94204  0.01468     0.06373  4390.37977   7328.46694  0.68408         4746.06054     16.14559    1e-05  57507.39581  1.60309  0.01556   66927.37938  47.21783  19.39962    57546.978    51.12319       44.85261    7.44933  14.89867   39.5    0.34527  -20.28267   0.9998 
  -17.62874  0.03819   3.6842     14.53933  2.00708  1.43201     3.486  0.02607     0.07816  7496.27556    5213.0587  0.45706         4287.58752     17.01442    6e-05  57522.29226  1.16855  0.13312  211064.32911  46.11431  19.23207  57539.10183    50.94114       44.46502   13.03634    22.348   36.0     0.6643  -20.63793  0.99255 
  -18.88426  0.00894  2.06573     14.51671  1.89661  1.50962  11.19334  0.01012     0.44248  5982.65952   5563.67198  0.48123         4193.22055     17.18485    9e-05  57521.03674  2.38988  0.10007    69585.3897  47.07416  19.27786  57543.74537    50.79767        44.5546    9.31167    11.174   32.0    0.64067  -20.59696  0.99831 
  -23.86631  0.06458  2.83051     14.48741  1.64875  1.15785   5.29726  0.03551     0.12879  5385.22431   7024.92996  1.08038         4006.55551     18.70436  0.00281  57516.05469   0.9164  0.34209  129978.73142   46.4684  19.32099  57543.74537    50.78966       44.46219     11.174  14.68272   30.5    0.48392  -20.68522  0.98529 
  -17.10033  0.43812  4.03879     14.57278  1.62648  1.48645   3.08959  0.04744      0.0104  6279.39862   7162.40463  1.34291         4128.26845     17.67622  0.00026  57522.82067  0.72672  1.35362  176201.65553  46.02158  19.42351  57543.74537    50.97723       44.63652    9.31167  16.96179   30.5    0.60748  -20.68979  0.88978 
  -27.09773  0.00237  1.99148     14.40505  1.56529  1.03894  19.85441  0.01026      0.0718  6228.76785   5822.93456  0.34319         4254.17207     16.97345    5e-05  57512.82327  4.59503  0.04698   89261.66955  46.91442  19.34486  57543.74537    50.91461       44.49594    9.31167  20.48567   35.5    0.46557  -20.53396  0.99893 
  -17.40674  0.00669  4.47337     14.83529  1.75789  0.41889   5.46863  0.02109     0.13012  6960.86658    6918.8616  1.16399         3137.85042     16.44835    2e-05  57522.51426  1.58064  0.03659   69741.72636  46.36908  19.37575  57543.74537    51.25258       44.88934    9.31167  20.48567   33.5    0.64039  -20.62427  0.99625 
  -27.11826  0.05992   0.8019     14.51021  1.77926  1.44018   7.97723  0.02412     0.03477  4850.79999   3293.82014  0.51625         4884.99003     18.92217  0.00464  57512.80274  1.11971    0.478   10136.01207  48.70498  19.18163  57532.13651    50.81603       44.23636   14.89867  29.79734   38.5    0.41179  -20.34802   0.9996 
  -31.24683  0.03711  1.01903     14.72919  1.80355  0.69149  20.89982  0.01308     0.07889  5507.00514    5666.1962  0.85269         3069.37908     18.27909  0.00106  57508.67417  3.78095  0.77558    6052.49769  48.72666  19.34552    57539.921    50.83599       44.33794     11.174  24.21034   47.0    0.34822   -20.1567  0.99858 
    -22.105  0.04425   1.6613     14.53492  1.76268  1.20612  11.30656  0.01467     0.20313  5617.81805   4790.00869  0.54144         4656.23672     19.05469   0.0063    57517.816  2.12859  0.50026   38463.31174  47.48908  19.33271   57541.4236    51.26319       44.87465    7.44933    22.348   32.0    0.57438  -20.62976  0.99488 
  -30.54082  0.00351  2.52282     14.77213  1.85334  0.45453   2.79121   0.0796      0.1688  6040.89781   5848.27638  0.68464         3284.05583     19.70988  0.02848  57509.38018  0.60761   0.0098   31281.64284  47.23774  19.29987   57541.4236    51.13244       44.72395    9.31167    22.348   39.0    0.41776  -20.50703  0.99971 
  -22.10877  0.04379  1.29412     14.53596  1.64916  1.09023  14.06509  0.01222     0.20749  5930.01858   4235.04268  0.43463         4691.57155     16.37953    1e-05  57517.81223  2.95041  0.61587   21732.23607  47.92506  19.33012    57539.964    51.17758       44.73984    9.31167  23.11311   31.5    0.58351  -20.59688  0.99679 
  -32.11174  0.01306  1.24577     14.35489  1.41316  0.94725  19.68113  0.01185     0.09785  6074.78827   5985.97187  0.27633         3765.65396     17.50504  0.00018  57507.80926  4.33251    0.257   39727.58268  47.62907  19.37382  57546.06714    50.78162       44.39064   13.03634    16.761   41.5    0.38224  -20.36335  0.99776 
   -22.4589  0.17689  2.45134     14.62684  1.79923  0.98995   3.36285  0.06685     0.02624  6234.74673   6807.98516  0.70279         4225.78811     17.36086  0.00013   57517.4621  0.77978  0.59485   55979.86524  46.99709   19.3155  57543.74537    50.98323       44.63303    9.31167    16.761   30.5      0.497  -20.64505  0.98454 
  -42.09455  0.00137  0.91652     14.24997  1.51445  1.43776  10.70771  0.02519     0.36932  4919.95638   4976.47062  1.67858          2142.0283      16.2557    1e-05  57497.82645  1.54613  0.01471   37361.38714  47.95239  19.28463   57541.4236    51.11397       44.70687     11.174  20.48567   48.5    0.28764  -20.13504  0.99995 
  -21.92429  0.05401  2.04243     14.43439  1.61931  1.46547  12.17237  0.01601     0.03284  6499.53444   3614.49773  0.88484         3317.78755     20.30386  0.11184  57517.99671  3.06737  0.65739   84850.72206  46.92923  19.32819  57543.74537    50.89071       44.46144    9.31167  21.03735   32.5    0.53243  -20.76369  0.98604 
  -18.85567  0.00556  2.90866     14.44057  1.76376  1.48333   8.10537  0.01437     0.05567  6728.82009   5130.11698  0.43928         4560.62495     18.14305  0.00077  57521.06533  2.18916  0.04507  182177.73464   46.3274  19.27769    57539.964    51.28917       44.98303    7.44933    16.761   34.0    0.62953  -20.63865   0.9981 
  -27.32014  0.00508  0.82489     14.47913  1.88302   1.2254   6.15278  0.03161     0.08301  5946.33155    4443.0863  0.06352         2970.03637     16.93579    5e-05  57512.60086  1.29777  0.03123   13097.73494  48.59371  19.42075  57543.74537    51.09462       44.76611    9.31167    16.761   39.0    0.44865  -20.35932  0.99996 
  -27.39165  0.10563  1.18121      14.8936  1.87934  0.52229   7.62686  0.03188     0.04088  5419.27078   5205.29727  0.87055         3405.82131     17.28761  0.00011  57512.52935  1.33615   0.8056    3974.52186  48.79891  19.29469  57543.74537    51.14522       44.82201    9.31167    16.761   41.5    0.39365  -20.30062  0.99799 
  -18.49794  0.04813  3.33519     14.68256  1.39929  0.54362  11.28788  0.01594     0.09477  5605.95618   5916.34033   1.4221         4220.29487     20.03322  0.05997  57521.42306  2.11611  0.54328   62352.16213  46.57366  19.29321  57543.74537    50.86716       44.42032    9.31167    22.348   29.0    0.52399   -20.7285  0.95883 
  -17.78954  0.01173  4.70362     14.65447  1.82022  0.66531   0.75731  0.10668     0.28304  5814.97541   4068.26273  0.90468         4491.02964     19.26172  0.01015  57522.13146  0.15276  0.00888  183594.38464  45.92025  19.25104  57532.13651    51.10949        44.5474   14.89867  29.40758   35.0    0.61799  -20.64624  0.99904 
  -30.88754  0.02516  0.96083     14.53355  1.75987  0.85052   6.39376  0.03221     0.03848  5691.94357   3172.63872  0.22449         4696.46462     18.38193  0.00134  57509.03346  1.23568  0.16084   12926.83481  48.43754  19.40535  57543.74537     50.6275       44.14992   14.89867  20.48567   41.0      0.391  -20.34365  0.99962 
  -18.73271    0.023  3.77131     14.43616  1.62611  1.22352   4.58025  0.03176     0.01686  6341.17755   6840.63594  0.87763         4193.50263     16.62998    2e-05  57521.18829  1.09864  0.10535  288153.89816  45.86739  19.28927  57546.06714    50.88037       44.65165    7.44933  12.19214   30.5    0.60609  -20.67234  0.99146 
   -19.0742  0.04639  2.21114     14.70307  2.05207  1.02801    8.8418  0.01403     0.06962  4213.59046   5130.26032  0.97804         4774.93029     16.02737    1e-05   57520.8468  0.93642  0.41014   36568.29671   47.3287   19.2926   57541.4236    51.09127       44.64271    9.31167  24.21034   27.5    0.55399  -20.64561  0.99359 
  -22.32562  0.00138  2.10173     14.65901  1.66826  0.57475   4.59331  0.02891     0.10486   5783.7268    5123.5616  0.39503         4939.00897     16.38675    1e-05  57517.59538  0.91658  0.00634   32901.00471  47.32874  19.38233  57543.74537    50.92252       44.54462     11.174  18.40739   34.5    0.56392  -20.59882  0.99986 
  -29.23025  0.02213  1.69107     14.42409  1.69526  1.27607   5.99741  0.03637     0.01144  5202.20593   6146.18593  0.53755         4292.95683     18.56836  0.00206  57510.69075   0.9682  0.13273   63854.74419  47.23657   19.2869  57539.10183    51.08861       44.66179    9.31167  22.54879   37.0    0.40594  -20.39238  0.99825 
  -31.59498  0.05256   1.0209     14.51211  1.79769  0.95641   5.10897  0.04643     0.29159  5821.98433   4753.31018  0.55773         2410.45508     19.90972  0.04513  57508.32602  1.03301   0.2685   16454.07362  48.28932  19.34779   57541.4236    50.97422       44.53472    9.31167    22.348   43.5    0.35733  -20.30478  0.99927 
  -30.84152  0.00765  1.20475      14.7735  2.09504  0.61221  14.04988  0.01347     0.38875  4664.81056   5981.15375  0.47141         4633.88134     19.27725  0.01052  57509.07948  1.82376  0.10744    8013.17066  48.52444   19.3464  57543.74537    51.18612       44.98308      5.587  13.03634   41.5    0.37797  -20.27111  0.99966 
  -23.15666  0.00788  1.62781     14.58538  1.68433  0.70805   9.14818  0.01542     0.01306  5976.03902   4831.70747  0.36247         4282.74951     19.20787  0.00897  57516.76434   1.9489  0.07212   27970.46602  47.62536  19.29071  57543.74537    50.90045       44.52174    9.31167  18.40739   34.5    0.57438  -20.61998  0.99912 
  -28.22611  0.01882  1.28618     14.49356  1.56983  0.80755   6.90099  0.03089     0.06233   5527.8419   6565.67991  0.30422         4674.13741     17.38913  0.00014  57511.69489  1.25791  0.12987   24840.53065  47.85093  19.33465  57543.74537    51.08351       44.68903    9.31167  20.48567   38.0    0.40675  -20.39662  0.99904 
  -19.78668  0.07172  2.78934     14.39227  1.50527  1.33312   5.26481  0.02343     0.01352  6013.86386   7104.11549  0.58549         4810.50605     17.64465  0.00025  57520.13432  1.13584  0.37761  178601.49596  46.30357  19.32382    57539.964    50.92913       44.46961   13.03634  22.13205   34.0    0.60691  -20.59573   0.9818 
  -22.07261  0.05295  3.54187      14.4428  1.52543  1.24469   9.17074  0.01904     0.30753  5379.83378   4468.76053  1.42313         4070.54897     17.39008  0.00014  57517.84839  1.58332  0.48557  231240.57433  45.98971  19.30492  57543.74537    50.94326       44.56647     11.174    16.761   30.0    0.50606  -20.71443  0.96317 
   -33.3814  0.00128  1.97745     14.57194  1.85279  0.75967   19.1819  0.01272     0.02297  5744.10929   5738.17038  1.55642         2013.91284     18.28043  0.00106   57506.5396  3.77541  0.02465    48302.6208  47.26049   19.3766   57541.4236    51.26397       44.88272    9.31167  20.48567   43.0    0.33571  -20.32159  0.99958 
