 texplosion  fnickel    Pspin  log(Bfield)      Mns  thetaPB  mejecta    kappa  kappagamma      vejecta  temperature    alpha  cutoff_wavelength  log(nhhost)      A_V         MJD0  kenergy  mnickel            TSD   log(L0)  Peak_mag     Peak_MJD  log(E_rad)  log(Peak_lum)  Rise_Time    E_fold  tau_1  delta_m15     r_peak     frac 
  -25.25669  0.02456   3.4772     14.11269   1.9166  0.61592  3.61566  0.09822     0.01185  10817.36209   4779.33055  0.68551         3428.35548     18.56052  0.00202  57186.10331  2.52382  0.08879  1280626.54876   45.3615  21.00547   57236.1223    51.12691       44.61504   22.51744  23.84199   35.0    0.40957  -21.65664  0.99501 
  -20.88317  0.22561  3.13533     14.62657   1.7868  0.33727  4.61424  0.11182     0.02969   11319.4802   4610.84904  1.28534          2936.1068     19.99098  0.05441  57190.47683   3.5268  1.04103    91059.58423  46.56903  21.03187   57236.1223    51.13466       44.62927   22.31782  24.04161   34.5    0.36734  -21.67019  0.95084 
  -19.50762  0.00316  3.16682     14.28453  1.95467  1.10668  3.86373  0.10876     0.03522   9559.10284   5074.73648  0.95888         3818.91906     18.47053  0.00164  57191.85238  2.10605  0.01221    490991.6593   45.8676  21.00345   57236.1223    51.11017       44.59782   20.97714  24.22581   34.0     0.3855  -21.59853  0.99946 
  -25.51813   0.0044   3.0602     13.99701  1.52088  0.74916   1.9972  0.20024     0.03077   10732.9188   4947.28724   0.7622         3354.74539     18.76233  0.00321  57185.84187  1.37241   0.0088  1340883.03804  45.35205  21.01264   57236.1223    51.11499       44.59017   22.51744  25.16655   34.5    0.39162  -21.63708  0.99946 
  -23.57827  0.08049  3.46835     14.04071   1.7471  1.07506  4.98276  0.07194     0.01381  10383.48466   4807.40929  0.80825         3392.83998     17.97291  0.00052  57187.78173  3.20467  0.40107  1617936.41696  45.22196  21.05187   57236.1223     51.0978       44.58057   19.86833  25.16655   35.5    0.37783  -21.59976  0.97514 
  -27.36419  0.00234  3.41101      14.4817  1.95263  0.26829  4.21701  0.10186     0.01107  10667.73645   4831.86602  0.89793         3084.08803     19.95752  0.05038  57183.99581   2.8627  0.00985   229513.72448  46.13289  21.01258  57233.65863    51.13254       44.61487   23.62625  24.05774   34.5    0.38983  -21.69303  0.99948 
  -21.27127  0.06487  3.48856     14.40153   1.7919  0.43808  2.17492  0.14225     0.02378   9246.05013   5025.11733  0.93362         3774.38168     16.57471    2e-05  57190.08873  1.10913   0.1411   318683.80656  45.93351   21.0467   57236.1223    51.11116       44.60423   21.19288  24.01006   34.0    0.39938  -21.59018  0.99136 
  -23.94877  0.00135  3.66879     14.56782  1.93226  0.25786    4.205  0.08377     0.01072   9988.21967   4978.90474  0.92269         3499.00103     18.20029  0.00088  57187.41123  2.50247  0.00568   176724.23093  46.17857   21.0005  57233.65863    51.12616       44.60251   19.86833  25.33462   34.0    0.41107  -21.62775  0.99965 
  -22.72547  0.00208  3.62501     14.03035  1.82406  1.11032  1.13693  0.28115     0.06341  10843.92799   4656.91553  0.86566         3373.73967     17.47049  0.00016  57188.63453   0.7975  0.00237  1935419.29299  45.12449  21.02986  57233.65863    51.03575       44.48188   25.16655  26.49111   35.5    0.38852  -21.63705  0.99985 
  -20.77327  0.03502  3.67141     14.27311  1.97101  0.73605  4.11047  0.08216     0.01288   9538.66036   5089.84305  0.82165         3886.05969     18.59905  0.00221  57190.58673  2.23097  0.14395   701380.63903  45.58792  21.01808   57236.1223    51.12754        44.6163   21.19288  24.01006   33.0     0.4188  -21.60382  0.99155 
  -23.83419  0.04005  3.28314     13.82894  1.76034  1.52751   1.6129  0.18979     0.01971   9710.34417   4781.16784  0.77771          3664.4292     17.16378    8e-05  57187.52581   0.9072  0.06459  3873607.57143  44.89375  21.04009   57236.1223    51.11796       44.59954   23.84199  24.01006   34.5    0.41214  -21.60313  0.99632 
  -19.69802  0.00107  3.38802     14.24443  1.91488  0.95088  2.86488  0.12434     0.03667  10134.33977   4821.31564   0.8701         3690.46309     19.02859  0.00593  57191.66198  1.75519  0.00306   662215.18243   45.6701  20.95889   57236.1223    51.10578       44.59954   21.19288  24.01006   35.0    0.40294  -21.62986  0.99984 
  -23.84809  0.08815  3.31457     14.08168  1.70939  0.87747  3.62567  0.09873     0.01836  10432.22448   4817.65064  0.72212         3634.79936     18.94432  0.00489  57187.51191   2.3538   0.3196   1197164.3509  45.38268  21.10712   57236.1223    51.17674       44.66061   22.51744  23.84199   34.5    0.40556  -21.64009   0.9812 
  -27.14406  0.07264   3.1531      14.1136  1.73994  0.51073  1.76185  0.22504     0.02349  10710.74011   4812.60573  0.56489         3753.61475     17.93746  0.00048  57184.21594  1.20569  0.12797   951970.78864  45.53328  21.02237   57236.1223    51.13304       44.61875   22.30169  24.05774   34.5    0.39524  -21.67079  0.99318 
  -21.88472  0.00105  3.27079     14.04517  1.62349  0.60774  2.79696  0.09703     0.01351   9997.20062   5020.03369  0.94787         3725.23865     17.85321   0.0004  57189.47528  1.66752  0.00293  1309902.80452  45.33275  21.12416   57236.1223    51.15463       44.63358   21.19288  25.16655   34.5    0.41633  -21.64156  0.99981 
  -23.63592  0.29088  3.70309     14.14896  1.94191  0.61165  2.43778  0.15072     0.01697  10634.12502   4656.79166  1.43224         2951.75191     19.17747  0.00836  57187.72408  1.64447  0.70909  1245250.89838  45.32469  21.03354   57236.1223    51.13047       44.62459   22.51744  23.84199   34.5    0.39848  -21.65925  0.95738 
   -26.5842   0.0791  2.91176     14.00782  1.84259  0.52158  1.71367  0.26002      0.0153  10880.59453    4709.4892  0.48163         3681.49604     18.20514  0.00089   57184.7758  1.21021  0.13556  1399347.54703  45.46004  20.98862   57236.1223    51.11439       44.60497   19.86833  24.01006   34.5    0.39003  -21.64382  0.99426 
  -24.34393  0.04451   3.6468      14.7026  1.93505  0.22214  4.31548  0.09288     0.01587  10551.30411   4870.18978  0.70004         3544.51776     18.33544   0.0012  57187.01607  2.86595  0.19209    93998.79394  46.45859  21.01486   57236.1223    51.30866       44.83736   20.97714  21.40863   33.5    0.38398  -21.62593  0.98856 
  -27.33571   0.2259  3.03854     13.92099  1.62535  0.86267  2.08139  0.19497     0.01719   9813.23762   4957.54301  0.75242         3553.47963     18.53013  0.00188  57184.02429  1.19565  0.47018   2004978.9113  45.21235  21.01877  57233.65863       51.12       44.58097   23.62625  25.38229   34.5    0.39892  -21.61798  0.97483 
  -25.99074  0.02038  3.21306     14.05601  1.71106  0.85913  4.40175  0.08727     0.01179   9765.85461   5070.04877  0.61827         3699.58351     16.17865    1e-05  57185.36926  2.50422  0.08971  1267322.71742  45.38539  21.08485   57236.1223    51.14551       44.63542   17.21922  25.16655   34.5    0.38704  -21.58754  0.99497 
  -25.71376  0.46103  3.14155     14.18745  1.64607  0.70638  3.68744  0.12145      0.0195  10518.17956   4574.13835  0.57385           3581.091      17.1761    8e-05  57185.64624  2.43351  1.70002   636293.69595  45.68735  21.02376   57236.1223    51.12154       44.63575   18.32803  22.73318   34.5    0.38606  -21.61003  0.91204 
  -29.08383  0.24774  3.29328     14.23369  1.88327  0.62016  1.69773  0.25692     0.02994   9694.28005   4976.91302   0.5285         3721.03724     19.00659  0.00564  57182.27617  0.95176  0.42059   646564.15138  45.69789  21.03546   57236.1223     51.1094       44.59521   19.65258  24.22581   34.5    0.37588   -21.5846  0.97893 
  -26.40034  0.00392  3.47099     14.26048   1.8796  0.47981   3.1709  0.11591     0.01682  10756.68069   4727.87246  0.58141         3703.42444     17.53252  0.00019  57184.95966   2.1886  0.01244   633626.99418  45.66017  21.00251   57236.1223     51.1118       44.60353   22.51744  23.98856   34.5    0.38982  -21.66443  0.99929 
  -21.03188  0.05585  3.98461     14.23806  1.99666  0.72402  2.66243  0.13608     0.02751   11143.9404   4923.46762  1.10043         2998.46981     18.00466  0.00056  57190.32812  1.97235   0.1487    983489.5403  45.37561  21.02305  57233.65863    51.05984       44.52295   22.51744  26.49111   34.0    0.40871  -21.60922  0.98987 
  -22.57379  0.13354  3.62858     14.22193  1.93096  0.83324  2.37779  0.14803     0.02584   9680.12996   4990.09965  0.85174         3652.31992     17.28315  0.00011  57188.78621  1.32911  0.31754   849575.23255  45.50594  21.01159   57236.1223    51.13142       44.62287   22.51744  23.84199   34.0     0.3949  -21.59228  0.98141 
  -28.81642  0.00183  3.08425      13.9539  1.65549  1.16595  2.39279  0.18191      0.0274  10203.08365   4820.01083  0.55414          3658.4789     19.05969  0.00637  57182.54358  1.48592  0.00439  1808176.22866  45.25223  20.97284  57233.65863    51.12347       44.62886   20.97714  22.73318   34.5    0.37079  -21.60903  0.99976 
  -19.34028  0.00312  2.66372     13.96527  1.35909  1.07182  1.61665  0.18802     0.04144   9229.58828   4858.64588  0.78869         4292.33977     16.92606    5e-05  57192.01972   0.8215  0.00505   1050772.9254  45.52961  21.01841   57236.1223    51.10665       44.59146   20.99327  24.20968   34.0    0.40528  -21.62174  0.99973 
  -29.58656  0.00158  2.65354     14.21921  1.48334  0.29918  2.31731  0.20195     0.01359   9839.18817   4990.61378  0.67244         3520.73748     18.70448  0.00281  57181.77344  1.33823  0.00366   353420.71991  46.04414  21.00483  57233.65863    51.18372       44.68003   19.86833  23.84199   34.0    0.38135  -21.61503  0.99982 
  -22.38964  0.00275  2.81134     14.15199    1.469  0.63186  2.51988  0.13046     0.02257   9112.16294   4893.24252  0.77103         3901.04378     16.61431    2e-05  57188.97036   1.2481  0.00693   535409.51945  45.80935  21.05421  57233.65863    51.02994       44.46692   23.84199  26.65127   34.0    0.39048  -21.57918  0.99963 
  -25.67258  0.40646  3.25231     14.32541  1.64533  0.41901  1.71047  0.22276     0.04202  10761.74525   4911.06685  0.50895         3427.23581     18.89789  0.00439  57185.68742  1.18171  0.69524    361105.1257  45.90308  21.03754   57236.1223     51.1188       44.58965   22.51744  25.16655   35.5    0.38616  -21.58582  0.95921 
  -28.80872  0.14086  3.37432     14.33858  1.86851  0.39642  2.99435  0.18239     0.01536  10368.81795   4975.06902  0.81584         3085.23769     19.15175  0.00788  57182.55128  1.92038  0.42178   415447.38999  45.86545  20.98688  57233.65863    51.16416       44.65791   21.19288  24.01006   33.5    0.36478  -21.60371  0.97743 
  -26.07642  0.20262  2.47553     13.62737  1.38365  0.98861   1.7502  0.21728     0.01595  10458.40104   4828.13687  0.84305         3235.87707     19.55291  0.01984  57185.28358  1.14194  0.35463  4379596.88563   44.9811  21.03974  57233.65863     51.1447       44.62437   21.19288  25.16655   35.5    0.38992  -21.65259  0.98353 
  -25.46006  0.00166  2.87621     13.98419  1.62037  0.50704  1.38337  0.24198     0.02201  10517.63725   4778.09228  0.77061         3407.24636     18.76734  0.00325  57185.89994  0.91286   0.0023  1338715.72487  45.43413  20.99774  57233.65863     51.2353       44.73836   19.86833  23.89035   35.5    0.39202  -21.64872  0.99988 
  -23.14686  0.15508    2.008     14.81045  1.50431  0.18983  2.64806   0.2199     0.06726  10394.31208   4707.71552  0.66098         3520.30023     19.86903  0.04109  57188.21314  1.70666  0.41066    13482.65767  47.71088  20.98653  57233.65863    51.11313        44.6176   22.30169  22.73318   34.0    0.35241   -21.6381   0.9894 
  -24.14336  0.21278  3.21304      14.6815  1.92901  0.26956  3.71018   0.1138        0.02  10149.99381   4977.72402  0.62069         3683.56588     20.01403  0.05738  57187.21664   2.2801  0.78947    80165.76648  46.63636    21.025  57233.65863    51.13046       44.62843   18.54377  23.84199   34.5    0.37791  -21.66143  0.96447 
  -24.66551  0.00514  3.25469     14.21154   1.6784  0.55042  2.19905   0.1663     0.02466   9837.00181   4905.97629  0.75871         3642.17172     19.36262   0.0128  57186.69449  1.26937  0.01131   623228.95606  45.67407  21.07233   57236.1223    51.25692       44.76941   18.54377  23.84199   34.5    0.39886  -21.60517  0.99933 
  -24.08252   0.0639   3.4745      13.8564  1.99025  1.15106  2.89034  0.13516     0.01283  11285.82238   4808.55399  1.17878         2873.97058     19.44106  0.01534  57187.27748  2.19605  0.18469  4322202.87766  44.85026  20.98057   57236.1223    51.12956        44.6263   22.51744  23.84199   35.0    0.40359  -21.66772  0.99014 
  -23.35608  0.08956  2.79807     14.06493  1.83576  1.12447  4.87699  0.07895     0.01069   9717.52097   4866.32971  0.57897         3916.99424     20.38402  0.13451  57188.00392   2.7472  0.43681   989641.42012  45.64347  21.07372   57236.1223    51.25993       44.75715   21.19288  23.09806   33.0    0.41433  -21.74517  0.98362 
  -23.94489    0.003  3.09277     14.07465  1.58139  0.51146  2.86401  0.09818     0.01374  10280.19326   4879.71586  0.73905         3651.01906     17.39357  0.00014  57187.41511  1.80553  0.00858   995967.27143  45.48894  21.00549   57236.1223    51.10572       44.60188   21.19288  23.98856   35.0    0.41172  -21.62894  0.99949 
  -18.55659  0.03447  2.45141     14.15592  1.72947  1.27732   9.9963  0.04566     0.01478  10781.54383   5006.34005  0.74238         3702.36772      20.2957  0.10976  57192.80341  6.93152  0.34458   470664.83198  46.05521  21.06272   57236.1223    51.17875       44.69223   17.21922  24.42261   33.5    0.39665  -21.74911  0.98919 
  -25.73621  0.00538  3.34058     13.92365  1.73973  0.98708  2.36836  0.18053      0.0194   10595.9558   4761.36224  1.13772         2976.54324     16.29068    1e-05  57185.62379  1.58619  0.01273  2562365.87205  45.05304  20.98389  57233.65863    51.04296       44.50393   21.19288  26.49111   34.5    0.39275  -21.62835  0.99923 
  -27.30874  0.00301  3.16151      13.8899  1.71417  1.02526  1.87204  0.20356     0.02314  10421.27797   4959.66089  0.53114         3507.93647     17.15055    8e-05  57184.05126  1.21279  0.00564  2641521.94498  45.08126  21.00791  57233.65863    51.11527       44.59133   17.21922  25.33462   35.0    0.37788  -21.60939  0.99969 
   -22.5229  0.02262  3.40454     14.25602  1.92357   0.7529  1.52963  0.24679     0.04366    9661.9407   4999.62917   0.8853          3675.5052     19.89822  0.04395   57188.8371  0.85181   0.0346    636808.3102  45.68483  21.04371   57236.1223    51.27136       44.78627   19.86833   22.5658   34.0    0.37947  -21.65369  0.99818 
  -24.75846  0.00118  3.40264     13.91839  1.90512  1.01045  1.36695  0.23662     0.02406  10191.79305   4834.45467  0.70586         3607.26782     16.81266    4e-05  57186.60154  0.84699  0.00161  2982571.49114  45.01054  20.99158  57233.65863    51.06667       44.52755   21.19288  26.49111   34.5    0.41492  -21.62385  0.99991 
  -19.43489  0.04073  3.15133      14.2463  1.72245  0.82208  3.15625   0.1071     0.02639   9089.18033   5007.58721  1.08046         3813.80435     16.68011    3e-05  57191.92511  1.55542  0.12856   510912.76714  45.79966  21.01149  57233.65863    51.12917       44.62956   19.86833  23.84199   34.5    0.39234  -21.60583  0.99322 
  -27.24791   0.0041  2.98679     14.41215  1.64178  0.26591   2.1312  0.19601     0.01412   9016.34376   5109.05506  0.77608         3924.80455     17.28307  0.00011  57184.11209  1.03351  0.00874   203821.17138   46.2245  21.04473   57236.1223    51.11813       44.58082   23.84199  25.16655   33.5     0.3893  -21.61094  0.99955 
  -24.61822  0.20662  3.43278     14.32547  1.72277  0.41852  1.29098  0.27841     0.03922   9877.23046   4955.35709  0.99061         3444.74401     17.13255    8e-05  57186.74178  0.75131  0.26674   421110.91711  45.80939  21.05464   57236.1223    51.11961       44.59135   23.84199  25.16655   34.5    0.40648  -21.61442  0.98326 
  -22.38839   0.0464  3.27519      14.1526  1.68363  0.78292  5.50235  0.06316     0.01147   9699.66163   5016.07125  0.79534         3911.78643     18.35577  0.00126  57188.97161  3.08808  0.25533   830499.78041  45.54528  21.06943  57233.65863    51.19081       44.68936   18.54377  24.42261   34.0    0.38887  -21.61386  0.98499 
  -24.15721  0.00731  3.59221     13.98148  1.74035  0.93813  2.18782  0.17692     0.02597   10672.2902   4777.56881  1.83346         2943.82343     17.36618  0.00013  57187.20279  1.48646  0.01599  2270962.51647  45.04255  21.07276   57236.1223    51.15673       44.64273   21.19288  25.16655   35.0     0.4006  -21.66221  0.99889 
   -21.0799  0.03697  3.33941     14.10956  1.82126   1.3719  4.48547  0.08394      0.0187  10154.30772   4914.40403   0.7907         3752.10928     16.04867    1e-05   57190.2801   2.7589  0.16583  1138665.18966  45.42548  21.02063   57236.1223     51.1201       44.59031   22.51744  25.16655   34.0    0.38808  -21.61918  0.99097 
  -18.96621  0.03557  2.56562     14.04185   1.5826  1.05723  1.66594  0.21874     0.05617  10839.15346    5098.9145  0.68073         3541.00375     20.43706  0.15198  57192.39379  1.16755  0.05926   797756.06952  45.74796  21.00112   57236.1223    51.11477       44.58918   22.51744  25.16655   34.0    0.39744  -21.76237  0.99764 
   -26.2256  0.09501  3.19363     14.06949  1.71682  0.57323  2.59603  0.14606     0.01297  10066.08609   4905.01306  0.85324         3479.44866      17.4131  0.00014   57185.1344  1.56913  0.24665  1180658.19576  45.42288  21.01892  57233.65863    51.12295       44.62141   19.86833  23.84199   34.0    0.40698   -21.6276  0.98634 
  -24.56278  0.19413  3.55366     14.06954  1.92061  1.17769  2.52787  0.14602     0.01904    9310.9936   5112.81901  1.03804         3575.18559     19.84811  0.03916  57186.79722  1.30729  0.49073  1635000.88985  45.23741  21.05049  57233.65863    51.14928        44.6352   21.19288  23.84199   34.0    0.40093  -21.65131  0.97239 
  -20.90416  0.04504  3.22337     14.28291  1.77706  0.72884  7.08764  0.06391     0.01379  10535.78325   4917.57152  0.84587         3448.60924     18.88586  0.00427  57190.45584  4.69313  0.31919   465919.79289  45.83362   21.0625   57236.1223    51.12932       44.61988   19.86833  25.16655   33.0    0.38299  -21.61254  0.98335 
  -20.78974   0.0318  2.94967     14.09379  1.68943  0.84363  2.95724  0.11278     0.02625  11182.34763   5180.14783  0.57108         3447.00778      20.2507  0.09895  57190.57026  2.20587  0.09403   886169.34674  45.60952  21.04266   57236.1223    51.11064       44.58962   22.51744  25.16655   34.5    0.40137  -21.71981  0.99549 
  -20.36702   0.1095  2.93311     14.45601  1.65089  0.43805  7.87316  0.04925     0.01157  10131.63444   4998.29207  0.75214         3720.41817      19.0345  0.00601  57190.99298  4.82098  0.86213   161503.17266  46.34373   21.0484   57236.1223    51.10128       44.56573   22.51744  25.16655   34.0    0.39818   -21.6098   0.9595 
   -23.6311  0.14328  2.66192     13.83826  1.36546  1.32255  3.30356  0.11247     0.01949  10449.31174   4880.87489  0.59764         3765.29534     19.74399  0.03081   57187.7289  2.15171  0.47333  1892148.02154  45.27678   20.9907  57233.65863    51.16204       44.65656   20.97714  24.05774   33.5    0.40796  -21.66438  0.97505 
  -28.27279  0.02577  3.26938     13.94125  1.83786  1.03185  1.81928  0.24986     0.02227   10279.9392   4855.83048  0.63019         3463.89424     18.75117  0.00313  57183.08721  1.14685  0.04687  2390895.50884  45.12566  21.07917   57236.1223    51.13118       44.62658   18.54377  23.84199   34.0    0.39351  -21.62279  0.99753 
  -22.27563  0.00161  3.16482     13.93543  1.63581  1.26364  2.09536   0.1583     0.03579   11250.0305   4942.76434  0.80335         3345.02289     19.59361  0.02179  57189.08437  1.58195  0.00338  2048216.68726   45.1705  21.03091   57236.1223    51.12625       44.63663   19.65258  22.73318   34.5    0.39358  -21.70562   0.9998 
