 log(Bfield)      Mns     Pspin  cutoff_power  cutoff_wavelength  fnickel    kappa  kappagamma   mejecta  log(nhhost)  temperature  texplosion  thetaPB      vejecta      A_V        MJD_0   log(KE)      M_Ni  Peak_mag     Peak_MJD 
    14.77216  1.97724    8.3106       4.01539         3206.24895  0.00555  0.04519     0.33821   3.26806     20.80693   7933.12525    -7.96673  0.42959   8158.39349  0.35617  59892.18266  52.30235   0.28062  18.26056  59913.62243 
    14.62623  1.99278  11.44254       4.32449         4333.14164  0.00249  0.02072     0.41281   0.78878     18.77851   4722.47405    -4.75425  0.93624   1188.24678  0.00334  59895.39515  50.40211   0.07466  18.13809  59913.62243 
     14.7809  1.68619    9.6818       2.71026         4494.52144  0.00282  0.02718     0.15987   1.79179     17.52498   8974.70283    -4.97764  0.41078   4265.93515  0.00019  59895.17176  51.65719   0.11803  18.18138  59912.13886 
    15.15246  1.33956   7.21644       3.71744         3480.41018  0.29047  0.02298     0.19706   7.04637     18.51584   8504.26386      -2.621  0.78066  10165.27335  0.00182  59897.52839  52.57971  17.90361   18.1995  59913.62243 
    14.83255  1.61175   11.1904       3.47853         4274.66356   0.0917  0.01391     0.04196   6.19849     17.54196   9020.73226     -6.2772  0.45007   5150.01055  0.00019  59893.87219  51.97582   5.48183  18.24296  59913.62243 
    14.46578  1.53784   9.38594       1.65237         4560.45373  0.18066   0.0324     0.09089   3.68253     17.04919    6613.6845     -6.6387  1.19122    7126.3073    6e-05   59893.5107  52.19946   9.44009  18.30562  59913.62243 
    14.64613  1.77979   9.93219       3.54089         3655.83721  0.00126  0.02836     0.05796    3.0967     17.37947   7914.30503     -6.6417  0.58668   6059.57127  0.00013  59893.50769  52.03728   0.06275   18.2076  59913.62243 
    15.00928  1.82296  11.01757       1.24222         5790.60332  0.33729  0.02635      0.3598   4.96107      18.7606   3079.61228     -6.2905  0.61099   7248.95584   0.0032  59893.85889  52.24871  19.07805  18.25881  59912.13886 
    14.51423  1.29425   7.06788       0.85502         5040.31361  0.37411  0.03136     0.08228   3.17487     19.37154   8586.91271    -4.89331  0.98948   7332.48726  0.01307  59895.25608  52.20603  18.74583   18.2301  59913.89089 
    14.69918  1.36428  10.31677       3.78824         4197.16584  0.35135  0.02697     0.12689   4.46503      20.4273   9824.32594    -5.39804  0.84395   5636.76037   0.1486  59894.75135  52.01836  19.33812  18.25337  59913.89089 
    14.87633   1.2788   2.76874       0.93751         2675.34245   0.1907  0.03582      0.0437   8.76054     17.08564   6574.82632    -6.16852  0.65449  10010.89603    7e-05  59893.98087  52.58806  12.35476  18.21532  59912.13886 
    15.15302  1.56039  16.12977       4.21156          4366.2669  0.24919  0.01369     0.35386   8.58714      20.0719   3931.21399    -5.96367   1.3948    6631.3856  0.06556  59894.18572  52.22838  16.07174  18.21689  59913.89089 
    14.78784  1.65492  10.15821       4.23162         4275.27025  0.00434  0.01048     0.26159   6.98164     16.43469    9501.0479    -6.72013  0.43292   4055.88551    2e-05  59893.42926   51.7807   0.26704  18.20397  59912.13886 
     15.0302  1.65535   7.37713       2.57326         4389.71615  0.32981  0.02623     0.42533   5.20674     17.57941   4441.76536    -3.14187  1.35671   6249.20951  0.00021  59897.00752  52.12514  18.88573  18.14186  59913.62243 
    14.94036   1.9347    12.041       3.41355         3681.13281  0.07866  0.01038     0.01831  21.32326       19.814   3005.37617    -6.00706  1.06045   8859.34216   0.0362  59894.14233  52.56058   6.10785  18.19836  59913.62243 
    14.83842  1.83805  12.53887       3.79914         3785.05487  0.09661  0.01368     0.28133  13.85037       18.293   8235.49267     -6.5724  0.91879   7534.32051  0.00109  59893.57699  52.38348   6.89889  18.20111  59912.13886 
    14.78762  1.31459  11.23185       3.69495         4201.40406  0.26884  0.03441     0.10356   5.28358     16.89464   8961.05209    -6.84868  0.69691   7164.61346    4e-05  59893.30071  52.24548  15.45127  18.23107  59912.13886 
    14.91352  1.80602  11.19651       3.34138         4348.30448  0.10584  0.01029     0.04182  13.11765     17.58835   7814.65574    -6.55525  1.15271   5231.15482  0.00022  59893.59414  52.06178   7.47525  18.22458  59913.89089 
    14.58126  1.43739   5.93361       2.94946         3058.97513  0.41425  0.02911     0.30815   6.69542     20.90766   4278.74558    -5.71471  1.16903   9261.00949  0.44915  59894.43468  52.49355    25.227  18.28354  59913.62243 
    14.83253  1.56398   7.31176       0.71325         5356.81608  0.08339  0.01205     0.01165   7.99815     17.91849   9615.04123    -6.17153  0.43081   7164.22508  0.00046  59893.97786  52.28853   5.29302  18.21858  59913.62243 
    14.66771  1.44585    5.4791       1.21006         5220.92888  0.06856  0.01038       0.223  15.14763      18.8441   6161.90587    -5.68028  1.13632   5643.72385  0.00388  59894.46911  52.14033   4.98474  18.32192  59913.89089 
    14.84758  1.78285  17.65957       4.39912         4386.08656  0.22659  0.01626     0.19302   6.96764     19.53607   7636.79101    -6.28136  1.27079   5927.18067  0.01909  59893.86803  52.11002  13.92951  18.27926  59913.62243 
    14.62433  1.85555  14.52556       4.99927          4285.8174  0.09388  0.01072     0.20191   9.49381     19.58784   8400.90662    -6.66781  1.20564   5412.05604  0.02151  59893.48158  52.06156   6.19141  18.20095  59913.62243 
    14.86522  1.89379  12.16698        3.1273          4122.8998  0.05465  0.01214     0.01683   9.00504     16.34122   9938.28697    -7.39247  0.45014   6867.67114    1e-05  59892.75692  52.26339   3.56217  18.15889  59913.62243 
    14.94731  1.76325   6.75443       3.56861         3041.83288  0.07748  0.01363     0.01265  20.08827     18.61122   9146.34635    -4.51838  1.06458   9611.25532  0.00227  59895.63101  52.62648   5.94955  18.19013  59913.89089 
    14.88697  1.80484  14.90489       4.62526         4334.32447  0.19542  0.01286     0.02985    7.1597      18.6277      7000.84    -5.47224  1.53221   4233.69819  0.00236  59894.67715  51.82053   12.0905  18.33155  59912.13886 
    15.12119  1.86212  10.93735       4.10451         4199.08806  0.07834  0.03995     0.03265     4.398     16.35362   9286.25158   -10.79066  0.16534   7280.85413    1e-05  59889.35874  52.23893    4.2948  18.28558  59912.13886 
    14.68954  1.75686  18.52918       4.76114         4115.74498  0.39811  0.04051     0.21597   4.08201     17.24289   7470.63241    -7.51634   1.2431   9204.85148   0.0001  59892.63305  52.43398  21.39533  18.20033  59913.89089 
    14.65478  1.60926   9.79998       4.35408         4394.94173  0.00717  0.01558     0.04092    2.7613     17.37694   9388.11016    -6.11431   0.5386   2577.00617  0.00013  59894.03508   51.2799   0.34458  18.20097  59913.62243 
    14.53195  1.66169  10.91389       4.53176         3836.66104    0.105  0.02187     0.39432   9.34667     20.51468   9687.76857    -7.14414  0.98721  10043.00854  0.18172  59893.00525  52.59707     6.901  18.17641  59913.62243 
    14.44651  1.77476   10.0121       2.13596         4286.74524  0.03392  0.02737     0.28708   3.54579     19.66648   9581.91815     -7.0117  1.02711   6978.82595  0.02578  59893.13769  52.17673   1.75376  18.20312  59913.62243 
    14.29697   1.5007   9.19492       2.80591         4530.07499  0.04333  0.01433     0.47035   5.60664     19.96483   8357.42319    -7.77912   0.9213   6695.49616  0.05123  59892.37027   52.1931   2.52763  18.22721  59913.62243 
    14.87021  2.12541  15.02836       3.53063         4043.92348  0.43817  0.02703     0.47814   4.02303     20.53559   9298.86101     -4.3854  1.36285   6733.67672  0.19069  59895.76399  52.16074  23.45578  18.19253  59913.62243 
    15.11354  1.57623  10.63412       4.21816         3968.00194  0.29058    0.027     0.01573   5.49134     16.74948   7589.13611    -3.61934  0.88575    7294.5441    3e-05  59896.53005  52.26529  16.86267   18.2804  59912.13886 
    14.96829  1.72709   9.94857       4.10797         3949.79299  0.00127  0.01332      0.2775   7.07841     16.92744   9296.29801    -7.08334  0.20921   6598.19076    5e-05  59893.06606  52.20478   0.07854  18.23211  59913.89089 
    14.79893  1.74885   13.6707       4.41327          3965.8369  0.39155   0.0354     0.13099   4.15038     20.40765   7992.65692      -5.615  1.14652   7196.79248  0.14203  59894.53439  52.22216  21.13697  18.30748  59913.62243 
    15.02815  2.11806  13.24487       2.37361         3456.69926  0.24249  0.02728      0.0384   7.02945     16.06891   5641.37114    -5.57279  0.88038    9815.3652    1e-05   59894.5766  52.54904  14.93818   18.2467  59912.13886 
    14.77117  1.78767   9.43569       3.23739         4266.14603  0.00417  0.01865     0.02316   3.64821     20.33751   7795.39706    -5.79387  0.48802   3973.31038  0.12085  59894.35552  51.69091   0.21729  18.38048  59913.89089 
     14.3482  1.78461   6.62432       2.03797         3745.16405  0.00652   0.0316     0.19577   3.84489     20.87705   9459.83257    -8.85064  1.25145   5568.55211  0.41858  59891.29875  51.99038   0.34458  18.25345  59913.62243 
    14.69369  1.73395  11.75854        4.0622          4149.0168  0.05697  0.01132     0.02665   8.95639     18.42975   9618.02195    -6.08689  0.66501   6008.87344  0.00149   59894.0625  52.14683   3.70882  18.20336  59913.89089 
    14.52268   1.8052   9.68746       2.44772         3222.93615  0.16005  0.01424     0.24674   7.36974     20.43185   6718.46714    -4.97926  1.48025   8387.03174  0.15017  59895.17013  52.41724   9.96913  18.27667  59913.62243 
    14.47966  1.85397  10.00627       1.88516         4552.33273  0.00901    0.011     0.42256   4.94457     16.24416   7480.67861     -4.9651  1.00093   5657.30487    1e-05  59895.18429  52.03301   0.50926  18.26415  59913.62243 
    14.77213  1.57413    7.8294       2.07701         4082.41386  0.43495  0.03775     0.07653    3.6171      20.0801   9723.56864    -4.49666  1.43082   6645.62967  0.06681  59895.65273  52.13665  22.61449  18.17494  59912.13886 
    14.15678  1.46953   9.33282       4.72019         4311.70868  0.01574  0.01374     0.04644   5.98119      16.4835   4762.43494    -9.80406  1.49645   5535.85639    2e-05  59890.34534  52.03481   0.93262  18.20256  59913.62243 
    14.51644  1.65316   9.52857       2.59175          4108.9135  0.01311  0.02013       0.026   4.82869     16.03806   9434.21988    -6.80014  0.56917   8066.26793    1e-05  59893.34926  52.33849   0.73626  18.25575  59913.62243 
    14.39224  1.57484   9.07686       3.67414         3865.17827  0.02014  0.02294     0.29165   5.50407     16.08951   8841.43592   -10.54506  0.75245   5829.63124    1e-05  59889.60434  52.07082   1.16964  18.19345  59913.62243 
    14.49629  1.83737  11.59953       4.73734         4398.59098  0.01177  0.04025     0.32314   1.19542     18.89266   7037.68673    -5.42537  1.02028   3676.35266  0.00434  59894.72403  51.46254   0.42336  18.30228  59913.62243 
    14.64348  1.67087  10.63076       4.73353         4273.19753  0.03111  0.01327      0.0302   6.47377     19.29594   5196.85408    -8.17279  0.50587   5006.70194  0.01098  59891.97661  51.95585   1.87951  18.19616  59913.62243 
     14.7622  1.76241  12.79178       3.23442         3587.57341  0.31991  0.03296     0.15356   4.76425     18.07326     8895.782    -5.51564  1.46842   8493.03481  0.00066  59894.63375  52.38176  17.90765  18.24814  59913.62243 
    14.65131  1.59391  11.53555       3.96033         3970.00718  0.10946    0.018     0.11998   8.76573     17.74556   9352.90194    -8.99571  0.61663   7636.33626  0.00031  59891.15369  52.35294   7.09216  18.35362  59916.18776 
    14.39967   1.5851   12.0598       4.61494         4337.87164   0.2504  0.02609     0.05986   2.79219     16.44028   8172.54616    -6.03153  0.86953   6560.76496    2e-05  59894.11786  52.09303  12.08181  18.22755  59913.62243 
    14.96112  1.85588  12.36368       2.40385         4313.34824  0.14996  0.01696     0.01363   5.60142      17.6785    9943.8801     -7.0331    0.334    6741.3915  0.00026   59893.1163  52.19893   8.74542  18.27628  59913.89089 
     15.0018   1.5058  12.84437       4.67194         4480.83604   0.1776  0.01207     0.25267   5.18434     19.98393   7506.19606    -5.42852   0.2869   4460.93066  0.05354  59894.72088  51.83187  10.15872  18.16698  59913.62243 
    14.59457   1.8363  11.11205       2.75195         3785.01006  0.22502  0.02718     0.28391   3.51793     19.43057   3284.96458    -5.95982  1.34584    5697.7292  0.01497  59894.18957  51.99961  11.60898  18.23647  59913.62243 
    14.40023  1.72738  10.32413       3.65629         3651.64892  0.10944  0.03326     0.07264   4.40741     18.87475   6624.31934    -8.99474  1.49645   7064.86027  0.00416  59891.15465  52.21302   6.00306  18.26823  59913.62243 
    15.04904  2.17835   17.6251       4.49265         4109.16054  0.49361   0.0299     0.08133   3.98629     20.44562   7800.54826    -5.36012  1.47041   6007.12827    0.155  59894.78927  52.06049  26.35826  18.31532  59913.62243 
    14.93771  2.08472  13.04496       4.52124          3692.3725  0.22875  0.02079     0.06356   7.08891     20.77305   7666.83854    -5.15411  0.59472   8858.89498  0.32944  59894.99528  52.46084  14.11939  18.20767  59912.13886 
    15.15852  1.64407    6.8215       0.75811         5365.85149   0.1776  0.03468     0.13544   4.16642      16.1757    5594.1515    -7.37085   0.2448   6552.91431    1e-05  59892.77854   52.1412     9.597   18.2847  59913.62243 
    15.11073   1.8457  17.30192       4.44855         4118.49664  0.10391  0.01108     0.02374  15.03754     17.59954    8008.4375    -6.26399  0.53239   8173.11763  0.00022   59893.8854  52.46134   7.54419   18.2324  59913.89089 
    14.49461  1.72086   9.19018       2.70312         3543.02312   0.1108  0.01486     0.01746  12.65299     20.70445   7421.12281    -7.49346  1.51971   9378.51337   0.2813  59892.65593  52.56563   7.76738  18.19231  59913.62243 
    15.01481  2.02842  12.40049       2.99613         3880.43276  0.05981  0.01244     0.06762  10.14968     18.41566   8406.04826     -6.4477  0.33144   8507.30898  0.00145   59893.7017  52.46073   4.00219  18.25449  59913.89089 
    14.77801  1.47509   9.18021       4.10986         4036.95438  0.06871  0.03586     0.14244    3.9889     20.11614    7617.3517    -6.95798  0.35076   7215.49298  0.07259  59893.19142  52.21977   3.66943  18.25643  59913.62243 
    14.96294  1.81315   13.9295       2.86164         4520.30481  0.31765  0.02194     0.41254   5.47227     16.89172   8342.45611    -6.46111  1.21372   5654.44721    4e-05  59893.68828  52.04369  18.41763  18.32949  59913.62243 
    14.55071  1.87065  10.89745       2.87569         4324.73807  0.04274  0.01071     0.05058   8.13874     19.10366   9545.52402    -6.62055  1.49464   4588.15025  0.00705  59893.52885  51.90319   2.72337  18.13039  59913.62243 
    14.65523  1.59873   8.59585       1.78311         4482.20382  0.05791  0.01986     0.15711   3.30868     20.19526    7255.1051    -5.58032  0.49296   6077.34906  0.08709  59894.56908   52.0481   2.93646  18.22878  59913.62243 
    14.73682  1.48891  12.61346       4.42208         4136.34264  0.09602  0.01377     0.07176  14.52976     19.38876   8668.00271    -5.29853  1.34567   8676.07105   0.0136  59894.85086  52.51023   6.92313  18.22482  59913.89089 
    15.16095  2.06685   14.5451       2.94604         4390.91737  0.11491  0.01575     0.03613   9.90407      18.0135   6115.93653    -5.98265  0.44309    6654.2883  0.00057  59894.16674  52.24505   7.64878  18.21141  59912.13886 
    14.92048  1.61455  10.51882       4.86309         2841.26095  0.16007  0.02205     0.10035   9.38126     18.62768   9564.08293    -5.06379  0.60926  11456.62654  0.00236   59895.0856  52.71181  10.52896   18.2712  59913.62243 
    15.17196  1.61893   7.11792       2.84624         4639.70304  0.11139  0.01193     0.22355  11.19573     18.62217   7903.44173    -3.21081  0.59765   5258.50076  0.00233  59896.93859  52.05198   7.61141  18.17768  59913.62243 
    14.60377  1.90943   9.87087       2.89028          2886.9319  0.08679  0.01675      0.0206   8.13421     17.28012    8860.8056    -5.99944   1.3738   8396.98513  0.00011  59894.14996  52.42811   5.52981  18.27421  59913.89089 
    14.62252  1.61204   6.83613       1.36003         4279.89744  0.22739  0.03115     0.13432   6.82612     20.62716   3967.85921    -6.58626  1.35775   8327.19347  0.23544  59893.56313  52.40322  13.91123  18.23959  59912.13886 
    15.16533    1.553  11.00949       2.29933         4259.09838   0.1644  0.01043     0.02073   7.61186      17.7888   8093.19741    -6.05727  0.25384   5049.25662  0.00034  59894.09212  51.97972  10.31672  18.25988  59913.89089 
    14.34482  1.51125   9.11765       2.83622         4716.65918  0.00275   0.0243     0.21191   2.03616     17.24173   8506.70244    -5.83705  1.17161   3750.51868   0.0001  59894.31234  51.56413   0.11999  18.30814  59913.62243 
    14.75162  1.80824  10.42701       2.03232         4452.40301  0.04727  0.02351     0.13697   5.27628     16.61262   5097.46644     -8.6553  0.43193   7281.68879    2e-05  59891.49409  52.25941   2.71565  18.20338  59913.89089 
    14.65814  1.72976   17.7955       3.73589         4349.85496  0.33408  0.02175     0.02533   4.75708       20.041   7394.39521    -6.16895  0.95177   7857.39021  0.06106  59893.98044  52.31403  18.69387  18.18791  59912.13886 
    14.88011  1.97631  17.76439       4.85715         4212.40214  0.14557  0.01268     0.02167   8.86801     16.08668    3680.0216    -6.41618  0.80961    6052.3139    1e-05  59893.73321  52.15213   9.45637  18.27266  59913.89089 
    14.52178  1.56409   9.12676       3.02844          4400.4701  0.00163   0.0311     0.25978   2.55521     16.65601   5873.47036    -8.31707  0.74302   3898.62053    3e-05  59891.83232  51.62924   0.07665  18.21417  59913.89089 
    14.35124  1.57276   9.34697       2.72141          4289.7882  0.00661  0.01909     0.03024   4.37515     17.12929   8467.34021    -6.03754  1.44042   5820.81818    7e-05  59894.11185  52.04394   0.36173  18.15339  59913.62243 
    14.51934  1.43907   7.25189       0.61286         2730.81895  0.25473  0.04008     0.12532   5.66118     16.86854   8592.00408    -9.29616  1.20047   9900.49308    4e-05  59890.85324  52.53389  14.89429  18.20815  59913.89089 
    14.66589  1.58009   9.18001       2.51952         3458.45343  0.08937  0.01241     0.11243   7.50015     18.64808   6287.00178    -5.56318  0.63058   6592.31905  0.00247  59894.58622  52.20986   5.58944  18.25769  59913.62243 
    14.96936  1.45405  12.22405       4.64382         3882.36117  0.25412  0.02765     0.03228   5.23543     19.23444   3709.40356    -6.01764   0.4642   7480.04834  0.00953  59894.13175   52.2819  14.57131  18.27861  59916.18776 
    15.01781  1.69031  11.79651       3.56097         4216.20419  0.16764   0.0154     0.06928  10.71887     20.42241   4506.83036    -4.82406  0.76651   8050.62779  0.14694  59895.32534   52.4179  11.34959  18.19414  59913.62243 
    15.04326   1.9874  10.06229       2.06756         4489.54815  0.38052   0.0394     0.30683   4.07247       19.094   3579.56112    -3.54974  1.56329   8130.27375   0.0069  59896.59966  52.32588  20.43712  18.23932  59913.89089 
    14.35119   1.6086  10.34327       4.05759         4272.59574  0.00411  0.01686     0.06834   4.16513     19.50422   8845.65574    -7.56027  1.07507   5095.77195  0.01774  59892.58913  51.92271   0.22181  18.17251  59913.62243 
    14.44165  1.65434  10.89581       3.45586         3885.00457  0.11895  0.02052     0.01794   8.06511     16.30916    5532.5681     -9.9532  0.57133  10753.47313    1e-05   59890.1962  52.64211   7.56411  18.14507  59913.62243 
