 texplosion  fnickel     Pspin  log(Bfield)      Mns  thetaPB   mejecta    kappa  kappagamma      vejecta  temperature    alpha  cutoff_wavelength  log(nhhost)      A_V         MJD0   kenergy  mnickel            TSD   log(L0)  Peak_mag     Peak_MJD  log(E_rad)  log(Peak_lum)  Rise_Time    E_fold  tau_1  delta_m15     r_peak     frac 
    -7.5037  0.00486   8.77062     14.85236  2.13167  0.43104   3.02769  0.04446     0.42504    8327.2838   7220.97807  3.30013         3069.64804      20.5624  0.20283  59892.64569    1.2524  0.01473    300520.1699  45.23363  18.26447  59913.89089     50.5889       44.07354   14.77845  21.22188   36.0    0.56567  -20.65881  0.99559 
   -5.20715  0.00102   12.6267     14.65007  2.18268  1.07062   1.17215  0.01343     0.48552   1155.68314   3951.16708  4.45365         4498.34983     18.27272  0.00104  59894.94225   0.00934   0.0012  1618967.94204  44.19602  18.31383  59913.89089    50.36746       43.74118   16.75722  29.33108   25.5    0.64634  -20.45868  0.99928 
   -7.60528  0.00373    9.8523     14.74602  1.70441  0.46091   3.06833  0.03178     0.09237   6001.01948   9561.41676  2.86641         4351.25888     17.44473  0.00015  59892.54411   0.65914  0.01144   494782.77336  44.81893  18.12875  59913.89089    50.37108       43.74851   12.56954  24.74968   29.5    0.60081  -20.45889  0.99393 
   -3.99378  0.28068   9.20239     14.95888  1.24089  0.99935   6.22409  0.01765     0.11257   5647.46712   6846.29779  4.31078         4220.55026     18.94279  0.00487  59896.15561   1.18416  1.74699   117919.02322  45.36319  18.22455   59912.1413    50.40746       43.75365    14.6623  25.14124   46.0    0.60813  -20.46904  0.44901 
   -4.96542  0.06489  10.32747     14.90823    1.555  0.27631   3.69191  0.01248     0.05521   4563.61402   8949.95128  3.35767         4493.78727     19.74084  0.03059  59895.18397   0.45867  0.23958   235006.00513  45.06151  18.17875  59913.89089    50.39766       43.79753    14.6623  24.75184   34.0    0.62878  -20.48904  0.86063 
   -5.12342  0.00676   9.00173      14.4538  1.85807  1.50153   3.60475  0.01819      0.0639   6831.96537   8864.86879  1.46877         4638.83128     19.23518  0.00955  59895.02597   1.00368  0.02438  1729523.91557  44.39133  18.28273  59913.89089    50.44191       43.93223   14.66446  20.94923   32.5    0.62509  -20.51232   0.9906 
   -5.67663   0.0011   9.84145     14.65051  1.84009  0.70731   3.76624  0.02709     0.04361   7727.76663    9640.1499  2.92103         3682.06216      19.2698  0.01034  59894.47276   1.34166  0.00414   827467.87928  44.62981  18.22924  59913.89089    50.35941       43.78612   12.56738  21.23269   27.5    0.69388  -20.47797  0.99804 
   -6.77175  0.07225   9.52808     14.81669  1.92321  0.62326   6.12199  0.02382     0.04157   8100.15634   7409.49828  1.45405         4379.15948     18.54728  0.00196  59893.37765   2.39611  0.44233   377112.42028  45.01839  18.31189  59914.50857    50.45183       43.74338   14.66446  29.32892   30.5     0.6475  -20.49462  0.84583 
   -6.58922  0.18066   6.87392     14.36094   1.3783  1.53402   3.21563  0.03929     0.20791   7690.76374   7967.51811  1.56286          4298.9087     20.37383  0.13139  59893.56017   1.13457  0.58094  1147331.00693  44.67409  18.30082   59912.1413    50.34567       43.82333   14.77845  23.21146   31.0    0.66412  -20.60493  0.82982 
   -4.90425  0.25228   7.54822     14.97368  1.31985  0.40501   5.06682  0.01471      0.4262   4032.32104   7895.72916  2.36242         4814.22618     19.54023  0.01927  59895.24514   0.49144  1.27827    78825.79559  45.73701  18.18527  59913.89089     50.4408        43.8961   12.68353  21.22188   34.5    0.62725  -20.53939  0.63468 
   -6.30902  0.16306  10.84343     14.77594  1.51997  0.46254   4.99155  0.02426     0.03702    7422.7167   9359.04058  3.63293         3824.24047     16.22489    1e-05  59893.84037   1.64054  0.81394   465705.09067  44.71224   18.2754   59912.1413    50.53625       43.82722   14.77845  33.40477   33.0    0.62598  -20.43763   0.6159 
   -5.59924  0.26508  17.07425     14.93361  1.61718  1.39897   6.73277  0.01774     0.12953   6622.65717   6066.14488  4.18763         4230.64346     19.52071  0.01843  59894.55015   1.76151  1.78469   594356.67263  44.23887  18.25728  59914.50857    50.36032       43.75942   16.75938  29.32892   45.5    0.61862  -20.49695  0.24739 
   -7.04125  0.00317  10.24025     14.77672  1.71233  0.45932   7.74859  0.01026     0.19321   3969.91879   9808.80514  4.41705         4196.10409     16.46509    2e-05  59893.10815   0.72847  0.02456   466211.43691  44.81323  18.15796   59912.1413    50.37111       43.73411   16.75722  29.33108   30.0    0.57795  -20.42885  0.98614 
    -3.2005  0.17076   1.72355      15.1461  1.67102  0.90308   8.17428  0.02144     0.23851   5673.33168   5338.33491  2.85439           3981.805      16.4898    2e-05   59896.9489   1.56947  1.39586     2352.02872  48.64754  18.25625  59913.89089    50.35664       43.80077   14.77845  23.21146   43.5    0.54333  -20.24589   0.9978 
   -4.27781  0.35106   8.89899     14.85248  1.39146  0.82944   4.58115  0.02351     0.07987   8097.79938   7044.57809  1.59965          4907.7505     18.78143  0.00336  59895.87159   1.79199  1.60827    201839.7666  45.20863  18.16319  59913.89089    50.48883       43.86109   14.66446  25.13907   40.5    0.73364  -20.53974  0.51936 
   -5.14836  0.11473  13.07571     14.74003  1.72685  0.72344   6.98752  0.01159     0.27936   5275.74102   6164.68779  4.41296         4382.14375     17.74691  0.00031  59895.00103   1.16016   0.8017   907707.12416  44.31522  18.28835  59914.50857    50.41333       43.82309   16.75722  26.29598   32.0    0.67557  -20.58116  0.57575 
   -7.12328  0.10739   8.29429     15.04063  1.49243  0.27969   4.83834  0.02847     0.34939   5749.19041    8412.4857  2.47227         4404.87447     16.61008    2e-05  59893.02611   0.95398  0.51957    79068.60375  45.70718  18.27079  59914.50857     50.4172       43.83984   16.75722  23.04631   29.5    0.62511  -20.48074  0.80849 
   -6.59152  0.11725   12.9213     14.82495  1.75203  1.10636   11.8794  0.01048     0.17093   5693.45197    7166.7907   3.1612          4399.0058     16.66637    3e-05  59893.55788   2.29706  1.39291   608232.98341   44.5057  18.19252  59914.50857    50.37006       43.81708   16.75722  23.04631   40.5    0.57496  -20.46476  0.45271 
   -5.47963  0.40568   9.56389     14.50919  1.46041  1.25555   4.30898  0.02811     0.10587   8951.01353   3167.64213  3.89618         3117.30457     20.51795   0.1831  59894.66976   2.05943  1.74807  1189004.24134  44.39687  18.26427   59912.1413      50.341       43.89209   12.56954  21.33588   47.5    0.62454  -20.61502  0.47683 
   -6.43662  0.12305  13.56667     14.74372  1.80366  0.95254   8.09309  0.01961      0.2703   7688.55372   7581.75027  3.24831         4520.88946     16.51898    2e-05  59893.71278   2.85385  0.99588  1003418.55792  44.25857  18.22361  59913.89089    50.37778       43.81207    14.6623  24.75184   32.5    0.63619  -20.54214  0.52109 
   -5.11042  0.12798   8.86748     14.98802  1.72447  0.81365    9.8904  0.01494     0.47855   5778.42572   8296.03234  3.04192          4228.0674     17.41626  0.00014  59895.03898   1.96997  1.26577   133053.38942  45.48587  18.26517  59914.50857    50.69517       44.19732    6.28477  20.44584   33.5    0.60796  -20.42937  0.65771 
   -5.29283  0.24732  18.23055     15.07658  1.88134  0.89824   6.13265  0.01464     0.03389   4852.88823   5689.51674   4.8854          4317.2526     17.92158  0.00046  59894.85656   0.86154   1.5167   408053.60262    44.411  18.28969  59913.89089    50.45509       43.82765   12.68353  25.02508   40.5    0.64489  -20.48379  0.29826 
    -5.0999  0.04546   10.9746     14.64426  1.95715  1.13448   4.22655  0.03523      0.2845   8246.12621   9489.02975  4.29224         3705.81266     18.43964  0.00153  59895.04949    1.7144  0.19216  1126419.77032  44.42799   18.3031   59912.1413    50.32909       43.72242    14.6623    31.426   24.0    0.75871  -20.54481  0.90696 
   -6.63498   0.1063   9.26066     14.63913  1.79918  0.84698   4.43746  0.03945     0.22213  10017.48098   8162.61598  2.72202         3154.76114     20.01054  0.05692  59893.51442   2.65631  0.47169    754929.7149  44.71273  18.22281  59913.89089    50.44415       43.85478    14.6623  21.23269   29.0    0.64994  -20.51105  0.83105 
   -4.44365  0.08376   9.32636     14.77361  1.55298   1.4782  12.61412  0.01271     0.03234   5919.47753   9862.16115  4.64419         4288.14035     19.90745  0.04489  59895.70575   2.63664  1.05654    355781.2445  44.96941  18.28799  59913.89089    50.38378       43.80004   16.75722  24.75184   26.5    0.63938  -20.55217  0.63832 
    -3.3472  0.24395  12.12859      14.9066  1.70896  1.51192   5.51769  0.01117     0.14334   3839.15947   3799.09509  3.64235         4435.43442     17.90451  0.00045   59896.8022   0.48513  1.34602   358890.43434    44.779  18.18275  59913.89089    50.38536       43.72709   16.75938  31.42384   33.0    0.71897  -20.47623  0.48577 
  -11.08368  0.02176  11.52245     15.10939  2.04789    0.232   4.42161  0.03677     0.06381   6402.97133   9115.17995   4.1403         4220.37766     16.16966    1e-05  59889.06571   1.08136  0.09623   152557.59515  45.27363  18.29861  59913.89089    50.28011        43.6887   16.75938  26.29382   33.0    0.52988  -20.42949   0.9491 
   -6.00132  0.20623  12.98781     14.96699  2.03455  0.90888   5.57406  0.03982     0.03602   9023.79796   9532.76908   3.4564         4016.60555     17.36402  0.00013  59894.14807   2.70756  1.14953   370993.50289  44.78088  18.10378  59913.89089    50.42183        43.7709   14.66446  25.13907   28.0    0.66188  -20.48611  0.55426 
   -5.52332  0.04349  10.84989     14.71692  1.68725  0.56245   6.38796  0.01101     0.01349   4486.88067   8757.67664  3.62514         4650.49316     18.39465  0.00138  59894.62608   0.76715  0.27783   679203.25881  44.59318  18.24984   59912.1413     50.4497       43.86204   12.68353  23.21146   30.0    0.65664  -20.58045  0.84569 
   -6.35782  0.03906   9.87579     14.86503  1.49028  0.39764   9.92258  0.01312      0.0867    5466.8431   8160.50081  4.47708         4508.17155     17.93688  0.00048  59893.79157   1.76899  0.38757    251287.1649   45.0528  18.13497  59913.89089    50.37536       43.76909    14.6623  25.14124   26.5    0.65779  -20.60886  0.79847 
    -7.0434  0.05607   9.84334     14.71833  1.85092  0.62065    3.8142  0.03269     0.49765   7819.79602    9041.7305  2.04576         4077.34652     19.58465  0.02135    59893.106    1.3913  0.21388   609295.50569  44.76512  18.29679  59914.50857    50.41291       43.87467    14.6623  20.95139   29.5    0.63065  -20.47688  0.90891 
   -7.06015  0.00819   9.88977     14.75086  1.71937  0.45542   7.65837  0.01319      0.1855    6279.2292   9803.78548  3.15036         4187.15895     18.89226  0.00434  59893.08924   1.80126  0.06269   491856.66974    44.822  18.21942  59913.89089     50.3509       43.73313   14.66446  24.74968   30.0    0.61486  -20.49066  0.96775 
   -6.00896  0.30005  13.40636     14.56826  1.73326  1.42071   3.16154  0.03161     0.29574   6831.50698   9129.21022  3.96626         4061.95095     19.10216  0.00703  59894.14043   0.88016  0.94863  2112399.99493  43.92831  18.23121  59914.50857    50.38197       43.83564    14.6623  23.04631   33.5    0.64845  -20.48209  0.52296 
   -6.34211   0.4661   3.12928     15.14592   1.8638  0.57073   4.30287  0.04389     0.10667  11420.80016   7919.96435  0.20538         3091.11828     19.46726  0.01629  59893.80728   3.34794  2.00557      8654.8947  47.61109  18.32996  59913.89089    50.33858       43.71496   18.85214  27.23616   43.0    0.64383   -20.4346  0.94744 
    -7.2677  0.00186  10.71589     15.02303  1.78578  0.25472    7.0139  0.01679     0.32919   6319.62025   9121.09992  4.45588         4015.08532     17.33346  0.00012  59892.88169   1.67097  0.01303   171254.89857  45.22697  18.26874  59913.89089    50.48882       43.98452    14.6623  19.24311   30.0    0.61937  -20.43051  0.99236 
   -5.95201  0.32779   9.57011     14.70919  1.45273  1.09543   4.55081   0.0354     0.21738   6921.22309   8283.47826  3.17283         4293.06425     20.28364  0.10675  59894.19738   1.30041  1.49172   471470.16821  44.79574  18.19465  59914.50857    50.31292       43.74484   16.21276  23.20138   35.0    0.62123  -20.60238  0.51614 
   -7.02709  0.09406    9.6138     14.99973   1.8626  0.48909   9.26818  0.01657     0.15794   6399.12052   6896.61192  2.66218         3761.58938     18.59368  0.00218  59893.12231   2.26393  0.87176   160052.77626  45.36891  18.26265  59914.50857    50.55343       44.02837   14.66446  20.94923   35.0    0.60117  -20.39435  0.72356 
   -7.14033  0.00272  10.81427     14.94296  1.89347   0.3841     4.111  0.03184     0.16868   6808.85291   9968.48737  3.01169         4498.07836     18.26327  0.00102  59893.00906    1.1369   0.0112   267394.33261  45.05096  18.25608  59913.89089    50.36935       43.83443    14.6623  23.04631   25.5    0.67052  -20.53611  0.99392 
   -6.62233  0.04934   9.31973     14.47655  1.85542  1.22908   3.18154  0.04259     0.07262   9502.63087    8234.9248  2.22112         3436.94558     19.69995  0.02784  59893.52707   1.71377  0.15697  1667125.97948  44.37651  18.20733  59914.50857    50.33841         43.792   16.75938  25.13907   30.5    0.63551  -20.51369  0.93831 
   -6.83891  0.06691  11.48657     14.67392  1.79279  0.79647   9.37748  0.01311     0.07338   6733.21939   7981.23595  3.44303         4130.91627     19.02899  0.00594  59893.31048   2.53606  0.62748   986027.03866   44.4081  18.29992  59914.50857    50.40778       43.81304   16.75722  24.75184   32.5    0.62096  -20.51139  0.70405 
   -4.51057  0.15817   8.39598     14.78365  1.54241  1.26164   9.41839  0.01193     0.13934   5617.88102   7943.49982  4.23551         3560.75882      20.0221  0.05846  59895.63882   1.77316  1.48967   273437.75918  45.17204  18.24201  59913.89089      50.694       44.14576   11.15024  20.27361   37.5    0.64409  -20.45392  0.60552 
   -7.88012  0.06785  10.23871     14.69564     1.65  0.67444     7.788    0.021      0.1207   6832.34333   9006.10009  3.24797         4330.14522      16.1953    1e-05  59892.26927   2.16867  0.52839   652383.56589  44.65134  18.19798  59913.89089    50.39605       43.78276    14.6623  27.23616   29.0    0.61099  -20.52321   0.7589 
   -6.11494  0.10553   8.84836     14.78954  1.45151  0.69023   8.42801  0.01812     0.08762   5168.63513   8299.97469  4.16841         4352.37316     20.09881  0.06975  59894.03445   1.34309  0.88937   278146.63351  45.09267  18.16276   59912.1413    50.34171       43.72199    14.6623  27.23616   29.0    0.58312  -20.56725  0.67608 
  -10.33875    0.031  10.67375     14.36118  1.75361  1.54192   3.17465  0.03349     0.06099   5028.09306   6989.15926  4.61468         4386.52392     16.55783    2e-05  59889.81065   0.47877  0.09841  3515731.11761  43.91013  18.25047  59913.89089    50.42024       43.80497    14.6623  23.04631   35.5    0.51127  -20.46071  0.94376 
   -8.64536  0.02223    8.2248     14.75266  1.57567  0.51299   8.14485  0.02789     0.04274    8274.8425   8661.08189  2.40956         4209.01529     16.63157    2e-05  59891.50403   3.32682  0.18103   309179.51929  45.14585  18.27377  59914.50857    50.61599       44.04113    14.6623  21.23269   26.0    0.64373  -20.53096  0.93023 
   -8.53501  0.00447   9.01133     14.68799  1.78684  0.68803   6.10291  0.03322      0.2476   7751.01765   9565.82091  2.89593           3757.524     16.83349    4e-05  59891.61438   2.18717  0.02727   566894.94273  44.85785  18.25834  59913.89089    50.33077       43.79677    14.6623  23.04631   25.5    0.61047  -20.43985  0.98887 
   -5.72386  0.02255  11.08547     14.59495  1.90008  0.85469   2.83417  0.04724     0.35061   8446.92855   9056.60382  4.55077             3883.0     18.49366  0.00173  59894.42553   1.20629   0.0639   1400228.7721  44.31191  18.29979  59914.50857    50.39472        43.7422   16.75938    27.234   27.5    0.69361  -20.55699  0.96457 
  -10.05428  0.01883   10.4445     14.48087  1.73827  0.91279   7.35833  0.01722     0.07324   5125.84922   8684.88797  4.55883         4374.91708     19.37763  0.01325  59890.09512   1.15329  0.13857  1922919.07604  44.18723  18.17193  59913.89089    50.32649       43.76418    14.6623  24.75184   33.5    0.51153  -20.47821  0.92498 
    -5.2514  0.27341   6.30483     14.80004  1.76625  1.29115   5.05863  0.04237     0.39091   9585.46587   8352.56117  2.19224         2918.01308     19.16301  0.00809  59894.89799    2.7726   1.3831   163734.39484  45.70241  18.24004  59913.89089    50.34066       43.75055   14.66446  24.74968   31.0    0.63026  -20.41972  0.78541 
   -9.02961  0.01978   9.56711     14.55075   1.5281  0.74489   8.99537  0.01389     0.04422   4354.27378   9809.03982   4.8571          4345.2418     17.34812  0.00012  59891.11978   1.01737  0.17797   1028078.5542  44.47941  18.16214  59914.50857    50.34709       43.73094   14.11784  23.59077   30.0    0.53326  -20.45156  0.90481 
   -5.88933  0.20439  12.23459     14.50539   1.5124  0.87024    3.6746  0.02142      0.0209   6213.44919   8421.59616  4.25234         4437.53089     16.29955    1e-05  59894.26006   0.84626  0.75105  2050622.48662  43.96145  18.31142  59913.89089     50.4325       43.80623    14.6623  27.23616   34.5    0.64758  -20.55058  0.57322 
   -7.86591  0.08541   9.43348     14.64766  1.49263  0.58256   5.15106  0.02333     0.03416   5876.27001   8821.08494  2.95485         4516.47091     19.21096  0.00903  59892.28348   1.06103  0.43993   624862.87245  44.69767  18.21787  59913.89089    50.53503       44.13292   11.15024  17.67529   31.0    0.59412  -20.52414  0.79265 
    -7.7793  0.26446  12.58538     15.09123  1.61449  0.29359   4.68621   0.0164     0.12909   4474.76946   6597.84047  2.61115          5474.5862     20.10101   0.0701  59892.37009   0.55975  1.23931   156000.68193  45.08402  18.18114  59914.50857    50.52338       44.02141   12.56954  18.85431   40.0    0.57534  -20.68095  0.46195 
   -5.50022  0.34356  15.94705     14.73998  1.77653  0.83696   3.38619  0.02752      0.0658   6027.91981   6514.17842  4.87974         4249.77934     18.95694  0.00503  59894.64917   0.73396  1.16335  1389295.02153  43.97026  18.20296   59912.1413    50.35838       43.75736   16.75722  25.14124   38.5    0.62961  -20.52214  0.39523 
   -6.14068  0.18365   8.07371     14.96209  1.51623  0.46617   6.08008  0.03027      0.0508   8338.12284   8877.82871  2.31627         3653.03735     16.14281    1e-05  59894.00871   2.52158  1.11662   109281.94667  45.59692  18.32366  59913.89089    50.37578        43.8388   16.75722  21.23269   29.5    0.66247  -20.43889  0.68121 
   -4.74612  0.11511  11.42207     14.87489  1.72744  1.34258  11.09108  0.01505     0.02981   5998.77117   9737.08316  4.22213         4365.40567     19.07301  0.00657  59895.40328   2.38081  1.27669   372332.39949  44.81983  18.26521  59914.50857    50.39192         43.811   14.66446  24.74968   31.5    0.58446  -20.48856   0.5326 
   -5.06328  0.17953  12.99389     14.76039  1.85414  1.19382    6.1405  0.01891     0.16474   6289.12685   7369.86372  4.57145         3834.20481     20.03132  0.05971  59895.08611   1.44881  1.10237    876307.8325  44.36685  18.23645  59913.89089    50.37122       43.81798   14.77845  26.73061   33.5    0.67678  -20.48994  0.52868 
    -6.4698  0.04768   8.67079     14.90839  1.72507  0.42788   6.74812  0.01773     0.28705   6689.85442   7972.58796  1.51995         4921.33835     17.00557    6e-05  59893.67959   1.80154  0.32176   183640.22513  45.36557   18.2307  59914.50857    50.37598       43.79178    14.6623  23.04631   28.5    0.66915  -20.51504  0.88564 
