 log(Bfield)      Mns     Pspin  cutoff_power  cutoff_wavelength  fnickel    kappa  kappagamma   mejecta  log(nhhost)  temperature  texplosion  thetaPB     vejecta      A_V        MJD_0   log(KE)      M_Ni  Peak_mag     Peak_MJD 
    13.56746  1.86736   4.08889       0.98714         2424.78135  0.03609  0.03993     0.01443   6.80768     20.87429   7763.10449    -9.64739  1.48316  5309.92464  0.41593  58192.65611  52.01212   2.20656   18.4251  58260.45486 
    13.89261  1.90689   3.74899       1.30791         2295.56508  0.00978  0.03373     0.01547   6.57294     20.97248   6445.46556    -9.45028  0.42261  5534.70424  0.52145  58192.85322  52.04451   0.59326  18.45247  58265.26172 
    13.76399  2.01428   5.15272       0.48364         2656.41889  0.07282  0.05586        0.02   6.62365     20.62929   6492.72598   -11.65092  1.25271  4828.45008   0.2366  58190.65258  51.92674   4.42341  18.42493  58263.28906 
    13.60414  1.76059   4.15395       1.90573         2089.47043  0.26053  0.03564     0.01135  10.24018     20.98269   7368.27345   -10.52611  1.17719   5302.3179  0.53385  58191.77739  52.05091  17.46687   18.4398  58262.49079 
    13.69903   2.0139   4.83697       0.38797         2227.51904  0.08572  0.03649     0.01383  10.30671     20.77136   3334.85482   -10.94555  1.30692  5537.20637  0.32816  58191.35795  52.08917   5.75516  18.40829  58266.38152 
    13.58536   1.8689   4.99702       1.86437         2241.68843  0.36423   0.0476     0.01381   7.64574     20.56777   3921.67008    -9.08747  1.09576  5286.60362  0.20535  58193.21603  52.02006  22.88001  18.43465  58258.76235 
    13.62996  1.96892   5.10871       0.30132         3140.24389  0.49905  0.03955     0.01436    8.0299     20.82945   6548.58839    -9.03247  1.16619  5485.26833  0.37512  58193.27103  52.05698    31.703  18.41495  58264.38858 
    13.49321  1.85744   3.95323       0.12826         3171.94335  0.00406  0.04436     0.01445   5.50078     20.74092   9366.89357    -9.93312  1.38539  5485.86932  0.30595  58192.37038  52.01797    0.2356  18.43299  58264.38858 
    13.33666  1.53204    3.1533       0.00135         3055.92258  0.01212  0.03538      0.0198    4.7244     20.76822   7828.40838    -9.03363  0.99382   6185.3742  0.32579  58193.26987  52.10543   0.67688  18.43258  58262.49079 
    14.01581   2.0042   4.03704       0.47991         2298.48026  0.01476  0.03675     0.01728   7.00782     20.99008   8876.73169    -9.86558  0.40476  5656.11579  0.54301  58192.43792  52.06995   0.90851  18.42877  58262.49079 
    13.52273  1.67708    4.0922       0.31509         2662.81251  0.06878  0.04617     0.01763   6.83033     20.55879   3195.26779   -10.09969  1.04009  5687.31364  0.20115  58192.20381   52.0721   4.20814  18.42989  58266.21923 
    14.07145  1.91407   3.86727       0.26048         2691.20594  0.02025  0.02874     0.01157   9.35463     20.97999   8846.99444   -11.13057  0.32051  5431.10586  0.53054  58191.17293   52.0632   1.33086  18.41642  58263.27344 
    13.35054  1.47961   2.89628       0.04563          2096.0312   0.1728  0.02316     0.01504   4.90543      20.9571   4981.85755    -7.18235  1.04495  5892.81155   0.5033  58195.12115  52.06755   9.74604  18.46392     58265.95 
    13.65295  1.73377   4.05709       0.76841          2481.9436  0.16386  0.04288     0.01629    6.0971     20.87444   8882.52289    -8.51942  0.93612  5337.65744  0.41607  58193.78408  52.00517   9.75694  18.43409  58262.49079 
    13.46343  1.89865   3.67344       1.35258         2180.34983  0.02512  0.04798     0.01614   4.22257      20.8995   3749.81928    -9.03145  1.53895  5248.15223  0.44079  58193.27205  51.94989   1.36233  18.42871     58265.95 
    13.36958  1.74445   3.29454       0.13802         2466.81099  0.00158  0.03139     0.01796   4.35198     20.87126   9555.37819    -8.38357  1.30175   5889.7126  0.41304  58193.91993  52.05355   0.08658  18.43574  58260.45486 
    13.76872  2.16298   4.99947       0.01699         2247.73202  0.18619  0.02516     0.01194  10.02863     20.88472   7721.57842    -8.94826  1.20994  5589.48811  0.42604  58193.35524  52.09477   12.4267  18.41954  58265.26172 
    13.68972  1.73188   4.07438       0.23003         3419.21104  0.00845   0.0294     0.01036  10.74812      20.7662   8932.30257   -10.86383  0.79501  5290.62957  0.32429  58191.43967  52.05351   0.57219  18.40951  58260.45486 
    13.54621  1.71442   3.61989       0.14448         2763.43543  0.09991  0.04507     0.02316   4.14371     20.88629   8489.55625    -8.62329  0.93212  5739.93543  0.42758  58193.68021  52.02551   5.39083  18.41812  58260.45486 
    13.73615  2.06496   4.81949       0.21054         2202.58952  0.00162  0.06059     0.02629   5.10364     20.75749   5763.57173   -10.52019  1.20952   5493.9809  0.31784  58191.78331  52.01107   0.09211   18.4022  58264.38858 
    13.62206  1.91545   4.49417       2.04372         2071.46085  0.03425  0.02871     0.01043  12.24432     20.68291   7205.74469   -10.30983  1.13229  5665.69263  0.26769  58191.99367  52.12492   2.38453  18.41712  58262.49079 
    13.46598  2.01997   3.51445       0.13502         2332.41979  0.00685  0.04026      0.0174   4.23982     20.98035   7872.79142    -9.62783  1.35179  5700.42994  0.53098  58192.67567  52.02217   0.37199  18.42169  58264.38858 
    13.61877  1.69977   3.64179       0.16634         3291.96369  0.02327  0.03956     0.01549   5.94546     20.93738   7449.23116   -10.01431  0.90433   5087.0012  0.48095  58192.28919  51.96073   1.37717  18.39434  58262.49079 
    14.14393  2.18397    14.612       1.24236          2185.7398  0.23942  0.02907      0.0144  27.58506     20.28094   3775.69541    -8.61715  0.60847  6390.74418  0.10609  58193.68635  52.29722  19.48265  18.41641    58269.172 
    13.25511  1.50219   2.57055       0.03735         2621.92481  0.03862  0.03074     0.01804   4.62721     21.06407   4969.90097    -8.67714  1.16104  6305.68583  0.64387  58193.62636  52.11982   2.14549  18.41119  58260.45486 
    13.46468  1.45263   3.53126       0.34778         2278.44693  0.29096  0.04108     0.01696   6.19024     20.87972    8405.5382    -9.29605  1.03189  5577.74933  0.42116  58193.00745  52.04498  17.38911  18.42571  58264.38858 
    13.63232  1.68831   3.89874       0.28761         2242.50224  0.00101  0.02699     0.01156   9.53515     20.80894   8577.35344   -10.30234  0.90083  5366.85874  0.35782  58192.00116  52.05469   0.06668  18.42819  58264.38858 
    13.51937  1.76285   4.17818       0.10365          2941.7002  0.44408   0.0374     0.01734   4.83169     20.77466   4157.57722    -7.76868  1.26042  5389.20668  0.33067  58194.53482  51.98826  24.94882  18.45493  58263.28906 
     13.6243   1.8441   4.64845       0.35508         3690.87332  0.02359  0.02915     0.01147  11.35774     20.64138   3937.03682   -10.96693  1.35591  5248.05477  0.24328  58191.33657  52.05158   1.61662   18.4271  58263.27344 
    13.39816  1.65603   3.04509       0.04346         2213.54659   0.0211   0.0215     0.01792   5.18052     21.01371   6795.69955    -8.01945  1.17504  6076.33125  0.57338  58194.28405  52.10022   1.20674  18.40847  58260.45486 
    13.58879  1.57027   3.97688       0.17566         4724.53264  0.01518  0.03514     0.01158   9.91195     20.74411   9612.47348   -11.78014  1.19134  4785.85056   0.3082  58190.52336  51.95884   1.01023  18.43073  58260.45486 
     13.5781  1.53456   3.54479       0.89235         2343.31827   0.0787  0.02972     0.01046  10.38836     20.92713   9182.87072    -9.87199  0.87028  5300.85025  0.46974  58192.43151  52.05202   5.29258  18.42113  58260.45486 
     13.4479  1.67931   3.54984       0.22037         2896.37597  0.00179  0.05481     0.01957   4.64582     20.88561   9906.17891    -10.4035   1.4487  5467.00747  0.42691      58191.9   51.9963   0.09945  18.42063  58260.45486 
    13.56849  1.52043   4.11876        0.2632         3014.46953  0.42114  0.04032      0.0104   9.22949     20.84184   6624.81958   -10.51491  0.83639  5351.08491  0.38598  58191.78859  52.04902  27.60155  18.44226  58265.26172 
    13.57477  1.73413   4.01279       1.31743          2093.8827  0.00758  0.04097     0.01606   6.89007     20.68381   6518.53176    -9.79466  0.93327   5652.7852  0.26825  58192.50884   52.0677   0.46496    18.346  58264.38858 
    13.33101  1.43912   3.29353       0.04292         2081.89547  0.09262  0.03698     0.01199   6.62639     20.69492   4298.35943   -10.84704  1.20995  5375.72493   0.2752  58191.45646  52.02004   5.62655    18.418  58265.26172 
     13.3321  1.27517   3.07675       0.12816         3999.86482  0.03119  0.03497     0.01185    7.7603     20.86355   8644.18925   -11.29587  1.56141   5040.2075  0.40577  58191.00763  51.98009   1.96583  18.43561  58265.26172 
    13.62503  1.98149   4.04475       0.25353         3367.75903   0.0646  0.03466       0.015   5.99857      20.9811   6818.84731    -9.30543  1.50726  5172.37852   0.5319  58192.99807  51.97613   3.83116  18.40037  58262.49079 
    13.75576  1.72871     3.896       0.01835         3252.96697  0.00282  0.03105      0.0118  10.16932     20.88331   9401.96379   -10.81262  0.71824  5331.70887  0.42466  58191.49088  52.05506   0.18848  18.35631  58262.49079 
    13.54895  1.45884   3.18409       0.09327         3442.11643  0.06643  0.02853     0.01289   8.45609      20.9848    9488.0363   -10.11116  0.78625  5636.08375  0.53645  58192.19234  52.08562   4.26956  18.42001  58263.28906 
    13.49121  1.63696   3.41698       0.12525         2920.70865  0.01511  0.02739     0.01373   6.48963     20.96483   9280.72723    -8.86839  1.23071  5572.92944  0.51234  58193.43511  52.04917   0.91325  18.42923  58265.26172 
    13.09072   1.2329   2.55797       0.28395         3702.49966    0.093  0.04433     0.01047   5.79655     20.71789   5631.69251    -10.4394  1.18091  5298.96368  0.29015   58191.8641  51.99349   5.46993  18.42958  58265.26172 
     13.3896  1.68761   3.50858       0.24182         3303.04599   0.0575  0.03438      0.0105   7.81822     20.85359   5652.21667    -10.5819  1.52332  5488.17587  0.39657   58191.7216  52.05479   3.63083  18.39673  58265.26172 
    13.51601  1.67119   4.00298       0.23532         3253.40207   0.0323  0.04914     0.01985   4.87665     20.62796   4684.23889    -9.78071  1.16924  5372.46253  0.23588  58192.52279  51.98659    1.8191  18.41188  58263.28906 
    13.47618  1.59147   3.82189        0.6715         2969.32549  0.03348  0.03675     0.01032   8.81067     20.78315   5275.64892   -11.71007  1.47327  4888.87579  0.33719  58190.59343  51.96608   2.17149   18.4228  58260.45486 
    13.37302  1.61304   3.02606       0.08832         2340.32366   0.0332  0.02379     0.01971   4.53321     21.01353   8345.62446    -7.30169  1.47627  5931.53376  0.57313  58195.00181  52.06436   1.83458  18.42005  58260.45486 
    13.42402  1.76826   3.95708       1.62423         2052.80167  0.01133  0.04019     0.01332    7.9707     20.54239   7383.57985   -11.68816  1.55424  5491.33083  0.19369  58190.61534  52.05721   0.71843  18.40158  58262.49079 
    13.61918   1.8239   4.57004       2.10112         2091.63413  0.06078  0.04389     0.01438   7.74455     20.61768   6298.06477    -9.95071  1.23717  5167.99262  0.23036  58192.35279  52.00164   3.82931  18.41367  58266.38152 
     13.5985  1.85838   4.14234       0.08147         2388.53492  0.42444  0.03272     0.01657   5.55524     20.95624   6165.25446    -8.16905  1.49555  5494.60242   0.5023  58194.13445  52.02041  24.70196  18.41231    58269.172 
    13.52611  1.55462   3.89064       0.00241         3144.73409  0.23951  0.03201     0.01469    7.7912     20.81479   9797.35406     -8.7258  1.03524  5782.67702  0.36267   58193.5777  52.09985  15.11069  18.42226  58265.26172 
    13.42391  1.59985   3.02804       0.03031         2703.64461  0.01592  0.03459     0.01825   4.44657     21.00792   8466.17784    -8.92657  1.04632      5803.2  0.56579  58193.37693  52.04316   0.87532  18.40839  58263.27344 
      13.761  1.76435     3.802       0.46287         2514.03155  0.11266  0.03676     0.01522   7.64793     20.99865   7476.07164    -9.78938  0.70953  5284.56847  0.55383  58192.51412  52.01976   7.07778  18.43034  58258.43949 
    13.58084  1.92204   4.24337       0.09293         3970.67692  0.00267  0.02581     0.01236   8.15631      20.7991   8973.81905    -8.90681  1.46256   5482.3028  0.34981  58193.39669  52.05805   0.16994  18.41247  58260.45486 
    13.91778  2.06967   4.85526       0.22077         3118.94446  0.14427  0.04338     0.01485   7.71644     20.87137   6372.40173   -10.39016  0.73583  5098.02145  0.41314  58191.91334  51.98943   9.08192  18.40603  58264.38858 
     13.5009  1.67941   3.85416       0.08971         3004.23941  0.29654  0.03091     0.01403   7.41737     20.93397   7907.35511    -9.28329  1.47777  5692.94056  0.47719  58193.02021  52.08134  18.49821  18.40911  58263.27344 
     13.6483  1.92401   4.49496       0.44491         3580.97505   0.3484  0.04865     0.01616   5.40592     20.83419   8985.25571    -9.02426  0.98971  5137.64793  0.37925  58193.27924  51.95912  20.13882  18.43092  58258.76235 
    13.56132  1.57799   3.48466       1.08144         2096.88011  0.03219   0.0323     0.01234   8.84165      20.9582   8431.45032    -9.69871  0.98882  5262.41685  0.50458  58192.60479  52.03037   2.09002  18.40364  58266.38152 
    13.52678  1.79532   3.83213       0.62023         3567.04634  0.19768  0.04568     0.01303   5.82076     20.97548   7453.65146    -9.16314  1.39426   4886.3298  0.52506  58193.14036  51.92351  11.63813  18.40652  58265.26172 
    13.21802  1.35918   2.68081       0.03862         2427.70414  0.01451  0.01527      0.0134   7.59193     20.95587   8427.34729     -7.1442  1.32236  6399.00995  0.50188   58195.1593  52.18523   0.90976  18.42459  58260.45486 
    13.64585  1.94818   4.32691       0.37649         3504.17736  0.13157  0.03598       0.012   7.88741     20.90393   8805.02903    -9.56727  1.21471   5092.7325  0.44531  58192.73623  51.99071   8.32433  18.41434  58263.28906 
     13.6798  1.86127   4.76314       0.18761         3063.43125  0.22976  0.03079     0.01246  10.24481     20.81981   6366.69788    -9.53327  1.11109  5469.07851  0.36689  58192.77023  52.07785  15.40534  18.36078  58262.49079 
     13.3423  1.67049   3.47924       3.01099         2097.48891  0.07357   0.0575     0.01142    6.2575     20.74189   3251.91925   -12.69816  1.42472  5051.33532  0.30663  58189.60534  51.96001   4.40843  18.43917  58260.45486 
    13.52413   1.6403     3.487       0.20735         3219.59185  0.04582  0.03147     0.01269   7.70988     20.97948   8622.10351    -8.84343  1.17872  5520.51904  0.52992  58193.46007   52.0585   2.88368  18.43681  58266.38152 
    13.71159  1.63711   4.35374        0.5135         3817.73794  0.01439  0.03331     0.01328  10.77273     20.60532   8682.55093   -10.34054  0.77671  5135.76034   0.2239  58191.96296  52.02792   0.97539  18.42602  58258.43949 
    13.58228  1.66058    3.6375       0.27893         3227.27899  0.01044  0.05559     0.02127   5.50576     20.97132   6103.91068   -10.85395  1.24268  5093.28529  0.52005  58191.44955  51.95357   0.60611  18.40716  58260.45486 
    13.57828  1.92311   3.87334       0.11164         2204.06511  0.08392  0.04328     0.02591   3.70149     20.88223   5426.11985    -8.27546  1.01018  5995.00819   0.4236  58194.02804  52.04993   4.39123  18.41933  58262.49079 
    13.70172   2.1624   4.05631       0.01217         2408.40343  0.02374  0.04587     0.01536   5.41158     21.01132   6211.51208   -10.34304  1.15448  5337.79352  0.57022  58191.96046  51.99243   1.37289  18.45411  58264.38858 
    14.04275  1.91493   9.38391       1.12529         2493.71103  0.33843  0.02695     0.01034  18.74048     20.63383   3179.17167    -9.29514  0.72929  5544.90384  0.23909  58193.00836  52.14299   25.6476  18.42126  58262.49079 
    13.53888  1.76255   3.97684       0.04882         4054.71248  0.00696   0.0633     0.02324    4.9329     20.78852   6908.68594   -12.06117  1.26662  5397.13033  0.34138  58190.24233  51.99185   0.39309  18.41487  58260.45486 
    13.64642  1.97145    4.2096       0.25052         3051.67942  0.24873  0.03935     0.01641   6.15543     20.97367   4630.88665     -8.8802  1.25688  5372.48966  0.52287   58193.4233  52.01182  14.84506  18.41484  58264.38858 
    13.49275  1.84309   3.67728       0.78134          2713.5677  0.01904   0.0407     0.01329   5.61096     20.93144   5243.81528    -8.91718  1.51386  5212.36085  0.47442  58193.38632  51.97568   1.11061  18.43552  58263.27344 
    13.59935  1.67248   3.47318       0.67245         2467.43128  0.00644  0.03552     0.01047   8.11476     20.97885   8501.55503   -11.00775  0.89396  4978.41343  0.52915  58191.29575   51.9738   0.41028  18.43405  58262.49079 
    13.63708  1.68101   6.59623       0.04566         3643.40588  0.39544  0.02928     0.01429  15.01188     20.69737   5656.14021   -10.61318  1.10936  5786.26299  0.27675  58191.69032  52.16121  28.69935  18.41889  58262.49079 
    13.56353  1.79126   3.87067       0.38161         2567.33951   0.0721  0.04084     0.01538   5.48853     20.92148   8859.13804    -9.43332  1.52757  5071.20773  0.46366  58192.87018  51.94946    4.1835  18.41098  58264.38858 
    13.39656  1.70268   3.74171       0.28555         2409.73679  0.26384  0.04169     0.01366   6.51751     20.75976   3793.48651    -9.71508  1.23602  5616.45688  0.31951  58192.58842  52.05637  15.96485  18.41643  58266.38152 
    13.59269  1.74508   3.80021       0.19357         3396.19681  0.00864  0.03561     0.01298   8.20785     20.83931   7279.78596   -10.42157  0.87509  5522.13202  0.38374  58191.88193  52.06496   0.55144  18.45225  58263.27344 
    13.77182  1.71331    3.6161        1.2825         2086.09924  0.30406  0.04944     0.01658   5.73627     21.00696   9261.25073    -9.54982  0.53316  5549.91728  0.56454  58192.75368  52.03256  17.83702  18.38687  58260.45486 
    13.47473  1.69176   3.22099       0.24714         2174.18483  0.00117  0.03642     0.01037   6.40078     21.01424   8260.00011   -10.01687   1.4067  5119.71466  0.57407  58192.28663  51.97406   0.07019  18.43043  58266.38152 
    13.56624  1.62531   3.68689       0.89522         2194.34893  0.01352  0.04218       0.016   6.53402     20.85732   8149.10918    -9.52384  0.96447  5431.40127  0.39999  58192.77966  52.02753   0.81845  18.45097  58264.38858 
    13.58362  1.69665    3.5578       0.64545         2033.06745  0.00406  0.03137     0.01207   6.77882     20.81473   6645.61401     -9.2322  0.74307  5611.48455  0.36263   58193.0713  52.05966   0.24802  18.34743  58262.49079 
    13.56553  1.76477   3.41815       0.14605         3690.66493  0.00234  0.03469     0.01284   7.74415     21.06293   5588.73931    -10.3298  1.24316  5376.43716  0.64218   58191.9737  52.03598   0.14741  18.39262  58266.38152 
    13.52017  1.60693   2.84574       0.07898         2829.50832  0.00107  0.03296     0.02131   3.98483     21.06993   8178.75977    -8.81623  0.72645  5922.60104  0.65262  58193.48727  52.04814   0.05715  18.43132  58265.26172 
    14.01183  1.88793   4.67293        0.2281         4079.42129  0.03163  0.03172     0.01155  10.19885     20.67002   6675.34271   -10.30606  0.43608   5150.3565  0.25986  58191.99744  52.02528   2.11859   18.4345  58262.49079 
    13.59199  2.01705   4.32985       0.33488         2298.93259  0.01239  0.05687     0.02115   4.18313     20.70227   3754.15999    -9.95254  1.19479  5429.99699   0.2799  58192.35096  51.97839   0.67019  18.45375    58269.172 
    13.45284  1.54478   3.28943       0.32362          2204.7557  0.07434  0.03099      0.0109   6.72909     20.94633   9355.45962    -9.35425  1.36428  5115.61519  0.49097  58192.94925  51.97855   4.53282  18.42016  58258.76235 
