 texplosion  fnickel     Pspin  log(Bfield)      Mns  thetaPB   mejecta    kappa  kappagamma     vejecta  temperature    alpha  cutoff_wavelength  log(nhhost)      A_V         MJD0  kenergy  mnickel               TSD   log(L0)  Peak_mag     Peak_MJD  log(E_rad)  log(Peak_lum)  Rise_Time     E_fold  tau_1  delta_m15     r_peak     frac 
   -9.70309  0.00127   4.43179     13.71873  2.10093  1.43251   2.99656  0.05217       0.048  6114.09376   8081.51924  0.11064         2042.84491     20.90022  0.44151  58192.60041  0.66821   0.0038    13993622.00865  44.15217  18.39004  58270.27344     51.1243       44.23007   27.88471   74.93434   75.5    0.05451  -20.91012  0.99967 
   -9.78605  0.01703   2.95403     13.53173  1.56052  0.98398    5.3586  0.03848     0.01867  5579.63127    8261.4122  1.76216          2043.1883     21.10232  0.70315  58192.51745  0.99515  0.09128    10926062.36483  44.48282  18.41766  58264.38858    51.12817       44.21026   32.31192    75.7799   77.5    0.04581  -21.13022  0.99454 
  -11.18519  0.00137   3.53909     13.54466  1.76767  1.14028   5.96183  0.03316      0.0151  5350.50356   8379.57507  0.52605         3443.15473     20.97904  0.52938  58191.11831  1.01811  0.00818    16737206.98682  44.19478  18.42424     58265.95    51.00984       44.03615   34.06271    90.9167   78.5    0.05033  -20.96762  0.99939 
   -10.0591  0.43221   4.14586     13.87252  1.69402   0.5641   7.29903   0.0328     0.01869  6130.62674   8055.97556  0.61562         2097.88586     20.96934  0.51769   58192.2444  1.63645  3.15472     4863200.53936  44.57561  18.40117  58265.26172    51.04265       44.09375   34.27302   84.36435   75.5    0.04993  -20.97491  0.74899 
   -8.20822   0.4822   6.09742     13.73086  1.45351  0.97446  12.77571  0.02449     0.01421  6443.76984   7741.77382  0.76058         2394.76762     20.78338  0.33737  58194.09528  3.16441  6.16047    17330295.97522  43.62217  18.41769   58272.2185    51.14794        44.2048     30.606   83.82739   80.0    0.05564  -20.77828  0.34948 
   -9.80714  0.32596   4.21553     13.78267  1.77571  0.82182  11.04895  0.02591     0.01149  5763.39985   8022.09872  0.70231         2865.94175     21.02642  0.59041  58192.49636   2.1893  3.60148     7971623.65042  44.36697  18.38833  58270.29902    51.38762       44.57526   27.11616   55.63292   79.0    0.05614  -21.03288  0.73317 
   -9.12391  0.49149    5.6939     13.26198  1.76512  0.49649  15.94681  0.03199     0.01122  6351.39664   7536.95956  0.21197          3697.8344     20.55936  0.20141  58193.17959  3.83742  7.83774   159021279.30919  42.80335   18.3952  58267.31463    51.10659       44.15702   36.86439   81.77297   81.5    0.07256  -20.68415  0.10305 
  -10.88713  0.39655    3.9911     13.62474  1.79645  1.28241   8.97351  0.03094     0.01268   5551.6591   8913.46432  1.28144         2369.83539     21.05088  0.62461  58191.41637  1.64982  3.55848    14960102.24585  44.14614  18.40601   58272.2185    51.09832       44.16835   24.91965   84.44134   75.5    0.04964  -21.05106  0.75744 
   -8.60723  0.47238    2.2161     12.53333  1.28657  0.23781   15.0022  0.03709     0.01319  6339.78284   7225.02055  0.18888         4799.00521     20.24989  0.09877  58193.69627  3.59692  7.08673   503230601.23681  42.98533  18.43469   58272.2185    51.14798       44.22576   29.00024   80.22117   85.0    0.07775  -20.61168  0.05185 
   -8.87687  0.15165   3.56971     13.95936  1.71875  0.49347   9.21093  0.01803     0.01429  5925.68012   8420.34183  0.43229         2197.83191     21.04236  0.61248  58193.42663  1.92933  1.39688     2452302.59449  45.00922  18.39267  58269.35938    51.18631       44.32531     27.386   67.85723   72.0    0.04943  -21.07385  0.90652 
  -10.98691  0.06436   3.60073     13.61379  1.41102  0.78381  11.56025  0.02457     0.01067  5111.28326   4754.09576  0.65225         3957.55096     20.85899  0.40153  58191.31659  1.80158  0.74402    10058987.25749  44.30304  18.40858   58272.2185    51.18816       44.27836   29.70379   75.98187   93.5    0.06412   -20.8227  0.92661 
  -12.81653  0.03779   3.57214     14.08248  2.02957  0.42299  10.21326   0.0254     0.01052  5503.33076   7757.40218  0.19042         2525.17787     21.11172  0.71853  58189.48697   1.8452  0.38592     1644802.01831  45.25428   18.4091    58269.172    51.01717       44.08916     27.386   84.56423   78.0     0.0565  -21.14718   0.9783 
  -10.84277  0.05558   3.15257     13.56158  1.58708  0.77034   8.33394  0.02562     0.01064  5471.26376   8248.94731  1.08488         2635.37616     21.02777  0.59224  58191.46073  1.48817  0.46323    11030243.41559  44.42953   18.3968   58272.2185    51.13475       44.21078   29.64955   81.07866   78.0    0.04685  -21.02156  0.96854 
   -10.7626  0.00276   3.45445     13.72736  1.87535   0.8867   5.55633  0.04221     0.01867  5142.11223    8540.2275  0.74871         2891.05884     21.10881  0.71373   58191.5409  0.87639  0.01534     7293398.72954  44.60224  18.45351  58267.31463    51.06912       44.16174    28.0353   79.43746   81.5     0.0534   -21.1043  0.99906 
  -11.17852  0.36002   4.48617     13.68008  2.08658  1.30551    7.6579  0.03286     0.01349   5766.3842   7878.87553  0.40676         3038.14608     20.97805  0.52818  58191.12498  1.51895    2.757    17015039.21025   44.0537  18.40196    58269.172    51.11115        44.1769   32.33268   81.03191   76.5    0.05263  -20.99001  0.79579 
   -10.0233  0.26574   3.95034     13.40331  1.45465  1.40979   5.63593   0.0432     0.02542  5706.75563    4319.1926  0.53417         3890.07346     20.59776  0.22003   58192.2802  1.09489  1.49769    32901667.06023  43.72112  18.41901  58265.26172    51.12047       44.19412   33.49132   78.25902   89.0    0.05246   -20.6825  0.83354 
  -10.15276  0.42617   5.39116     12.67289  1.69527  1.05447   19.3684  0.03325       0.013  6626.11935   7816.90955  0.27164         4233.72352     20.67232  0.26125  58192.15074   5.0727  8.25415   2063700836.3176  41.72007  18.38839  58267.31463    51.24023       44.35664   31.63663   69.48951   85.0    0.07847  -20.76006  0.03264 
   -8.96436  0.35722   4.70308     14.11293  1.74046   0.4032  15.26859  0.01654     0.01019  5683.73436   8947.45053  0.70395         3293.92479     21.04757  0.61987  58193.33914  2.94235   5.4543     2125142.20385  44.83736  18.37651   58271.1743    51.16104       44.26879     27.386     74.922   80.0    0.05229  -21.03105  0.58795 
   -9.95589  0.40792   5.18757     13.82666  1.74888  0.95852  11.55429  0.02415     0.01311  5889.43375   7886.95561  0.42949         3190.93061     20.91964  0.46171  58192.34761  2.39066  4.71328     9709286.01693  44.09449  18.36678  58269.35938     51.1083       44.18728   32.33268   76.75433   81.5    0.05648  -20.89407  0.57625 
   -10.0445  0.08119   3.71103     13.62611  1.67477  1.07124   6.81944   0.0311     0.02045  5845.03802   8202.81752  0.38252         3213.34743     20.97136   0.5201    58192.259  1.38979  0.55366    11982401.52919  44.27527  18.42551  58274.37425    51.30817       44.39147   33.27199   75.94943   79.0    0.05329  -20.96795  0.95473 
  -10.14158  0.15931   3.56114      13.4944  1.61868  1.35209   6.97775  0.03653     0.01859  5788.82468   8489.18553  1.33554         2661.41252     21.00242  0.55866  58192.16192  1.39484   1.1116    19559286.78975  44.08347  18.38548   58271.1743    51.10597       44.16886   28.93309   83.01714   80.5     0.0524  -20.99635  0.91301 
  -11.19433  0.45602   2.78978     13.56883  1.37232  0.88046   6.61491  0.02755     0.01915  5881.65549    8824.7621  0.00313         2937.72528     21.12438  0.73979  58191.10917  1.36506  3.01656     7223574.63134  44.65641  18.39289   58271.1743    51.22311        44.3291   29.70379   73.11526   69.0    0.04856  -21.21257  0.83996 
  -12.04139  0.29253   3.84759     13.71289  1.78746  0.85075      9.21  0.03117      0.0117  5849.72058   8136.86185  0.12923         3238.01604      21.0231  0.58591  58190.26211     1.88  2.69422     9218286.12131  44.38605  18.40145    58269.172    51.23513       44.35753   30.60644   67.87341   74.5     0.0597  -21.05357  0.81498 
   -9.27923    0.295  10.14943     14.03637  1.91013  0.97159  21.19821  0.01715     0.01228  5954.64343   4272.41298  0.31318         2992.93308     20.52716  0.18702  58193.02427  4.48371   6.2535    15453490.76178    43.348  18.39226  58269.35938    51.17786       44.30028   26.27046   72.29795   91.5     0.0614  -20.61602  0.22274 
   -9.74865  0.10452   4.12392     13.67221  1.99448  1.29663   5.78392  0.02304      0.0236   6081.9351   7943.21773  0.13496          3130.8281     20.98188  0.53286  58192.55485  1.27624  0.60451    14250933.70591  44.18421  18.40445  58267.31463    50.94922       43.96833   34.15741     90.822   76.5    0.04983  -20.98577  0.95272 
   -9.88231  0.01833   4.14744     13.55044  2.07939   1.2877   6.50348  0.02445     0.01467  5976.01064   7655.11482  0.43961         2637.05415     20.76818  0.32577  58192.42119  1.38546  0.11922    26328313.26896   43.9308  18.45013  58265.26172     50.9869       44.02387   30.69767   91.59822   79.0     0.0578  -20.81151  0.98983 
  -10.34963  0.34323   3.62902     13.52085  1.71446  1.26968   5.95004  0.03726     0.01511  5626.80987   8307.55564  1.56898         2018.01966     20.98239  0.53348  58191.95387  1.12376  2.04222    19046874.25956  44.10357  18.37684   58271.1743    51.27183       44.38348   29.70379    71.4818   73.0    0.05034  -20.98103  0.85628 
   -9.95352  0.49144   9.93407     13.66061  1.79464  0.67553  14.99327  0.03714     0.01103  5511.00335   4685.43815   0.7076         4134.89557     20.55037  0.19729  58192.34998  2.71634  7.36834     78492857.9621  42.63374  18.39712   58271.1743    51.15747       44.23014   32.31192   78.66332   88.5    0.06915  -20.65553  0.09435 
   -10.1158  0.02511   4.43518     13.60993  1.77107  0.99766   4.24103  0.04838     0.03665  5771.53779    4097.0572   0.9567         3018.42609     20.53074  0.18857   58192.1877  0.84272  0.10651    19499136.93066  43.93324  18.44635    58269.172    50.90323       43.87362   39.54579   99.54776   89.5    0.05447  -20.61291   0.9871 
   -7.49091  0.48319   4.10939     13.58798  1.65027  1.19974   6.39793   0.0141      0.0229  6416.73191   8399.75046  0.11978         2928.97197     20.92489  0.46732  58194.81259  1.57143   3.0914    17256554.37797  44.02189  18.38726  58267.31463    51.19988       44.28901   34.96059   73.13123   72.5    0.05061  -20.95404  0.74533 
   -9.71185  0.21222    3.8712     13.64263  1.73267  1.29055  10.63217  0.01439     0.01355   5990.9175   8288.14334  0.00667          2905.3279     20.99825  0.55332  58192.59165  2.27633  2.25638    12501424.09099  44.23491  18.40285    58269.172    51.26111       44.41144   29.00024   63.27326   75.0    0.04844  -21.01526  0.83519 
  -10.55831  0.44282   6.46287     13.92307  1.58349  1.04529  16.04139  0.02078     0.01058  6101.72864   7776.03681  0.11808         2712.20436     20.87749    0.419  58191.74519  3.56266  7.10337     8752661.10539  43.90547  18.39531  58263.28906    50.84197        43.8357   42.18217    92.5149   79.0    0.06141  -20.85283  0.33922 
  -10.47949  0.05508   4.20411     13.65047  2.02389  1.40679   3.83457  0.05157     0.03633  5847.76598   4325.98482   0.5631         2944.62123     20.96114    0.508  58191.82401  0.78221   0.2112    16611464.43714  44.10728  18.42702  58263.28906     50.9348       43.92721   34.15907  101.31875   85.5    0.04737  -20.94539  0.98244 
   -9.90987  0.49339  15.55511     14.63701  1.57624   0.8268  16.15252  0.02658     0.01266  5528.00714   4422.13008  0.20816         5797.05677     20.59405  0.21816  58192.39363  2.94445  7.96941     1884342.75298  43.80756  18.39278  58266.38152    51.18832       44.27776   32.33268   73.35298   91.5    0.07134  -20.68155  0.07688 
   -9.97421  0.08453   4.13822     13.54379  1.77333  1.10032    5.5994  0.03649     0.02311  5687.74914   4527.65747  0.90449         3225.32374     20.75181  0.31371  58192.32929  1.08056  0.47334    23049244.10295  43.92135  18.34636  58264.38858    50.94613       43.93914   42.18217   95.17586   88.5    0.04799  -20.73725  0.95154 
   -9.52146  0.26402   3.49172     13.35326  1.40395   1.2555   8.64169  0.03116     0.01329  6037.31722   7941.81956  1.22113         2606.41116     20.85648  0.39921  58192.78204  1.87894   2.2816    31240983.80229  43.83539  18.39232  58270.40523     51.1527       44.26292   27.04566   74.08048   80.0    0.05218  -20.84775  0.79939 
  -10.86916  0.04908   4.08601      13.6169  1.71738  0.73218   6.61249  0.03581     0.02194   5876.5865   4130.76154   0.9874         3047.55417     20.55595  0.19984  58191.43434  1.36221  0.32452     15541106.2586  44.08963  18.36954   58271.1743    51.10794       44.16004   31.63663   83.62032   88.5     0.0509  -20.65955  0.96437 
  -11.93166  0.27134   3.88216     13.67517  1.76202  1.32574   7.00154  0.04518     0.02023  5380.33926   8410.78176  0.46745         3356.86202      21.0432  0.61366  58190.37184  1.20904  1.89981    11005956.53059  44.29508  18.39504  58264.38858     51.1826       44.24392   38.63648   75.86627   84.0    0.06237  -21.02895  0.86142 
  -11.53327  0.00127   2.87336     13.58676  1.65309  0.80025   8.26414  0.03033     0.01066   5404.2088   8375.13046   1.2542         2307.91776      21.1556  0.79493  58190.77023  1.43976  0.01048      8499110.6848  44.64099  18.41866  58264.33024    50.93977       43.91096   37.93154  105.45543   78.5    0.04902  -21.20592  0.99945 
  -10.77394   0.4888   4.86031     13.72934  1.52113  0.88337  10.04639   0.0356     0.01378  5787.51863   7778.94344  0.49409         3141.63777     20.86266  0.40494  58191.52956  2.00735  4.91066    11604534.47497  44.01306  18.40591  58261.34585    51.02581       44.04228   35.29515   90.73414   81.5    0.06215  -20.85408  0.54029 
  -10.79388  0.06568   3.74102     13.83397  1.68877  0.67277   7.25193  0.03563     0.02265  5949.54674   7743.18228  0.46546         2188.25757     20.97878  0.52906  58191.50962  1.53126  0.47634     4714448.54436    44.677  18.37673  58266.28516    51.28389       44.39033   34.06271   68.75634   81.0    0.06382  -20.97446  0.96156 
   -8.83933  0.04708   2.49167     13.29265  1.40267  0.54471   4.69062  0.02848     0.01617  6165.83248   7966.91754  0.89323         2706.93123     20.69303    0.274  58193.46417  1.06375  0.22085    21011360.62367  44.30037  18.42159    58269.172    51.11315       44.17031   33.17685    82.0663   78.5    0.06233  -20.75725  0.98472 
  -11.60579   0.0016   3.73822     13.55845  1.90415  0.97251   6.31558  0.03256     0.01279  5610.47757   7714.53464  0.54346         3101.85162     20.86243  0.40472  58190.69771  1.18588   0.0101    18877334.92813  44.12728  18.41321    58269.172    51.34191       44.49042   29.70379   63.59435   79.5    0.05629  -20.86859  0.99921 
   -9.84197  0.36654   2.66231     13.22626  1.52325  1.39633   6.02427  0.03012     0.01204  5749.52935   8647.38861  0.86661         3019.40851     21.09996  0.69934  58192.46153  1.18795  2.20815    35365305.04055  44.05252  18.40011  58269.35938    51.25247       44.33243   35.10557   75.62263   76.0     0.0557  -21.16922  0.88699 
  -10.31048  0.34851   5.28371     13.77807  1.79789  1.15631  12.91884  0.02441     0.01291   6218.5493   7753.03564  0.21773         3836.92752      20.8926  0.43384  58191.99302  2.98009   4.5024    12951633.63974  43.96541  18.41249   58272.2185    51.25379       44.38488   27.88471   68.97277   80.5    0.06276  -20.91365  0.58648 
   -9.22755  0.49099   3.36387     13.65675  1.31093  0.92168   8.68993  0.01779     0.01872  5639.88858   8561.93226  0.11441         3239.82824     21.03252  0.59875  58193.07595  1.64886  4.26668     6692360.08033  44.50717  18.41431  58266.38152    51.20025       44.28997   34.06271   71.62295   78.5    0.04569  -21.00557  0.70693 
   -14.0045  0.00993   4.77201     13.55736  2.01376  1.32994   8.36709   0.0439     0.01815  5670.10224   3656.42601  0.93973         3078.90969     20.10743  0.07115    58188.299  1.60466  0.08305    32696969.09727  43.70094  18.41227  58263.27344    50.90279       43.91477   34.15907   93.40959   92.0    0.06006  -20.54223  0.98977 
   -9.57509  0.39819   4.21807     13.61847  1.73834  0.95255   8.99413  0.03175     0.01434  6006.35943   8678.54734  1.57634         2386.10693     20.95987  0.50652  58192.72841  1.93557  3.58141    16643555.51915  44.03751  18.40828  58270.40523    51.04698       44.12699   26.27046   81.33671   74.5    0.04789  -20.95329  0.71372 
   -9.40947  0.46397   4.48642     13.04405  1.60002  0.56171   13.7043  0.04263      0.0205  6601.88343    7193.5522  0.11577          4012.9096     19.99084   0.0544  58192.89403  3.56303  6.35844   244140094.81263  42.78153   18.3841   58272.2185    51.27862       44.43433   24.52244   66.94503   93.5    0.08164  -20.55646  0.14684 
   -11.0209  0.38605   4.41753     13.65935   1.7317  1.52591  10.57613  0.03122     0.01383  5932.85918   7766.56372  0.47777           3340.597     21.00501    0.562   58191.2826  2.22066   4.0829    15064038.43376  44.03902  18.39553  58261.34585    51.04855       44.06397   38.63648   87.16942   83.0    0.06223  -21.02527  0.67999 
   -8.73365  0.00882   3.64821     13.65952  1.76099  1.05931   5.49091  0.01718     0.02356  6063.44761    7694.4411  0.05946         2527.90886     20.98512  0.53684  58193.56985  1.20423  0.04846    10439552.11304  44.37176   18.4194  58263.28906    50.98504       44.01904   32.44846   92.48381   76.5    0.05356  -20.99685  0.99633 
  -11.40287  0.03813   3.74805     13.79371   1.9707  0.84637   5.56325  0.04599     0.01837  5155.61317   8197.71012  1.25498         2258.31234     21.06364  0.64323  58190.90063   0.8821  0.21215     6647034.78962  44.59323  18.38162  58269.35938    51.01173       44.05243   32.31192   86.32545   82.0    0.05486  -21.02806  0.98596 
  -11.68653  0.08067   2.50972     13.38469  1.17707  1.30666  12.94013  0.01622     0.01066  5542.27122   8417.64375  0.16511         3847.68506     21.10718  0.71106  58190.61697  2.37105  1.04386    11708359.71946   44.4719  18.39408    58269.172    51.16609       44.25692   33.27199   74.81983   78.0     0.0507  -21.12979  0.93725 
   -9.42932  0.45539   4.50161     13.04772  1.52445  0.47179  16.18822  0.03551     0.01251  6422.69329   7474.34594  0.23045         4173.52567     20.44289  0.15403  58192.87418  3.98346   7.3719   230262043.48685    42.783  18.42651  58264.38858    51.00611       43.99831   38.63648    95.8192   84.5    0.07533  -20.66049  0.10031 
  -11.57564  0.33127   4.08218       13.635  1.72625   1.3147   6.90598  0.03495     0.01754  5834.38299   7965.03891  0.11855         3302.81795      20.9356  0.47899  58190.72786   1.4023  2.28774     14345015.6379  44.12746   18.3973  58267.31463    51.01036       44.00996   38.63648   90.54642   75.0    0.05658  -20.94124  0.81527 
  -10.11244  0.35448   5.95641     14.13086   1.9493  0.46563  14.26649  0.02065     0.01052  6003.62679    7690.9046  0.19951         3672.01198     20.83524  0.38017  58192.19106  3.06741  5.05724     3515097.86827  44.46282  18.45469  58270.40523    51.05654        44.1013   31.65774   86.53126   79.5    0.05378  -20.85071  0.52382 
  -10.44722  0.20649    3.6308     13.74038  1.68322  0.92885    9.1605  0.02113     0.01607  5760.16795   7922.93579  0.19771         2973.36372     21.05215  0.62644  58191.85628  1.81308  1.89159     6810875.38493  44.54178  18.39994   58272.2185     51.0769        44.1193    28.0353   88.98781   80.5    0.05077  -21.04938  0.87063 
   -8.85506  0.40435   6.36825     14.05394  1.90763  0.88664   12.3874  0.02011     0.01519  5601.61294   4201.31991  0.26638         2902.16129     20.79338  0.34523  58193.44844  2.31864  5.00881     5603709.58499  44.19282  18.44614  58263.27344    51.16562       44.27132   30.71843   71.58956   88.5    0.06147  -20.75261  0.50044 
