 texplosion  fnickel    Pspin  log(Bfield)      Mns  thetaPB   mejecta    kappa  kappagamma     vejecta  temperature    alpha  cutoff_wavelength  log(nhhost)      A_V         MJD0  kenergy  mnickel            TSD   log(L0)  Peak_mag     Peak_MJD  log(E_rad)  log(Peak_lum)  Rise_Time    E_fold  tau_1  delta_m15     r_peak     frac 
   -8.70733  0.01361  2.82531     14.70986   1.5781  0.86764  25.96668  0.02542     0.18945  4353.30734   8686.31741  2.51216         4111.27124      18.8785   0.0042  59364.69685   2.9355  0.35348       44500.95  46.91648  19.37371  59399.31145    50.45865       43.72636   18.89794  41.99543   42.0    0.19941  -20.14965  0.98551 
  -19.78835  0.00151  6.66412     14.43404  1.92651   0.8989   6.05209  0.07628     0.01017  5282.21755   9348.05897  2.76183         2340.37135     19.09448  0.00691  59353.61583  1.00731  0.00915  1076454.72084  44.87413  19.42461  59401.43566    50.56455       43.83678   16.16173  44.73165   36.0    0.20861  -20.14354  0.99816 
   -15.6671  0.00313  1.74705     14.65081  1.80049  0.66233  15.74763  0.02228     0.01193  3527.14292   9918.53693  0.67798         4427.51624     20.60306  0.22273  59357.73708  1.16866  0.04929    25480.14199  47.63342  19.38421  59399.38521    50.62117       43.95821   22.73038  33.96345   37.0    0.22727  -20.18814  0.99937 
   -3.18101  0.03426  2.42257     14.73088  1.75908  1.47172  10.89149  0.05969      0.2132  4904.13065   9075.51144   4.1332         3434.57309     19.01175  0.00571  59370.22317  1.56257   0.3731     33104.6811  47.22569   19.3609  59399.31145    50.40821       43.67393   25.19726  40.45827   38.5    0.19543  -20.11186  0.99293 
   -9.50705  0.04697  2.99037     14.61731  1.82318  1.53558   6.99942  0.08389     0.01715  4851.48565   5992.28417   2.3455         2950.29628     16.58723    2e-05  59363.89713  0.98274  0.32878    88200.18734  46.63276  19.38074  59399.38521    50.40273       43.65772   26.95217  40.24052   41.5    0.21037  -20.13184  0.98724 
  -14.27949  0.00699  5.95102     14.48123  1.90463  1.30817   6.04531  0.08256     0.14125  4665.59609   6776.25943  3.58588         2908.45822     19.86063   0.0403  59359.12469  0.78498  0.04226   682887.58584  45.16512  19.43623  59397.59607    50.43435       43.69399    24.4783  40.35161   44.0    0.21861   -20.1681  0.99318 
  -14.10745  0.00754  2.84953      14.5139   1.1025  0.48461   17.4644  0.03626     0.06352   4994.1502   9606.40989    1.984         3033.22359     19.74876  0.03115  59359.29673  2.59839  0.13175    77973.16098  46.50973  19.41237  59399.31145    50.49698       43.76017   24.88376  42.30893   36.0    0.21172   -20.1629  0.98914 
  -11.06216  0.05678  2.36182      14.8164  1.83262  0.52342   8.53767  0.04342     0.03601  3754.94979   9287.14854  1.66951         3641.63261     20.80359  0.35344  59362.34202  0.71808  0.48473    22109.79708  47.44084   19.3922  59401.81017    50.61978       43.96324   14.75428  37.95557   40.5    0.23702   -20.4795  0.98833 
   -8.58005  0.01259  3.53331      14.9235   1.9223  0.64896  33.98827  0.01563     0.10226  4157.95365   6345.00032  2.59553         3686.43532      16.8476    4e-05  59364.82413  3.50522   0.4278    31695.46701   46.9553  19.41182  59399.38521    50.57549       43.89315   18.95382  38.64991   44.0    0.18552  -20.11554  0.97873 
  -11.19376  0.02978  4.01008      14.5487  1.64917  0.81706   4.72861  0.08739     0.03707   5322.2778   6896.03077  2.37388         2077.66372     17.37144  0.00013  59362.21041  0.79902   0.1408   196778.83473  45.98583  19.41022  59401.43566    50.59284       43.89766   20.63061  38.16299   39.5    0.26357  -20.16112  0.98739 
  -13.28174  0.00127  4.88533     14.45169  1.79573  1.23931   6.29494  0.10296     0.35718  4726.67115   8786.38527   3.2089         3440.88429      20.5814   0.2119  59360.12244  0.83894  0.00802   497123.99607  45.44883  19.36222   59400.5387    50.69181       44.05898   20.36127  32.13302   42.0    0.20159  -20.38495  0.99905 
   -9.43665  0.01501  1.90142     14.72923  1.73456  1.03225  28.29311  0.02485     0.11051  5539.67747   8747.87104  1.76944         3209.83804     16.92926    5e-05  59363.96753  5.17937  0.42455     20262.4394  47.64319  19.39492   59400.5387     50.5685       43.87129   23.09749  37.79589   35.5    0.23079  -20.19267  0.99552 
   -6.94384  0.05082  1.44983      14.7063   1.7125  1.18488   6.35361  0.11474     0.04295  5745.03381   6541.80278  2.49065          2775.9611      18.3854  0.00135  59366.46034  1.25093  0.32289    12926.30749  48.06837  19.38201  59401.43566    50.53488       43.83362   27.49536  38.49461   38.5    0.22157  -20.19597  0.99872 
  -11.40667  0.01464   4.8416     14.51953   1.8921   1.2547  20.37585  0.01803     0.33475  3497.71195   6428.83585  2.73626         3350.54097     20.46251  0.16115   59361.9975    1.487  0.29822   376418.40842  45.60014  19.36674   59400.5387    50.62072       44.01055   16.16173  32.13302   46.0     0.2055  -20.24832  0.96881 
  -11.49002  0.03509   3.3875     14.66321  1.80811  1.00833   9.02683  0.08263     0.04461  4589.23932   5402.06895  4.72839         2848.70715       16.921    5e-05  59361.91416  1.13408  0.31676     90860.6115  46.50794  19.36385  59399.38521    50.81878       44.17901   20.99772  33.59635   47.5    0.16087  -20.09417  0.98328 
  -14.69342  0.02307  4.13185     14.52574  1.74314  1.47633  13.30161  0.04699     0.03474  4576.62379    5729.8628  1.66455         3767.98075     16.62045    2e-05  59358.71076  1.66196  0.30684   245441.17559  45.88794  19.41915   59400.5387    50.68546       44.01742   18.89794  37.46673   44.5    0.20069   -20.0995  0.97376 
  -18.03981  0.00856  1.56152     14.33764  1.40433  1.36307   12.7976  0.02818     0.02192  3516.77851   9290.59449  0.45012         4963.74648     16.63016    2e-05  59355.36436  0.94416  0.10955     67156.8492  47.20213  19.41567  59399.38521    50.67128       44.00327   20.36127  36.33256   37.5    0.22502  -19.86611  0.99841 
   -9.69264  0.01664  2.80294     14.84669  1.62709  0.54018  14.52124  0.03253     0.15859  4507.99232   9281.88333  1.90865          3227.3157     18.11889  0.00073  59363.71153  1.76034  0.24159    24047.55792  47.20396  19.42318  59397.59607    50.40113       43.66143   20.68422   44.4087   35.0    0.23112  -20.08761  0.99025 
  -15.07559  0.01352  4.88829     14.49065  1.76903  1.07096   8.87791  0.06234     0.08538  5155.79562   5471.33594  3.57119         2343.54585     16.68744    3e-05  59358.32859  1.40776  0.12004    409801.9962  45.52569  19.37607  59399.31145    50.53781       43.79038    26.6921  41.06319   44.0    0.20498  -20.12081  0.98557 
   -7.68479  0.01571  1.58908     14.76049  1.87108  0.71447    22.519  0.01318     0.06338  2744.03642   9366.90286  1.74428         3935.50203      20.7775  0.33284  59365.71939  1.01148  0.35373    13219.39102  48.01743   19.3953  59401.43566    50.63403       43.99356   16.59916   36.0021   40.5    0.20026  -20.36174  0.99744 
  -12.62421  0.00386  4.04927     14.50891  1.56144  0.84778  17.72534    0.035     0.12476  5185.50602   8442.76156  4.38083         2399.23983     16.94587    5e-05  59360.77996  2.84318  0.06844   228181.69481  45.88934  19.39063  59399.31145    50.55708       43.90715   18.67626  33.81803   38.5    0.20158  -20.15992  0.99317 
   -9.00138  0.00908  5.00131     14.77792  1.89736  0.73322  15.77759  0.03109     0.05389  4757.86861   9974.52993  2.46737          3366.2457      19.2882  0.01079   59364.4028  2.13056  0.14331   122545.06962  46.06053  19.42489   59400.5387    50.53633       43.84117   25.39559  38.49461   34.0     0.2613  -20.13207  0.98396 
  -22.27205   0.0038  1.42972      14.6501  1.70428  0.64223  21.80139  0.02164     0.08631  3966.00908   7050.00302  0.37427         2079.35674     16.60067    2e-05  59351.13213  2.04559  0.08295    16205.31693  47.98023  19.35156  59401.43566       50.51       43.79138   19.91755  40.97583   44.5    0.20318  -19.71175  0.99933 
  -11.62425  0.01312  4.68077     14.51113  1.47591  0.83466   6.65078  0.06324     0.06375  3656.72811   9862.99154  2.55531         3886.92771     19.80861  0.03575  59361.77992   0.5305  0.08723   285261.08204  45.64203  19.34863  59401.43566      50.508       43.82757   25.19726  37.79589   38.5    0.22193  -20.17034  0.98737 
  -15.45206    0.001  3.31522     14.52432   1.7775  1.17121  19.46786  0.02082     0.35754  3516.77093    7338.8431  0.92173         4599.28352     16.75226    3e-05  59357.95212  1.43626  0.01956   162184.14921  46.26762  19.34705   59400.5387    50.51231       43.82523   23.09749  37.79589   41.5     0.2153   -20.0441  0.99894 
   -6.85386  0.01544  2.19596     14.65618  1.76029  1.34771  16.58583  0.02559     0.02785  2822.46783   6892.20719  2.59856         3978.24864     19.91128  0.04529  59366.55032  0.78817  0.25608    38395.90662   47.2469  19.37443  59401.43566    50.44475       43.71267   27.29703  42.10291   44.5    0.17722  -20.18041  0.99559 
  -13.59838  0.02038  3.66514     14.53282  1.71236  1.16597  16.92223  0.04071     0.02919  5113.81986   5743.88843   1.7737         2940.06569     19.18685  0.00854  59359.80579  2.63983  0.34484   183632.40823  46.11031  19.42024  59401.43566    50.61605       43.97944   18.95382  35.64024   44.0    0.19158  -20.14241  0.97623 
  -15.84511  0.00175  4.80312     14.65485  1.85288  0.61541   8.83594  0.05305     0.01057   4539.2315   8329.11061    1.126         3105.23534     16.90191    4e-05  59357.55906  1.08604  0.01546   194538.44902  45.88464  19.40734   59400.5387    50.60063       43.88119   25.19726  40.79271   40.5    0.20764  -20.12935   0.9983 
  -12.63714  0.00917  0.88923     14.58149  1.51165  0.98263  25.27299  0.01336     0.26338  3275.21561   8920.41173  0.71882         5216.35828     18.09774   0.0007  59360.76704   1.6172  0.23178     7626.44529  48.66794  19.38301  59399.31145    50.58354       43.84926   27.29703  39.89566   36.0    0.24301  -20.10013   0.9997 
  -11.30333  0.01704  4.62655     14.79574  1.60656  0.50374   8.89631  0.07896     0.34429  5146.36283   7219.68407  3.25012         3537.43315     19.19749  0.00875  59362.10085  1.40552  0.15159    81797.98451  46.23148  19.38849  59401.81017    50.76832        44.1142   18.89794  36.67887   41.5    0.21697  -20.19757  0.98134 
  -12.12199  0.00217  2.88589      14.5182  1.53333  1.00685  32.30125  0.01661     0.09975  3767.52859   7705.59815  1.57549         4092.47818     16.30139    1e-05  59361.28219  2.73501  0.06994   109046.41268  46.49631  19.38427  59401.43566     50.5556       43.84277   25.39559  39.69733   42.0    0.19304  -20.16927  0.99648 
  -14.18037  0.01534  3.12795     14.72627   1.5319  0.57344  14.53484  0.06383     0.10637  5205.40329   9457.75081  2.74148         3242.60441      18.1971  0.00087  59359.22381  2.34934  0.22301    49094.65368  46.77252  19.37201  59401.43566    50.62567       43.96079   23.15336  36.97283   40.0     0.1793  -20.10959  0.98687 
   -5.69751  0.01979  1.15872     14.77377  1.74593   1.1528  24.25856  0.02737     0.11453  5493.95948   6980.22059  2.12837         3206.19309     18.82311   0.0037  59367.70667   4.3678  0.48008     6169.56565  48.59266  19.35442   59400.5387    50.75499       44.10772   18.89794  35.69612   38.5    0.25645  -20.05235  0.99938 
  -12.44033  0.00514  5.45513      14.3699  1.52286  1.47319   6.41161  0.11205     0.14457    5580.003   9943.30156  4.86638         3164.17449     18.73319  0.00301  59360.96385  1.19087  0.03298   766097.43457  45.09361  19.36432   59400.5387    50.61374       43.97631   20.99772  34.92893   36.5    0.21489  -20.18551  0.99375 
   -9.09001  0.01095   1.1756     14.80485  1.92629  1.25992  40.15809  0.01715     0.18831  4805.01783   8258.99208  1.47054         3834.65307     16.32018    1e-05  59364.31416  5.53083  0.43978      6072.4661  48.62968  19.39354  59399.31145    50.46611       43.75193   26.57807  36.41508   38.5    0.22254  -20.05362  0.99952 
  -11.95281  0.00214  7.43199     14.47147  1.76975  1.04881  19.79904  0.01447     0.09593  3305.64761   7164.10882  3.50797         3745.28458     19.45619  0.01588  59361.45137  1.29058  0.04237  1035132.47056  44.75955  19.41244  59399.38521    50.49803       43.74869   23.09749  42.55804   44.0    0.25254  -20.12893  0.98809 
  -10.03649  0.00452  3.46755      14.8441  1.78398  0.50874  27.13165   0.0158     0.03805  4398.21784   9774.37759  1.72401          3197.7738     20.08721  0.06791  59363.36768  3.13081  0.12273    40836.68977  46.82914   19.3515   59400.5387    50.63181       43.95901   20.99772  36.62971   34.0    0.24908  -20.18158  0.99284 
  -15.12871  0.01937  1.73682     14.71047   2.0845  1.38235  12.49392  0.05401     0.10658  5199.84496   8022.22869  0.46464         3931.89715     19.24338  0.00973  59358.27547  2.01515  0.24205     22150.2648  47.76296  19.34948  59399.31145    50.56601       43.89906   22.43343   35.1703   35.5    0.23115  -19.95652  0.99847 
  -12.90855  0.00227  5.80159       14.495  1.83406  1.40842  17.03675  0.03506     0.14405  4772.29232   8265.49194  3.95684         3243.06509     19.53678  0.01912  59360.49563  2.31456  0.03862   586583.50681  45.23683  19.38277  59403.39914    50.77011       44.10388   15.62995  38.96411   41.0    0.21175  -20.18778  0.99373 
  -16.95316   0.0095  6.35255      14.6298  1.96553   0.6739   7.30712    0.072     0.02218  5150.19844   6219.78851  3.00225         2605.78059     19.08583  0.00677  59356.45101  1.15617  0.06941   405129.87975  45.34884  19.36833  59401.81017    50.68022       44.03273   20.99772  35.69612   47.0    0.20596  -20.14579  0.98785 
  -10.26909   0.0057  3.11852     14.53648  1.55775  1.13015  37.32722  0.01717     0.27679  4042.25998   7320.60406  2.40763         3791.91038     19.43689  0.01519  59363.13509  3.63832  0.21287   118919.14251  46.39819  19.35051   59400.5387    50.74711       44.13929    14.6984  31.49657   44.5    0.18568  -20.16332  0.98797 
  -17.23403  0.00177  3.64011     14.69082  1.92264  0.68163  13.17496  0.03551     0.02072  4598.49288   7911.96565   0.8628         2676.56409     19.28239  0.01064  59356.17015  1.66191  0.02325    98244.78112   46.4382  19.41244  59399.31145    50.53301       43.80888   28.31664  40.97583   39.0    0.23196  -20.02038  0.99863 
  -14.47508  0.00187  2.34176     14.73744  1.99947  0.79635  28.85613   0.0118     0.38105  3423.75176   7777.63458  0.81613         4393.66494     19.68739  0.02705   59358.9291  2.01776  0.05402    34114.01444  47.29774  19.37413  59401.43566    50.68282       43.99727   18.95382  38.64991   39.5    0.23585  -20.06205  0.99892 
  -19.09221  0.01562  0.99745     15.11728  2.10249  0.29106  19.68355  0.02053     0.01103  4010.76949    8728.0882  0.15401         4198.29027     20.41381  0.14406  59354.31197   1.8888  0.30751     1131.83171  49.54001  19.40547   59400.5387    50.55255       43.86017   22.43343  38.45995   40.0    0.21709  -19.85995  0.99957 
  -13.42229  0.00102  5.72942     14.70859  1.96398  0.70787  18.27472  0.01571     0.08609  2449.95464   7033.48532  2.34749         4092.56554     19.11783  0.00729  59359.98189  0.65433  0.01857   229083.92782  45.68577  19.43038   59400.5387     50.5646       43.87437   19.54512  40.14554   45.0    0.20563  -20.08939  0.99733 
  -19.69661  0.00327    4.096     14.43653  1.77712  1.28681   8.79579  0.07934      0.4186  5718.15841   7470.00406  0.28489         3175.44839     16.27163    1e-05  59353.70757  1.71559   0.0288   370839.32737  45.72466  19.39936  59399.31145    50.64556        43.9771   20.33366   36.2053   38.5    0.22684  -20.08319  0.99757 
  -11.82824  0.01854  3.28179       14.612  1.91507  1.25078   8.74429  0.06489     0.05412  4909.45775   9693.75104  1.68064         2884.75849      18.4008   0.0014  59361.57593  1.25724  0.16214   114344.67876  46.46059  19.38429   59400.5387    50.62139       43.93868   21.64489  35.98254   33.5    0.22061  -20.16223  0.99254 
  -12.05023   0.0254  4.27296     14.65479  1.64939   0.7256  11.14657  0.05829     0.01356  5594.19416   9458.96122   2.2265         3086.74365     17.07894    7e-05  59361.35395  2.08086  0.28316   137091.35675   46.0877  19.40752   59400.5387    50.51746       43.81599   18.23389    39.357   35.0    0.21992  -20.20665  0.97177 
   -6.00618   0.0289  2.05467     14.58783  1.62496  1.46913  15.14333   0.0466     0.09525  5814.27011   6809.46525  3.64424         2683.72597     20.19428   0.0869    59367.398  3.05379  0.43768    42508.25942  47.22573  19.40324   59400.5387    50.41677       43.69474   20.99772   44.0952   39.0    0.21765   -20.2642  0.99251 
  -14.54924  0.01049  6.66396     14.59064  1.94252  0.76028   3.81937   0.1373     0.03492   5969.0189   8651.69702  2.02456         2734.50882     17.39142  0.00014  59358.85494  0.81175  0.04008   527672.99033  45.18738  19.43277  59399.38521    50.54452       43.87172   22.75141   36.0422   36.5    0.24704  -20.21366  0.99211 
   -16.6037   0.0061  3.10647     14.44216  1.74333  1.24808    5.2746  0.08075     0.04366  4855.57684   8307.22625  0.48287         2502.62766     17.76429  0.00032  59356.80048  0.74182  0.03219   203899.87602  46.21627  19.39319   59400.5387    50.83284       44.22301   12.59863  35.69612   36.5      0.255  -20.07917  0.99841 
  -13.96199  0.00381  2.86371      14.5056   1.7645  1.50248  32.66246   0.0164     0.13491  4462.67704   7308.19034   2.0504         2447.92508     18.28013  0.00106  59359.44219  3.88032  0.12454   130949.56313   46.4845  19.39483   59400.5387    50.60092       43.97778   16.43107  33.61749   41.5    0.20276   -20.0726  0.99506 
  -22.73121  0.00125  1.95266     14.33034  1.49981  1.43484   6.34076   0.0782      0.0289  4187.26435   8815.59939  0.07792         5883.57616     16.21076    1e-05  59350.67297  0.66318  0.00791   115990.08272  46.79921  19.40037  59401.43566    50.56249       43.86072   26.21686  38.87605   37.0    0.21215  -19.80247  0.99982 
  -14.76359  0.00571  2.97899     14.45556  1.56612  1.14152  19.89594  0.02289     0.01498  4307.19395   9230.63237  0.94377         3630.68061     19.59455  0.02184  59358.64059  2.20181  0.11355   158360.84247  46.31589  19.36284  59399.38521    50.61522       44.01265   18.59537  31.79915   36.0    0.22817  -20.09696  0.99403 
  -14.67151   0.0114  3.97281     14.41824   1.6681  1.55571  12.72086  0.04876     0.30301  5592.39641   9176.17811  1.64529           2505.262     17.15092    8e-05  59358.73266  2.37323    0.145   356244.27084  45.74112  19.39363   59400.5387     50.6208       43.94279   23.09749  37.79589   34.0    0.22924  -20.18537  0.98748 
  -12.71104  0.01155  3.54019     14.76684   1.6834  0.60327  20.57364  0.01887     0.34258  2772.00482   6116.78035  2.06246         4224.93659     18.58552  0.00214  59360.69314  0.94303  0.23767    57329.44833   46.6386  19.42018  59403.57735    50.67383       43.94748   20.99772   44.0952   45.5    0.19414  -20.09884  0.98436 
  -14.80009  0.00889  3.29556     14.44906  1.73789  1.35513   8.41098  0.05158     0.02633  4413.58679   6763.06244  1.26374         2710.85414     20.00371  0.05603  59358.60409  0.97737  0.07474   221606.20661  46.12743  19.36008   59400.5387    50.73936       44.09409   20.36127  34.23279   42.5    0.21907  -20.10849  0.99583 
  -11.71046  0.00437  3.88883     14.60177  1.58746  0.80302   19.1333   0.0351     0.04295  4733.34613     7482.019  2.99399         3299.36273     19.06282  0.00642  59361.69372  2.55713   0.0836   139512.17498   46.1453  19.40345   59400.5387    50.40791       43.69681   23.09749  40.45827   42.0    0.19859  -20.16919  0.99256 
  -11.82796  0.00306  3.74227     14.76737  1.90716  0.72654  32.43889  0.01835      0.2442  3996.92312   7888.83933  2.91368         3187.17859     18.30983  0.00113  59361.57622  3.09133  0.09923    72398.57603  46.54323  19.37686   59400.5387    50.60852       43.96607   18.53084  33.61749   43.5    0.18669  -20.10043  0.99389 
