 log(Bfield)      Mns    Pspin  cutoff_power  cutoff_wavelength  fnickel    kappa  kappagamma  mejecta  log(nhhost)  temperature  texplosion  thetaPB     vejecta      A_V        MJD_0   log(KE)     M_Ni  Peak_mag     Peak_MJD 
    14.27092  1.90635  7.71305       2.27123         3997.22629  0.00149  0.24681      0.0126  0.29994     16.70185   4064.24188   -15.36165  1.18152  1384.91321    3e-05  59358.04253  50.26219  0.02382  19.43718  59396.60725 
    14.26772  1.56872  6.78813       2.47556         4002.16382  0.00143  0.24193     0.07993   0.7351     18.36247   4841.16728   -14.83637  1.55778   2179.4598  0.00128  59358.56781  50.91396  0.04145  19.41451  59398.47116 
    14.14794  1.36461  4.91737       4.60629         3364.39103  0.00329  0.11529     0.01078  1.77778     20.65702    7486.6735   -13.69015  1.30023  1963.39193   0.2522  59359.71402    50.982  0.13713  19.39572  59398.47116 
    14.35579  1.73826  6.49435       3.03038         3493.95742  0.00366  0.13096     0.07549  1.35982     19.82209   3552.46679   -13.80485  1.40299  1957.96232  0.03688  59359.59933  50.93724  0.13857  19.37595  59397.59607 
    14.50601   2.0046  6.60266       4.25419         3906.46617  0.01734  0.32677      0.0292  0.46693     20.44837   9795.35237   -13.26015  1.25455  1191.58884  0.15599  59360.14403  50.27786  0.38815  19.40229  59398.47116 
     14.0905  1.60779   6.6586       1.43562         3624.87972  0.00933  0.16191     0.03946  0.50226     19.30385   9353.39152   -13.23178  1.25501  3057.86428  0.01118   59360.1724  51.11644  0.21869   19.3882  59399.38521 
    14.44381  1.43936  4.66584       3.15959         4262.85728   0.0057  0.30082     0.04482  0.45097     16.17316    5578.5113   -11.18631  0.98634  1024.25893    1e-05  59362.21787  50.13655  0.12464  19.36865  59399.38521 
    14.30852  1.78503  8.39614       3.98357         3910.83905  0.02327  0.24175     0.02132  0.54674     19.06093    5173.7623   -16.52935    1.116  1857.63767  0.00639  59356.87482  50.70569  0.57406   19.3653  59396.40234 
    14.52875  1.72557  6.21999       3.45935         4005.28845  0.00745  0.15373      0.0739  1.09588     16.00177   9402.54523   -14.10548  0.87398  1366.58205    1e-05  59359.29869  50.58753  0.25875  19.40365  59398.47116 
    14.23198  1.54057  7.28604       4.80006          3743.6611  0.00297  0.29567     0.01773   0.4438     17.36089   6045.18458   -16.16347  1.27127  1456.72512  0.00013  59357.24071  50.43787  0.06435  19.40433  59398.47116 
    14.51889   1.7433  8.10234       4.42932          3804.6813  0.00541  0.16941     0.01049  0.75862     18.72592   9082.31562   -15.36851  0.60957  1585.06835  0.00296  59358.03566  50.64414  0.15901  19.41361  59398.47116 
    14.46673  1.93394  7.86184       4.87208         3911.52302  0.00544  0.21236     0.02524  0.79433      17.9595    5389.3017   -14.54033  1.51736  1333.78457  0.00051  59358.86385  50.50393   0.1637  19.43036  59397.59607 
    14.37034  1.76155   5.8482       2.77429         3119.61502  0.00659  0.19741     0.08474  1.38045     16.48466   6615.88413   -14.53265  1.52348   2474.0279    2e-05  59358.87153  51.14294  0.25099  19.37127  59398.47116 
    14.51793  2.05027  5.60418       3.58248         3837.99714  0.00877  0.30157     0.11515  0.61671      20.5713   8789.95518   -13.39712  1.26726  1307.02262  0.20703  59360.00706  50.42995  0.23152     19.37  59399.38521 
    14.22714  1.51287  6.40514       2.46015          3913.6392   0.0013  0.26633     0.02454   0.5419     19.76888   4935.91417   -17.36568  0.77324  2105.11304  0.03263   59356.0385  50.81204  0.03188  19.41091  59396.60725 
    14.30619  1.57533  6.17015       2.82696         3800.74791  0.00382  0.31182     0.34552  0.66593     19.58868   4021.23296   -14.82189  1.24895  2038.62889  0.02155  59358.58229  50.83395  0.10504  19.37823  59398.47116 
    14.60402  1.63206  6.03162        4.0899         4010.62217  0.01281  0.15738     0.12421  0.89008     17.37888   4806.54988   -14.34417  0.66789  1053.63374  0.00013  59359.06001  50.32229   0.4064  19.36872  59396.60725 
    14.24599  1.73561  8.08434       4.13937         3668.57272  0.00128  0.26124     0.03261  0.59552     18.38776   8165.03104   -15.35274   1.4164  2271.09726  0.00136  59358.05144  50.90147   0.0332  19.45418   59400.5387 
     14.6872  1.51115  5.72607       2.96053         4085.52993  0.00861  0.21108      0.0381  1.08141     17.69771   5561.69097   -13.89641  0.44572  1826.02247  0.00028  59359.50777  50.83686  0.29717  19.38777  59397.59607 
    14.59478  1.68368  5.10777       2.18942         4336.03745  0.00225  0.11905     0.15313  1.05355     16.68679    4793.3108   -11.94352  0.70455  1180.73476    3e-05  59361.46066  50.45338  0.07678  19.40689  59398.47116 
    14.80068  1.80554  6.70841        2.5907          3603.7847  0.00133  0.29363     0.15516   0.9871     20.13612   6804.07246   -16.66015   0.3305  2821.41182  0.07601  59356.74403  51.19786  0.04401  19.38005  59396.60725 
    14.36737  1.76847  6.46267       3.76181         3329.90956  0.00183  0.06626     0.02945  5.05629     19.03383   3623.16465   -20.34596  1.06364  2217.32266  0.00601  59353.05822  51.22192  0.10389  19.41321  59399.38521 
    14.99624  1.78753  5.73042        3.1087         4271.62125  0.00964   0.2003     0.36067  0.79875     19.41571   3598.17553   -14.16652   0.2812  1083.30853  0.01447  59359.23766  50.32442  0.29072  19.39544  59399.38521 
    14.90324  1.63875  6.94236       4.27532          3914.7141  0.00351  0.28914     0.38362  0.40325     17.46736   3006.52513   -11.19243  0.29791  1184.40244  0.00016  59362.21175  50.22939  0.07105  19.39376  59397.59607 
    15.02097  1.76277  6.12924       2.36868         4549.91196  0.00969  0.25049     0.04341  0.47111     19.16481   3538.55703   -12.13793  0.25138  1183.72015  0.00812  59361.26624   50.2746  0.21827  19.35708  59397.59607 
    14.42792  1.57308  6.46677       3.68931         3926.03299  0.02863  0.26739     0.06451  0.54613      19.0484   4234.39928   -11.91446   0.9753  1460.69794  0.00621  59361.48972   50.4966  0.70579  19.46869  59398.47116 
    14.45213  1.45115   6.8193       4.34993         3667.01039  0.00128  0.25285     0.15665  0.69441     18.68907   4266.29169   -12.83885  0.63352  2120.60029  0.00272  59360.56533  50.87765  0.03602  19.42038  59398.47116 
    14.40155  1.56756  6.85209       4.77911         3898.51857  0.01151  0.17358     0.01097  0.91633     16.52919   9514.45772   -14.02944  0.90544  1407.08359    2e-05  59359.37474  50.57926  0.36997  19.44848  59398.47116 
    14.83605  1.69011  4.90188       3.07444          3388.7057  0.00518  0.32674     0.06155  0.81146     20.59502    9126.9096    -11.3523  0.33227  2356.35263  0.21865  59362.05188  51.00267  0.15738  19.41406  59397.59607 
    14.38861  1.38659  6.02056       2.77647         3254.92253  0.00409  0.20248     0.12995  0.96509     16.34156    3724.8861    -14.5834  0.60927  2776.15613    1e-05  59358.82078  51.17953  0.13436  19.45205  59398.47116 
    14.71407  1.83305  7.02501       4.68945         3964.63116  0.00342  0.27537      0.4904   0.5672      18.6414    5790.8483   -14.22106  0.59345   1165.3013  0.00243  59359.18312  50.30989  0.08619  19.36387  59398.47116 
    14.38839  1.76097  7.10265       3.67868         4061.53663  0.00153  0.19792     0.07843  0.70765     17.84317   8140.01878   -14.82319  1.53795  1276.22892  0.00039  59358.58099  50.44079  0.04355   19.4093  59398.47116 
    14.27463  1.49639  6.04378       3.64775         3703.19468  0.00421  0.24234     0.38309  1.68136     16.44097   7247.70431   -16.29236  1.23606  2809.40996    2e-05  59357.11181  51.28474  0.17212  19.43312  59399.38521 
    14.20588  1.37031  5.78843       2.96883         4089.12826  0.00131  0.24223     0.01418  0.38403     16.81951   8046.25962   -14.16172  1.21905  1014.62209    4e-05  59359.24245  50.07959  0.02558  19.36843  59396.60725 
    14.55547  1.57083   5.2995       4.39284          3985.2958  0.00102  0.27929     0.21772  0.62624     16.13415   6003.08486   -12.48225  0.82452  1124.59047    1e-05  59360.92193  50.30301  0.02716   19.4295  59397.59607 
    14.38871  1.78086  6.37469       2.31186         4041.23399  0.02383  0.25521     0.01059  0.50635     16.82607   8941.20686   -17.01053  1.06304  1242.12386    4e-05  59356.39365   50.3361  0.56131  19.43779  59397.59607 
    14.28262  1.35843   6.4935       4.32375          3915.9827  0.01002  0.33206     0.44596  0.43688     19.03411   5559.39555   -12.14268  1.14804  1719.48194  0.00601   59361.2615  50.57732   0.2147  19.38644  59399.38521 
    14.45209  1.44772   5.9958       2.40965         4012.82627   0.0037  0.32023     0.14551  0.82059     16.82777   5827.66624   -16.27932  0.60353  2504.90158    4e-05  59357.12486  51.05808  0.11308  19.43539  59399.38521 
    14.35083  1.68233  7.26589       4.43741          3821.8377  0.00106  0.16255     0.01076  0.96416     17.52563   3188.66045   -15.78313  1.36671  1488.50639  0.00019  59357.62105  50.63796  0.03485  19.40779  59397.59607 
    14.70866  1.98868  7.39945       2.85598         4013.90287  0.00516  0.26079     0.10312  0.64385     18.86393   6886.59122   -11.39496  0.62662  1825.27311  0.00406  59362.00922  50.73017  0.13938  19.40318   59400.5387 
    14.66662  1.74131  6.30899       4.03057         3923.32848  0.00311  0.18395     0.41967  1.03874     17.68973   9335.53244   -13.37087  0.60731   1406.4618  0.00027  59360.03331  50.60272  0.10558  19.41682  59397.59607 
    14.75379  1.59907  6.29385       4.41506         3220.28765  0.00405  0.28058     0.27585  1.06863      19.8739   4800.13553   -15.14276  0.34477  2874.83557  0.04156  59358.26142  51.22891   0.1391  19.38992  59398.47116 
    14.49703  2.16996   6.8075       1.66407         3748.94305  0.00165  0.33996     0.08372  0.92156     19.37391   8058.74868   -17.03423  1.55652  2683.82213  0.01314  59356.36995  51.14124  0.05311  19.40103  59398.47116 
    14.49055  1.64605  7.13731       3.75129         3968.15995  0.00109  0.26515     0.05734  0.66808     18.37978   6332.85542   -12.17915  0.84071  1848.58647  0.00133  59361.22503  50.74969  0.02997  19.40859  59398.47116 
    14.06797  1.24655  5.32483       4.58663         2559.48075  0.00105  0.24379      0.1931   0.9545     19.71895   7154.17286   -12.39562  1.18667  3695.44209  0.02909  59361.00856  51.42586  0.03423  19.40154  59398.47116 
    14.88675  2.14538  6.00398       1.88707         4257.70334  0.00109  0.12627     0.02107  1.18827     18.69415   9513.45967   -12.21538  0.49525  1476.52353  0.00275   59361.1888  50.66914  0.03914   19.4144  59397.59607 
    14.36276  1.85385   7.8257       3.64557          4046.4762  0.00537    0.323      0.0138  0.29782     17.78856   7303.09378   -15.81273   1.2586  1040.74151  0.00034  59357.59145  50.01124  0.08523  19.40377  59399.38521 
    14.87755  1.78361   7.1348       3.15974         4069.10566  0.00182  0.27639     0.03877  0.43336     17.67416   3475.31946   -12.55551  0.34602  1288.59605  0.00026  59360.84866  50.32438  0.03876  19.38135   59400.5387 
    14.31855  1.52006  6.49769       4.43941         3910.33111  0.00127  0.06595     0.13534  3.72156      17.9276   4121.52282   -16.39098  1.31676   1839.8874  0.00047   59357.0132  51.02458  0.06668    19.437  59398.47116 
    14.39681  1.70669  6.90981       4.92588         3823.59638  0.00581  0.23652     0.11244  1.07402     17.57366   4750.19729   -15.91833  1.19011  1779.54382  0.00021  59357.48585  50.81322  0.20004  19.37474  59397.59607 
    14.45747  1.74304  5.80577       4.67078         3853.30873  0.01156  0.29061     0.07822  0.63167     20.42063   4063.91282    -12.7879   1.3055  1337.48741  0.14634  59360.61628  50.45563  0.30926  19.35471  59398.47116 
    14.68002  1.72667  5.85168       4.05362         4064.73862   0.0015  0.21279     0.04993  0.70909     18.66674   9018.94037   -12.10785  0.66157  1066.73601  0.00258  59361.29633  50.28549  0.04277  19.41214  59397.59607 
     14.7407  1.85741   6.7455       4.08312         4126.77309  0.00123  0.33026     0.39015  0.38693     17.83703   7323.01352   -10.74237  0.63886  1038.50013  0.00038  59362.66181   50.1022  0.02422  19.38753  59397.59607 
      14.506  1.41744  5.10598       4.92141         3801.62332  0.00103  0.19446     0.17105  0.65161     20.42379   9204.89722   -11.69659  0.67787  1029.72392  0.14741  59361.70759  50.23573  0.02812    19.399  59398.47116 
    14.61369  1.54177  5.53491       4.24575         3819.77726  0.00278  0.10898     0.01177  1.37669     16.48683   6567.94418   -11.95005  0.64353  1141.05336    2e-05  59361.45413  50.47029  0.10564  19.40021  59398.47116 
    14.41193  1.71666  6.32254        4.2154         3955.74544  0.00349  0.32637     0.14704  0.59031     18.26257   3523.50027   -16.64421  1.44114  1317.10157  0.00102  59356.75997   50.4261  0.08992  19.39093  59398.47116 
    14.73701  1.89705   7.7821        4.7535         3312.61624  0.00358  0.23497     0.09224  1.08194     19.38871   8664.06374   -15.63755  0.45086   2563.4804   0.0136  59357.76663   51.1316  0.12357  19.38089  59397.59607 
    14.49947  1.74345  5.56612       2.51232         4158.34252  0.00322  0.26658      0.3612  0.44019     17.12056   6415.38723   -10.42388   1.1102  1181.16714    7e-05   59362.9803  50.25336  0.06933  19.39315  59397.59607 
    14.35514  1.88054  8.27479       3.84735         3694.66887  0.04058  0.29864     0.02843  0.62534     16.20526   7689.64982   -18.54001  1.12112  2024.07269    1e-05  59354.86416  50.81314  1.07976  19.40185  59398.47116 
    14.64133  1.93216  7.39905       3.93182         3978.19044  0.00194  0.22474     0.08033  0.50766     19.35382   3250.67063   -11.48609  0.84719  1116.28065  0.01255  59361.91809    50.244  0.04581   19.4239  59396.60725 
     14.5049  1.64985  5.72244       3.51595          4182.0269  0.00642  0.33444     0.03726  0.44175     17.84293   7510.52069   -12.64965  0.99123  1129.70692  0.00039  59360.75453   50.2157  0.13867  19.38403  59399.38521 
    14.36258  1.41304  5.99925       4.14381         3804.31976  0.00213  0.11644     0.40249  2.33197     17.92662   9548.75704   -15.29975  0.86711  2129.72106  0.00047  59358.10443  51.09167   0.0971   19.4154  59398.47116 
    14.63112  2.12765  7.56374       3.51901         4132.69706  0.00171  0.19094     0.05614  0.67118     18.06844   3602.63018   -13.54001  0.97171  1012.54417  0.00065  59359.86417  50.22789  0.04722  19.38609  59398.47116 
    14.92639  1.59553  5.59347        2.6997         4331.54589  0.00217  0.10167      0.0134  1.12937     19.64613   9126.85519   -11.59849  0.27954   1135.5077   0.0246  59361.80569  50.43205  0.07635  19.40829  59397.59607 
    14.70879  1.32083  4.37774       3.78139         4045.25724  0.00468  0.30058     0.42475  0.74427     20.13342   5265.56023   -14.39663  0.35665  1293.62607  0.07553  59359.00755  50.46356  0.13647  19.34921  59397.59607 
     14.2367  1.57834   7.2317       2.77708         3688.61442  0.00171  0.08301     0.36441  2.24349     16.78939    7483.6053   -14.14822  1.45385  2757.74727    3e-05  59359.25596  51.31078  0.07726  19.42907  59398.47116 
    14.56123  1.73841  6.85367       3.32968         4117.00314  0.00329  0.33587     0.01285  0.35947     18.83507   9901.06355   -17.63938  0.66205  1033.55097   0.0038   59355.7648  50.07389  0.06121  19.39196  59398.47116 
    14.46863  1.92114  7.62284       3.48097         4127.04956  0.00388  0.33235     0.04692   0.4885     17.00431   5179.59469   -12.34321   1.5597  1538.84572    6e-05  59361.06097  50.51248  0.08929  19.45272  59397.59607 
    14.54745  1.93035    6.992       4.86962         3866.13502   0.0011  0.29078     0.07611  0.67649     19.89061   9557.63702   -11.61414  1.14511  1499.37015  0.04319  59361.79004  50.57067  0.03049  19.40845  59399.38521 
    14.76865  1.67291  7.39833       4.43743         3984.36852  0.00249  0.28834     0.03143  0.42856     16.61752   3728.77946   -13.57729  0.41555  1246.18834    2e-05  59359.82689  50.29203  0.05258   19.4083  59398.47116 
    14.51106  1.83697  6.93218       3.68361         4056.91541  0.02063  0.30262     0.02153  0.45394     17.42545   6676.43828    -12.4799  1.09104    1185.881  0.00015  59360.92428   50.2657  0.45346  19.37074  59396.60725 
    14.48981  1.78063  6.22691       3.17068         4172.79934  0.02046  0.32311     0.39993  0.40699      18.9103   3430.01085   -11.58344  1.17549  1076.70552  0.00452  59361.82074  50.14943  0.41742  19.37991  59398.47116 
    14.54533  1.92547   7.8035       4.22334         3872.79522  0.00735  0.23553     0.34107  0.88996      18.4445   5168.32464   -14.96535  0.86772  1836.98148  0.00155  59358.43883  50.80509  0.23316  19.39797  59397.59607 
    14.52267  1.68596  5.58961       4.69051         3938.66135  0.00302  0.33994     0.10092  0.43182     19.86599   3467.91991    -8.83771  1.15092  1094.00371  0.04081  59364.56646  50.18114   0.0642  19.36509  59399.38521 
    14.53826   1.7454  6.40485       4.23443         3953.15435  0.00187  0.21647     0.21708  0.73362     18.68832   6488.17579   -13.61168  0.92482  1178.78264  0.00271   59359.7925   50.3797   0.0541   19.4015  59398.47116 
    14.35005  1.54461  5.66006       1.78064         3418.84176  0.00496  0.07962     0.07105  4.12723     19.82595   4144.27774   -15.47169  0.91516   3518.4219  0.03721  59357.93249  51.59992   0.2674  19.38639  59398.47116 
    14.58709  1.98463  7.30634       3.69421         3896.38161  0.00663  0.25362     0.10313  0.81396     16.95532   9548.97241   -13.84355   0.9634  1676.60823    5e-05  59359.56063  50.70769  0.20169  19.38039  59399.38521 
    14.23306  1.75792  7.47322       2.81244         3941.54258  0.01157  0.27141     0.01374  0.34013     18.01764    4241.4673   -14.80444  1.53833  1359.66086  0.00058  59358.59973    50.293  0.20601   19.4774   59400.5387 
    14.46409  1.83471  6.77818       4.77391         3902.81606  0.01687  0.21058     0.02551  0.83974     20.22188   6021.05749   -14.16043  1.32251  1410.07788   0.0926  59359.24374  50.56371  0.52089  19.35828  59399.38521 
    14.49955  1.78418  6.74481       4.83459            3986.58  0.01749  0.27797     0.24264  0.63447     17.62217   3070.72917   -12.21347  1.22662  1230.02948  0.00023  59361.19071  50.38392  0.46906  19.37749  59398.47116 
    14.53586  1.91633  6.88362       0.78479         4203.68587  0.00218  0.23132     0.45864  1.04012     19.43322   4794.72656   -17.35765  0.63801  3317.36867  0.01506  59356.04653   51.3483  0.07409  19.32728  59398.47116 
    14.96337    1.871  8.26445       3.85936         3579.13073  0.00219  0.24207     0.07207  0.71917     17.67804   5561.12613   -13.97093  0.24608  2311.22519  0.00026  59359.43324  50.96017  0.06268  19.37947  59398.47116 
    14.74255  1.91199  7.78642       3.34136         4227.61069  0.00155  0.06152     0.10563  1.97922     16.07672   8537.26455   -14.41934  0.52004  1219.33404    1e-05  59358.98484  50.58409  0.06712  19.37529  59398.47116 
     14.5473  2.11813  8.30462       4.19499         3811.46778  0.00985   0.2032      0.1024  0.74625     16.74278   4954.19977   -12.76742  1.56117   1371.0565    3e-05  59360.63675  50.51463  0.28723  19.35673  59399.38521 
    14.44768  1.74162  4.81976       1.97909         4014.38869  0.00323  0.15671     0.18591  1.80448     19.58667   3428.36489   -18.49927  1.08157  1839.96827  0.02145  59354.90491  50.92784  0.13554   19.4163  59399.38521 
    14.60427  1.91852  7.05466       4.49447         3770.45937  0.00228  0.17387     0.09039  1.01659     17.62823   8067.83655   -13.05701  0.91313  1362.74541  0.00024  59360.34717  50.57129  0.07665  19.42037  59397.59607 
    14.36088  1.59389   5.6107       1.97076          3920.7218  0.00264  0.28341      0.1194  0.85342     16.21262   3947.48171   -17.84012  1.06735   2156.7824    1e-05  59355.56406  50.93611  0.08215   19.3924  59397.59607 
