 texplosion  fnickel    Pspin  log(Bfield)      Mns  thetaPB   mejecta    kappa  kappagamma      vejecta  temperature    alpha  cutoff_wavelength  log(nhhost)      A_V         MJD0   kenergy  mnickel           TSD   log(L0)  Peak_mag     Peak_MJD  log(E_rad)  log(Peak_lum)  Rise_Time     E_fold  tau_1  delta_m15     r_peak     frac 
  -10.86514  0.00409  1.55841     14.53056  1.82859  0.40646  60.57988  0.07782     0.14988   4613.08691    3104.0545  4.58662         5409.38501     16.51716    2e-05  57622.53375   7.69022  0.24807   35823.86879  47.59142  20.72243  57682.35136    51.06836       43.97246   52.78607  105.72453   90.0    0.04733  -21.49021  0.99713 
   -8.10376  0.06179  1.35104      14.5754  1.60728  0.32516  28.38771  0.11744     0.01344   4901.85507   3504.71902  4.89094          4461.7589     16.68324    3e-05  57625.29513   4.06891  1.75413   19250.49652  47.92916  19.97959  57677.36642    51.32539       44.24679   48.95224  107.09445   84.0    0.06292  -21.64163  0.98199 
   -5.41017  0.00553  0.72233     14.01461  1.40752  0.98645  48.47129  0.31195     0.01354   9592.48842   3567.01556  4.90945         5150.22263     16.07468    1e-05  57627.98872  26.60568  0.26799   63756.01264  47.89531  19.61338  57683.32952    51.20899       44.19153   39.11834   93.01045   87.5    0.04269  -21.69534  0.99911 
   -6.02063  0.01958  0.82472     14.45869  1.78166  0.46563  50.67008  0.29415     0.03445  10450.82353   4509.45285  4.75063         4985.25058     19.48208  0.01686  57627.37826   33.0126  0.99207   13610.68741  48.55317   20.1935  57687.32273    51.18833       44.11983   58.11343   91.39089   94.5    0.04681  -21.69134  0.99712 
   -6.60224  0.00108  0.77475     14.13817  1.51443   0.9226   71.9238  0.09828     0.08728   6856.59221   3122.40996  4.02315          4756.6945     17.24069   0.0001  57626.79665  20.17049  0.07768   44672.38025  48.02074  19.78257  57677.36642    51.17867       44.11822   42.60458  103.29723   85.5    0.04826  -21.65034  0.99975 
   -8.71536   0.0273  0.90782     14.28138  1.89911  0.93304  16.84331  0.18819     0.03007   3813.00031   3214.89408  4.11483         4402.40919     18.33818  0.00121  57624.68353   1.46079  0.45976   39775.46844  48.03178   20.3839  57675.37186    51.12069       44.03882   43.54847  111.35962   89.0    0.04129  -21.48571  0.99855 
   -7.66584  0.05461  0.94737     14.46745  1.66349  0.49241  55.17642  0.12619     0.06726   6745.62721   3306.06353  4.25042         5126.58719     16.69771    3e-05  57625.73305  14.97702  3.01308   16105.38386  48.32986  21.10143  57677.36642     51.1364       43.98125   60.84047  121.08647   93.5    0.04866  -21.64198  0.98725 
   -6.48772  0.02966  0.71951     14.11703   1.6502  1.13799  53.78043  0.14309     0.08356   8067.40939   5654.60106  4.72656          4430.0335     20.56429  0.20371  57626.91117  20.87948  1.59534   46277.52314  48.10693  19.67286  57685.64623    51.19706       44.16445   36.88031   94.45724   89.5    0.05367  -21.87361  0.99632 
   -9.45177  0.00246  0.86518     14.09411  1.45002  0.75816  38.34272  0.29289     0.01717   8197.14889    4331.8513  3.50884         5701.43922     20.01934  0.05809  57623.94712  15.36865  0.09443   65340.37019  47.74082  20.77809  57670.23467    51.15444       44.02094   54.03771  122.48547   88.5     0.0517  -21.67681  0.99954 
   -4.23104  0.08817   0.7258     14.33867  1.73677  0.99395  40.07026  0.09598     0.03966   5198.01081   5488.77205  3.90918          4997.6171     19.80308   0.0353  57629.16785   6.45838  3.53301   17858.51732  48.53511  19.80356  57680.31274    51.13715       44.10971   40.80332   95.82778   91.0    0.04108  -21.59057  0.99485 
     -7.159  0.00139  1.12821      14.2276  1.76997  0.90128  25.26425  0.17926     0.15086   5305.43305    6427.5637  4.62368         4469.74133     16.33408    1e-05  57626.23989   4.24204  0.03502   73343.73278  47.54667  20.70445  57683.32952    51.01911       43.96122   46.83268  100.87038   85.5    0.04707   -21.6353  0.99979 
  -10.37036  0.01612  0.91175     14.24798  1.90395  0.92413  55.43817  0.15542     0.01136    7907.7751    3919.3367  4.53073         4338.62988     19.69449  0.02749  57623.02853  20.67972  0.89353   46909.71853  47.95748  20.38944  57680.31274    51.07521       44.00986   46.83268  100.87038   84.5    0.04738  -21.41283  0.99705 
   -6.51099   0.0602  0.98624     14.33534  1.78826  0.87875  57.17094  0.12195      0.0236    7055.4622    3880.1755  4.32747         5346.90437     18.21935  0.00092   57626.8879  16.97671  3.44162   34477.92991  47.99577  20.21911  57685.64623    51.13515       44.09674   41.42891   97.26787   94.0    0.05765  -21.68314  0.98656 
     -13.47  0.00199  1.60409     14.08138  1.57714  1.05407  15.42016  0.19057     0.31262   3227.26435   7814.75105  4.71851         5389.78099     19.30618  0.01124  57619.92889   0.95804  0.03063  259045.87162  46.64288  20.29341  57675.37186    51.15415       44.03793   50.98481  114.73082   91.5    0.04711   -21.3995  0.99952 
  -10.39687  0.01281   1.0796     14.14432  1.78581  1.18746  24.08128  0.28796     0.05081   6284.29826   3972.91805  3.94655         4949.48106      16.7418    3e-05  57623.00202    5.6731  0.30858    99433.1077  47.45663  20.57333  57672.80327    51.13747          44.02   50.43519   117.0817   90.0    0.04326  -21.41879  0.99831 
   -7.92441   0.0102  0.81523     14.09464  1.52744  1.03684  15.97952  0.22883     0.02192   4479.44868    4226.9579  4.42527         4288.60299     19.94205  0.04862  57625.47448   1.91267  0.16292   60962.68893  47.84519  20.20484  57680.31274    51.13016        44.0375   52.23645  102.67164   89.0    0.05689  -21.66537   0.9994 
   -6.19704  0.00146   0.8411     14.39566  1.96849  0.62148  54.53794  0.21324     0.18661   8448.02631   3467.17199  3.36413         5939.82116     19.77683  0.03323  57627.20185  23.21862  0.07935   20908.23613  48.39296  20.98908  57675.37186    51.09494        43.9898   54.03771  113.47918   92.5    0.04358  -21.86152   0.9998 
   -6.62885  0.00206  0.74858     14.11235  1.61041  1.36792  54.78219  0.12058     0.04532   5756.98191   4656.16019  3.56921          5498.5332     16.28788    1e-05  57626.77004  10.83069  0.11267   49948.62742  48.02878  20.80452  57675.37186    51.12404       44.00582   50.43519  115.28044   91.5    0.05002  -21.66165  0.99972 
   -6.25832  0.09399  1.02563     14.33882  1.69479  0.71033  35.66827  0.17305     0.10093   5933.55614   3998.07224  4.52229         5910.21899      17.3721  0.00013  57627.14057   7.49099  3.35241   34774.50327  47.93472  20.59986  57677.36642    51.14373       44.02145   48.63393   117.0817   98.0    0.04481  -21.86518  0.98337 
  -11.01127  0.00264  1.34798     14.29696   1.7324  0.62751  62.62776  0.10402      0.0932   5736.04549   3697.72458  4.03657         5679.15744     18.51623  0.00182  57622.38762   12.2919  0.16539   74456.89112  47.37622  20.51696  57675.37186    51.13348       44.00167   52.23645  119.86527   89.5    0.04567  -21.56722  0.99845 
  -10.83726  0.00314  1.38975     14.50805  1.56774  0.34751  33.15079  0.07982     0.30992    2807.5625   6204.38971  4.51376         5796.54856     16.92974    5e-05  57622.56163   1.55876  0.10407   27093.69986  47.74537   20.7012  57675.37186     51.1377       44.01446   50.98481  118.33333   90.0    0.04583   -21.5849  0.99879 
   -7.45305  0.00662  1.03787     14.26421  1.71126  0.73754  31.75537  0.24887     0.02899   6854.09087   5333.40603  4.55203         5236.56488     20.16256  0.08078  57625.94584   8.89906  0.21012   50699.05578  47.76488  20.79803  57674.37384    51.07464       43.97403   54.03771  109.87667   89.5    0.04291  -21.74249  0.99887 
     -5.391  0.00204  0.73296     14.62124  1.43809  0.25679  59.33783  0.11235     0.30791   5702.75064   4748.22025  4.24624         5374.65621     19.39601  0.01383  57628.00789  11.51138  0.12093    4104.76452  49.08318  20.51181  57677.94045    51.14503        44.0456   54.03771  109.87667   92.0    0.05358  -21.70721  0.99964 
  -10.17909  0.01666   0.8205      14.5508  1.92055  0.48726  84.53483  0.04319     0.04404   4555.63439   6812.27212  2.39015         5846.51103     20.02712  0.05914   57623.2198  10.46551  1.40875    9501.48167  48.74632  20.41515  57684.29711    51.18292       44.12554   45.03142   99.06913   85.5    0.04935  -21.47618  0.99687 
   -8.75093  0.00173  1.40716     14.16895  1.74617  1.06111  44.59219  0.07391      0.0323   3711.96174   5674.78127  4.61329         4927.71874      16.0897    1e-05  57624.64796   3.66516  0.07699  147462.60677  47.04556  20.57595  57686.32103    51.05749       43.98859   52.23645   97.81356   89.5    0.04409   -21.5467  0.99922 
   -6.31303  0.00309  0.72127     14.13148  1.68993  1.19118  36.52505  0.25413     0.01216   7817.98594   3199.45508  4.25088         4708.74507     19.22539  0.00934  57627.08586  13.31704  0.11302   44556.82332  48.13161  19.89605  57680.31274    51.12206       44.07622   40.80332   99.69472   82.0    0.04423  -21.71975  0.99975 
   -3.96614  0.00153  0.75382     14.57377  1.71841  0.34417  82.31418  0.15342     0.01044   8902.14963   3861.63292  4.96384         4995.40482     16.16543    1e-05  57629.43275  38.91272  0.12591    6455.63757   48.9395   19.8152  57677.36642     51.2291       44.12857   45.80467  109.10341   91.0    0.05508   -21.6814   0.9997 
    -6.9129   0.0067  0.70761     14.43632  1.21769  0.32504  48.58942   0.0662     0.01344   3490.17983   8870.38631  3.64886         5611.16342     18.65819  0.00253  57626.48599   3.53073  0.32531    7591.18293  48.77448   20.8332  57680.31274    51.11228       44.01448   57.64022  108.07541   92.5    0.04296  -21.72423   0.9988 
    -6.6047  0.04423  1.10571     14.41417  1.98839  0.78942  27.11238  0.14914     0.04475   4471.01679   5147.77636  3.97825         5230.18087     18.10339   0.0007  57626.79419   3.23301  1.19914   33517.23579   47.9548  20.16584  57677.94045    51.09534       44.03416   42.20216  101.89839   89.0    0.04872   -21.6347  0.99466 
   -4.52148  0.04942  0.74106     14.63022  1.69584  0.41252  53.47029  0.08268     0.15508    5243.8334   3367.27278  4.09567         5096.34809     17.85135  0.00039  57628.87741   8.77077  2.64253     4747.6611  49.08204  20.09245  57675.37186    51.14759       44.05268   48.63393  109.87667   87.0    0.06308   -21.6153  0.99544 
   -8.39168  0.09419  1.56474     14.63186  1.70035  0.38133  38.07755  0.06645     0.04691   3696.71443   4281.93596  4.40235         5459.75797     18.10972  0.00072  57625.00721   3.10404  3.58658   21062.97155  47.78698  20.43652  57677.36642    51.07121       43.99803   45.03142  106.27415   92.0    0.05358  -21.65988  0.95633 
   -6.64416  0.01521  0.93154     14.32818  1.94438   0.8247  47.00609  0.15428     0.07202    6267.5704   4696.55266  3.70058         5857.59835     20.05895  0.06363  57626.75473  11.01488  0.71487   34564.71166  48.08059   20.6703  57675.37186    51.12948       44.03495   46.83268  109.87667   92.0    0.05666  -21.85208  0.99768 
   -7.79777  0.00122   0.8902     14.28247  1.58395  0.57757  48.13799  0.21047     0.10144   8186.23693    4649.3144  4.41245         4859.70231     19.44016  0.01531  57625.60112  19.24349  0.05893   31738.95016  48.06802  20.48576  57689.31748    51.11758       44.06819   48.62365   93.67564   91.0    0.05787  -21.70607  0.99974 
  -10.60877  0.04073  1.42994     14.32658  1.53319  0.50381  28.53926  0.12512     0.10303    3862.7562   6114.06205  4.50537         5999.09816     16.77521    3e-05  57622.79012   2.54018  1.16229   64696.42933  47.33293  19.71572  57677.36642    51.20393       44.15146   40.48282  100.01521   89.5    0.04527  -21.72866  0.98537 
   -4.07778   0.2054     0.96     14.46906  1.78939  0.77502  20.63302  0.11911      0.0134   3659.72068   3452.44877  4.61663         5130.85404     19.17507  0.00831  57629.32111   1.64849  4.23796   17658.24527  48.31006  20.67118  57680.31274    51.10767       43.98057   52.23645   117.0817   94.5    0.05511  -21.62843  0.98721 
   -7.00932  0.00156  0.80752     14.10784  1.54914  0.92884  35.11145  0.27316     0.16531   7111.88526   3397.27336  3.71098         5887.35982     18.80365  0.00353  57626.38957  10.59364  0.05473   57087.25896  47.88809   20.4997  57685.64623    51.26789       44.22271   44.40583   95.82778   93.5    0.04745  -21.83294   0.9998 
   -8.00201  0.08653   0.7737      13.9893  1.32144  1.37402  20.35802  0.20894     0.07786   4894.57458   5665.84274  3.79373         5149.85749     20.28938  0.10817  57625.39688   2.90933  1.76151   77164.85281  47.72532   20.1875  57680.31274    51.11271       44.05907   40.80332  101.49597   91.5    0.05964  -21.72797  0.99295 
   -4.59711  0.00217  0.94249     14.22763  1.78022  0.91884  42.75706  0.21594     0.06286   7190.13035   3331.22197   4.9377         5306.72865      20.0092  0.05675  57628.80178  13.18586  0.09264   51473.58153  47.85918  20.04755  57684.29711    51.11455       44.06914   50.11435   93.72178   92.5    0.04226  -21.72251  0.99963 
   -5.29148  0.05812  0.71665     14.01458  1.67517  1.36919  34.67659  0.29191      0.0192    8390.6756   3816.90726  4.76682         5482.24838     21.03274  0.59905  57628.10741  14.56322  2.01528   74700.79454  47.90897   20.5494  57677.36642    51.11483       44.01131   50.98481   111.1283   93.5    0.05155  -22.31131  0.99503 
    -7.3328   0.0047  1.03343      14.1659  1.62867  0.91974  47.61297  0.17483      0.0211    6720.4311   6064.78702  4.63724         5428.96822      18.4059  0.00141  57626.06609  12.82764  0.22401   75233.97528   47.5757  21.09471   57673.2765    51.11157       43.98426   61.24273  113.47918   98.5    0.04398  -21.70194  0.99871 
   -7.23854  0.00197  0.76903     14.45751  1.51677  0.40889  31.52462  0.20241     0.21823   5651.43391   4041.07055   3.7932         5408.49963     16.75171    3e-05  57626.16035   6.00612  0.06208   10129.77453  48.67228  20.20694  57683.32952     51.1189       44.06459   38.68157  100.01521   90.0    0.05722    -21.649  0.99981 
   -6.15287   0.0146  0.85272     14.11588  1.57254  0.92812  32.25167  0.31505     0.15433   7614.37609    4034.7332  3.86019         5907.58409     16.74754    3e-05  57627.24602  11.15444  0.47089   62267.22819  47.80958   20.3759  57675.37186     51.1211       44.03276   45.02114  111.68821   93.5    0.06016  -21.83973  0.99812 
   -6.41223  0.16545  0.89162     14.25763  1.60927  0.88178  35.10027  0.28642     0.02437   9879.21278   4334.04428  3.77857         5478.54307     18.05006  0.00062  57626.98666  20.43536  5.80738   36269.52619  48.01557  20.52614  57683.32952    51.10833       44.04737   45.34972  100.55208   87.5    0.04624  -21.77015  0.97852 
   -7.49592  0.01861   1.1892      14.2286  1.76533  0.93992  40.55253  0.14947     0.05216    6040.8025   4772.54129  4.01644         5189.69156     18.73494  0.00302  57625.90297   8.82743  0.75461   80902.51432   47.4572  19.77985  57684.29711    51.16175       44.11675   45.10641   95.39162   88.5    0.04476  -21.65507  0.99487 
   -12.0988  0.00116  0.97828     14.09722  1.84779  1.16813  52.11587  0.09745     0.02944   5971.82224   8679.48503  4.37469         4267.96801     20.78415  0.33797  57621.30009  11.08692  0.06025  104941.04935  47.53363  20.24283  57674.37384    51.16287        44.0677   52.23645  109.87667   85.5    0.05212  -21.63377  0.99974 
   -9.32742    0.008  0.73029     14.02552  1.44755  1.21471  32.37876  0.19688     0.01771   6309.26808   4792.07761  3.14622         4886.09477     16.04986    1e-05  57624.07147   7.68857  0.25907   63738.28886  47.89808  20.78363  57677.94045    51.05514       43.96859   50.43519  108.07541   86.0    0.04471  -21.46659   0.9992 
   -6.58946  0.01464  1.06237     14.09893  1.59934  1.16039  60.76594  0.13055     0.01682   6805.99644   4659.87595  4.49003         5357.83374     17.81987  0.00037  57626.80943  16.79078  0.88967  106278.04828   47.3938  20.40507  57682.35136    51.12094       44.06931   42.60458    99.3307   92.5    0.04908  -21.68353  0.99442 
   -9.83033  0.00866  1.29521     14.09638  1.75086  1.50185  20.83345  0.15472     0.12687   4035.84471   6361.07697  3.66949         5032.83536     20.16358  0.08097  57623.56856   2.02422  0.18039  174978.18342  47.04443  20.38707  57680.50904    51.08497       44.00845   48.63393   104.4729   85.0    0.04715  -21.58693  0.99848 
  -13.73994  0.02896  1.51338     13.99656  1.56323  1.12107  27.12824  0.27607     0.06628   6475.45306   3960.80491  4.97264         5857.37786     17.16642    8e-05  57619.65895   6.78561  0.78568  337773.01944  46.57434  20.06916  57677.94045    51.12135       44.06213    41.5039   104.3979   90.5    0.04993  -21.61787  0.98911 
   -4.91172  0.21327  0.78547     14.67569  1.95164  0.51419  35.21439  0.23558     0.02881  10385.96362   3370.56952  4.49209         4835.89559     18.33652  0.00121  57628.48717  22.65901  7.51001    4978.44756  49.07189  20.47713  57683.07764    51.10492       44.02936   45.34972   104.1546   89.5    0.05051  -21.75236  0.99039 
    -9.5104  0.00128  1.21174     14.33375  1.88184  0.74622  69.54207  0.06902     0.13797   5111.33072   3694.57039  3.21543          5655.7561     19.55144  0.01978  57623.88849  10.83784   0.0887   55172.21344  47.63489  20.83592  57670.23467    51.12808       43.97977   52.23645  124.28672   85.5    0.05021  -21.60494  0.99943 
   -9.17231  0.00664  1.55261     14.47635  1.85471  0.50701  43.48991   0.0659     0.13757   3296.83675   3998.45534  4.20574         5327.65173     17.60802  0.00023  57624.22658   2.81975   0.2886   46293.80658  47.48947   19.9092  57677.36642    51.17429       44.09016   44.71058  107.73359   87.5      0.044  -21.55398  0.99677 
   -6.55753  0.00649  0.84146     14.39282  1.89176  0.67113  36.97991  0.22198     0.02354    6397.2437   5636.83175  4.85711         4942.89075     17.10681    7e-05  57626.84136   9.02774  0.24014   20375.53206  48.38654  20.65152  57672.80327    51.16409       44.04895   49.18356  120.13459   98.0    0.04929  -21.62198  0.99938 
  -10.75688  0.00124  1.51781     14.36397  1.76724  0.59139  50.17784  0.06106     0.03406   3625.29164   4694.66474  4.34868         4999.76337      17.0887    7e-05  57622.64201   3.93392  0.06236   70729.51131  47.30411  21.07345  57675.37186     51.1404       44.00936   55.83896   117.0817   86.5      0.048  -21.43826  0.99928 
  -12.72878  0.12543  1.75727      14.2672   1.8777  0.97514  25.20213  0.16581     0.01919   4919.87127   6239.31057  4.17268          5616.9974     18.31967  0.00116  57620.67011   3.63892  3.16113  157295.21127  46.85608  20.32307  57675.37186    51.14262       44.06804   46.83268  108.07541   95.0     0.0477  -21.50753  0.95708 
   -8.50152  0.18458   1.3889     14.67371  1.55648  0.31035  26.85931  0.13228      0.2475    5033.4414   4188.35008  4.23969         5739.13963     17.94132  0.00049  57624.89737   4.05931  4.95759   12528.07133  48.07776   20.8652  57672.80327    51.10819       43.97266   55.83896  120.68421   91.5    0.04631  -21.74933  0.94705 
   -7.11975  0.01258  0.93161      14.1211  1.61431  0.94358  33.29299  0.32369     0.01794   7568.92149   5019.16301   4.5955         5755.00501     19.14854  0.00782  57626.27914  11.37753  0.41882   74485.39019  47.66629  21.04772  57671.32303    51.11413       43.99863   55.83896   114.4615   92.5    0.05929  -21.81309  0.99803 
   -7.25028  0.19438  1.02035     14.54877  1.70909  0.48064  25.67766  0.26835       0.024   7763.39733   4993.25045  3.92646          5336.4473     17.58496  0.00021  57626.14861    9.2318  4.99112   13199.03329  48.36357   20.6006  57684.29711    51.23373       44.16111   47.15098  102.35334   91.0    0.04733  -21.71334  0.97761 
