 texplosion  fnickel    Pspin  log(Bfield)      Mns  thetaPB   mejecta    kappa  kappagamma     vejecta  temperature    alpha  cutoff_wavelength  log(nhhost)      A_V         MJD0  kenergy  mnickel            TSD   log(L0)  Peak_mag     Peak_MJD  log(E_rad)  log(Peak_lum)  Rise_Time    E_fold  tau_1  delta_m15     r_peak     frac 
  -35.44389  0.00245  1.75645     14.03421  1.82691  0.95129  21.16861  0.09152     0.19725   3836.4761    7373.3832  0.39299         4424.91598     16.77276    3e-05  58811.10689  1.85859  0.05192   447082.92204   46.3909  19.96424  58915.42417    51.36378       44.37374    47.5251  76.04016   80.0    0.05629  -21.19003  0.99922 
   -32.1266  0.02972   1.7004      13.8416   1.5904  1.38142  35.71198   0.0383     0.04295  3523.32797   9706.10636  0.51566         4780.34803     20.12037   0.0733  58814.42418  2.64452  1.06131   885563.74895  46.06203  19.98658     58915.31    51.33186       44.33557    52.6729  74.69436   72.5    0.06196  -21.24855  0.98186 
  -46.07205  0.00508  2.51309     13.73139  1.70144  1.21305  12.66331  0.11991     0.25947  4424.25095   6957.29424  0.01372         3583.61825     18.08187  0.00067  58800.47873  1.47861  0.06428  3437708.52659  45.16298  20.01433  58912.44531    51.43209       44.43429   51.91681  71.64844  100.0    0.05565  -21.22832  0.99774 
  -46.84681   0.0148  2.04186     13.62126  1.36085  1.42717  31.79913   0.0542     0.28315   4276.6818   8463.48486  0.15747         2519.91384     18.97846  0.00529  58799.70398  3.46942  0.47072  3014062.90607  45.30345  19.99214  58915.42417     51.3453       44.32092    54.5739  76.59536   82.0    0.05412  -21.16879  0.98507 
   -34.0493   0.0064  1.31103     13.84023  1.42574  1.08556  18.99987  0.09501     0.03117  3721.78184   5785.56745  0.40755         5580.06239     20.06974  0.06523  58812.50148  1.56993  0.12169   474908.92698  46.51105   20.0012  58915.42417    51.32827       44.29779   56.76404  77.73985   81.0    0.05636  -21.29413  0.99853 
  -38.36572  0.00288  2.57633      13.8994  1.51085   0.5663  29.62762  0.03554     0.06594  4089.27644   4745.05522  0.34588         4510.49443     16.52609    2e-05  58808.18506   2.9554  0.08526  1479930.85349  45.45582  20.02285  58913.46484    51.38419       44.38563   55.04593  76.12334  108.5    0.06319  -21.18458  0.99621 
  -29.41515  0.00115   1.8687     14.37768  1.85507   0.3889  42.17233  0.03286     0.04242  3467.23347   4975.26648  0.47361         5487.71402     17.96848  0.00052  58817.13563  3.02427  0.04838   105655.40724  46.97024  19.99356  58915.42417    51.35351       44.35878   50.36991  75.09634   81.0    0.06211    -21.214  0.99919 
   -45.9349  0.00114  2.01196     13.67489  1.29979   0.8897  16.92869  0.10355      0.0659  4443.71322   3551.83005   0.0481          4491.1402     16.29618    1e-05  58800.61589  1.99408  0.01938  2183433.10781  45.43634  19.99978  58915.42417    51.39904       44.41124   50.36991  71.29434   95.5    0.05763  -21.21406  0.99935 
    -43.385  0.00647  2.37987     13.71381  1.56734  1.40369  29.28752  0.06485     0.33716  4663.79199   6938.35335  0.13675         3706.69768     17.95861  0.00051  58803.16578  3.80004  0.18957  3079344.95483  45.22245  20.03843  58915.42417    51.37191       44.36593   52.14191  75.80246   89.5     0.0567    -21.231  0.99332 
   -33.3351  0.02455  1.40493     14.11143   1.4816  0.56983  26.33815  0.08911     0.01344  4459.75374   7152.83706  0.19659         4643.07037     17.32213  0.00012  58813.21568  3.12489   0.6467   162551.81693  46.93328  19.99432   58913.3125    51.39024       44.37626   48.46891  76.99735   75.5    0.05784  -21.22563  0.99157 
   -43.6606  0.00458  2.01425     13.77898    1.487  1.01378  37.11539  0.04694     0.06972  3988.44164   9832.95887  0.19771         5588.33378     16.94947    5e-05  58802.89018  3.52199  0.16984  1550234.35159  45.64253  19.95668  58913.46484    51.29996       44.27082    55.7251  77.34517   70.0     0.0532  -21.20606  0.99538 
  -39.16961  0.00449  2.70721     13.90109  2.02261  1.50439  22.42585  0.08489     0.12481  4702.74169   7367.32558   0.0846         3628.70858     16.70573    3e-05  58807.38117  2.95855  0.10077   2170644.6181  45.37312  20.00453  58918.08481    51.33111       44.34889   40.92277  84.54349   83.5    0.06001  -21.24223  0.99687 
  -37.00587  0.00999  2.51415     13.83937  1.66422  1.00988   30.9558   0.0504     0.04423  4208.82655   7815.97715  0.53495         3862.39557     19.28494  0.01071  58809.54491  3.27108  0.30933  2046796.65055   45.3782  19.99654  58918.08481    51.38568       44.40539    49.4261  71.03324   86.0    0.05796  -21.22569  0.98895 
  -41.55278  0.01977  2.30963     13.75557  1.62581  1.50165  13.96858  0.09951     0.30663  3879.03477   4627.88165  0.28304         4934.92655     19.39099  0.01367    58804.998   1.2538  0.27617   2482143.7192    45.358  20.00691  58918.08481    51.55667       44.56463   51.32711  72.23815   94.5    0.05813  -21.18783  0.99138 
  -33.06462  0.10696  1.14636     14.02871  1.52439  0.90832  18.82412   0.1488     0.01946  5052.81224   9126.23175  0.18256         2649.00643     19.53992  0.01926  58813.48616  2.86687  2.01339    162978.8008  47.12117   19.9859  58915.42417    51.34927       44.34889   47.98293  75.58834   63.5    0.05719   -21.2589  0.98364 
  -40.37687  0.00317  2.59902     13.83415  1.83418  1.42559  37.28425  0.04105     0.10105  4130.14254   8267.15838  0.28439         4771.56769     17.68243  0.00027  58806.17391  3.79387  0.11806  2469333.96657  45.31009  19.97141  58914.45027    51.34233       44.37781    44.6669  71.99044   83.5    0.05808  -21.21491  0.99608 
  -40.70114  0.00782  1.98035     14.06289    1.923  0.87296  24.14129  0.08378     0.41165  4148.43564   7699.97974  0.12431         4615.46162     16.39595    1e-05  58805.84964  2.47831  0.18887   524198.83595  46.23985  20.00366  58920.74546    51.37752        44.3943   42.41179   78.4962   77.0    0.05568   -21.1851  0.99666 
  -42.29807  0.00127   2.9139     13.89176   2.0015  1.25052  19.32391   0.0948     0.02236  4219.33798   7353.92252  0.56091         3512.46318     17.71847  0.00029  58804.25271  2.05216  0.02457  2597824.50037  45.22664  20.01743  58915.42417    51.30447       44.26703   58.12492  78.74736   91.5    0.05379    -21.194   0.9991 
  -47.25185  0.03304  2.82768     13.61211   1.6294  1.33536  10.77761  0.10788     0.10287  4085.99714    4747.9583  0.60391         3224.46758     17.45379  0.00016  58799.29893  1.07336  0.35606  7219151.83173  44.71953  19.98327  58920.74546    51.38016       44.37487   50.30125  78.96701  126.5    0.05245  -21.16808  0.98289 
   -34.9408  0.03706  1.60101     13.92857  1.56677  1.02593  23.78587   0.0619      0.0364   3244.4097    8304.8475  0.52746         5180.38826     17.61653  0.00023  58811.60998  1.49354  0.88147   518162.27853   46.3406  19.97894  58915.42417    51.32371       44.31698    52.6729  76.59536   80.5    0.05546  -21.15757  0.98632 
  -41.01059  0.05738  2.53784     14.03038  1.90084  0.74651  14.86427  0.09854     0.01641  3733.76559   9307.42925  0.35027         4618.87336     19.06648  0.00647  58805.54019  1.23613  0.85289   988392.48327  45.74393  19.97973  58913.46484    51.37666       44.38099   51.24392  70.42033   78.0    0.05528  -21.18834  0.97503 
  -39.02481  0.01712   2.0821      14.1215  1.62907  0.49231  31.73156  0.04107      0.0351  3332.81965   9917.68065   0.5249         4355.62811     18.97893  0.00529  58807.52597  2.10253  0.54325   374769.37998  46.27002  20.00685  58918.08481    51.37942       44.35074   54.83204  80.13923   76.0    0.05752  -21.13917  0.98642 
  -43.82339   0.0828   1.8837     14.07761   1.4252  0.47071  27.58037  0.07557     0.14885  4390.09112   8438.58642  0.10371         2014.48121     18.04102  0.00061  58802.72739  3.17084  2.28378    328470.4704   46.3562  19.99125  58914.45027    51.32637       44.29856   56.76404  76.30623   78.5    0.05052  -21.17531  0.94536 
  -31.20426  0.20723  1.38682     13.99356  1.64617  1.27872   19.9514  0.07773     0.02806  3828.13125    9263.8605  0.36306         5107.13316     19.49995  0.01757  58815.34652  1.74411  4.13446   302841.51034  46.72007   19.9805  58918.08481    51.33846       44.36482   40.70749  77.15475   75.0    0.05974  -21.21157  0.95705 
   -41.0017  0.00667  2.27565     13.80746  1.67647  1.39979   28.7547  0.05582     0.39542   3878.8441   7680.47443   0.3989          4355.2322     16.35574    1e-05  58805.54908  2.58072  0.19191  1956558.40805  45.48754  20.00114     58915.31    51.36972       44.37496   51.78494  71.78032   86.0    0.05495  -21.18266  0.99445 
   -35.4006  0.12463  2.46943     13.96971  1.68778   0.8916  32.40307  0.03276      0.0263  3624.95967   6609.22453  0.45034         4515.53584     19.47243  0.01649  58811.15018  2.53992   4.0385   1098753.3071  45.67007  20.01321  58915.42417    51.33858       44.34311   59.93855  76.12334  106.5    0.06158  -21.15406  0.87974 
  -33.79314  0.00478  2.70796     14.03373  2.01371    0.772  32.20048  0.03246     0.11188   3855.5685   8508.11064  0.46514         4182.87836     20.11381   0.0722  58812.75764   2.8554  0.15407  1173913.69071  45.63792  20.01738  58915.42417    51.47199        44.4463   55.34622  74.85119   87.5    0.06607  -21.23886  0.99518 
   -31.5557   0.0443  1.68139     13.93984  1.65741   1.3008  27.05352  0.06179     0.06039  3734.72127   8120.04272  0.49623         4738.48571     18.77915  0.00334  58814.99509  2.25096  1.19844   573996.02782  46.27803  20.00167  58918.08481    51.37331       44.35908    53.2502  74.12308   77.0    0.05841  -21.17991  0.98126 
  -38.49162  0.16853    1.994      13.9077  1.52186  0.98185   22.9948  0.06912     0.01644  4191.82496   6390.26028  0.16355         5533.60668     17.46875  0.00016  58808.05916  2.41026  3.87538   859497.40949  45.91753  20.00731     58915.31    51.36733       44.34217   55.86011  75.30916   94.0    0.05964  -21.20231  0.90962 
  -38.71646  0.02234  0.77818     13.98561  1.60738  1.28989  19.91652  0.16001     0.01071  4314.69991   6816.21719  0.10581         4738.38818     16.03323    1e-05  58807.83432  2.21178  0.44503    96575.84387  47.70794  19.99558  58918.08481    51.32825       44.32666   58.37591  77.77535   74.0     0.0531  -21.18398  0.99855 
  -43.26453  0.04626  2.33107     13.94564  1.88387  0.90512  20.76863  0.07337     0.20204  4061.23885   8615.81844  0.10534         5946.87304     20.10309  0.07044  58803.28625  2.04339  0.96069  1220966.06093  45.72208  19.97593  58918.08481    51.36107       44.35701    52.0581  73.41417   82.5    0.05633  -21.25126  0.97596 
  -42.93443  0.00771  2.58184     13.77712  1.73173  1.01143  13.33369  0.10962     0.04619  4711.47341   9198.56668  0.13691         4293.52509     20.20256  0.08857  58803.61635  1.76559  0.10286    2991660.738  45.20756  19.96814  58915.42417    51.33118       44.30732    54.5739  79.92998   78.0    0.06174  -21.32816  0.99628 
  -40.59174  0.00387  2.78912     13.84296  1.95037  1.17226  19.07621  0.06614     0.12758   3902.1653   4208.53314  0.27684         5205.27978     19.40005  0.01396  58805.95904  1.73273  0.07379   2903644.6603  45.20508  20.02192  58918.08481    51.39242       44.40042    46.4105  77.15475  104.0    0.05726  -21.23848   0.9974 
  -41.90898  0.00374  2.42873     13.68927   1.5815  1.09793  23.46162   0.0456     0.27293  3430.44624    3599.5214  0.37762         5966.81606     16.14534    1e-05   58804.6418  1.64697  0.08783  3623235.03078  45.13806  19.99011  58915.42417    51.37217       44.36812   48.46891  76.99735  116.0    0.05481  -21.23317  0.99678 
  -47.73557  0.00112  2.75138     13.73582  1.75839  1.11094  29.36861  0.05142     0.33569  4383.38103   9489.14087  0.23601          2793.8974      17.1567    8e-05  58798.81521  3.36612  0.03285  4172492.81857  45.01446  20.04309  58915.42417    51.40153       44.36308   57.88741  78.98487   81.5    0.05322  -21.21355  0.99867 
  -36.65526  0.00988  2.07145     13.82871  1.48761  0.79012  22.32023    0.078     0.01799  4959.21037    8350.8571  0.28922         2139.33782     20.25947  0.10097  58809.89552  3.27454  0.22062   1304447.2298  45.69336  19.98475  58918.08481    51.32301       44.34464   47.44191  74.22234   74.5    0.06296  -21.34167  0.99366 
  -41.81592  0.00528   2.0439     13.67833  1.43191  1.28761  37.71795  0.03943     0.07316  3793.05457   7374.18573  0.36452         4019.01194      19.6749  0.02628  58804.73486  3.23708  0.19903  2443398.06784  45.41585   19.9903  58915.42417    51.35115       44.35725   51.72912  75.64416   92.0    0.05527  -21.17922   0.9941 
  -33.63414  0.00415  1.31801     13.95768  1.61726  1.16473  39.12338  0.05333      0.0281  3852.06213   9085.42536  0.33753         4705.47011      17.7664  0.00032  58812.91664  3.46298  0.16227   317000.28275  46.73673   19.9903  58918.08481    51.38292        44.3352   58.47561  79.83029   69.0    0.05409  -21.15611  0.99836 
  -45.50965  0.01122  2.68663     14.03713  1.84775  0.62034  36.52271  0.03245     0.10392  3478.09632    9479.2965  0.40939         4692.75539     18.30294  0.00112  58801.04113  2.63556  0.40977  1043774.36828  45.65846  20.01492  58918.08481    51.37763       44.35281   55.76042  77.30985   84.5    0.05671  -21.13646  0.98571 
  -31.34177  0.00679  2.13561     13.86444  1.58616  1.17651  30.53149  0.06617     0.06686  4426.50393   9042.15342  0.63692         4071.64182     18.40535  0.00141  58815.20901  3.56859  0.20723  1254064.48603  45.71183  19.97525  58918.08481     51.3448       44.33827   51.78494  79.38433   70.0    0.05922  -21.23806  0.99429 
  -42.62099  0.00514  2.38897     13.77822  1.74224  1.34965  37.75606  0.03469     0.11664  3528.56641   4246.92145  0.40439         4451.51159     19.70326  0.02805  58803.92979  2.80421  0.19397  2563889.15583  45.34464  19.99971  58915.42417    51.37882       44.31601   61.09668  81.47861  103.0    0.05365  -21.18013  0.99413 
  -36.95159  0.02619  1.94571     13.90485  1.76839  1.36493  40.10616  0.04312      0.0822  3943.12247    6483.9655  0.21759         4934.59434     18.54178  0.00193  58809.59919  3.71979  1.05041   963486.04577  45.95442  20.02429  58918.08481    51.36178       44.35547   44.81273  82.55453   85.5    0.05689  -21.19083  0.97997 
  -44.95446  0.00242  2.27325     13.71455  1.58112  1.35279   16.1446  0.10292     0.03592  4211.44661   9715.41436  0.15406         2988.55632      18.8636  0.00406  58801.59633  1.70811  0.03904  2824729.32895  45.30354  19.98506  58918.08481    51.34563        44.3423   42.91173  83.48367   71.5    0.05312  -21.17685  0.99876 
  -36.18612  0.00564  2.00433     14.09882   2.1027  1.06615  11.58057  0.19837     0.28444  4158.97782   9145.48769  0.43981         4146.17683      19.3078  0.01129  58810.36466   1.1949  0.06534   497613.85741  46.29079  19.99586  58918.08481    51.32378       44.34378   41.01072  80.65954   69.5    0.05343  -21.22013  0.99896 
  -41.89197  0.00342  2.59259     13.85836  1.90071    1.527  25.82292  0.06941     0.15613   4231.4812   7036.28216  0.25589         4632.28648     16.41177    1e-05  58804.65881  2.75815  0.08837  2277608.32342  45.36281  20.01974  58918.08481    51.41726       44.42739    46.2138  75.45045   88.0    0.05652  -21.22197  0.99724 
  -41.64816  0.02478   2.0131     14.07313  1.54706   0.5375  16.82094  0.11904     0.01793  4262.10506   8797.14271  0.29758         3740.07884     18.98408  0.00536  58804.90262  1.82274  0.41686    415717.1109  46.23182  19.99464  58914.45027    51.39378       44.43083   41.51345  72.54679   72.5    0.05624  -21.18007  0.98945 
   -44.6929  0.00302  2.44075      13.7624  1.62534  1.02642  19.93309  0.08555     0.07875  4453.25551   9311.00725  0.15067         2192.39164     18.99162  0.00545  58801.85788  2.35807  0.06029   2685336.8272  45.27574  19.99238  58918.08481    51.37742       44.34387   56.33753   78.4703   76.0    0.05299  -21.21048  0.99787 
  -40.32326  0.15242  1.99533     13.90493  1.70547  1.23751   23.2421  0.07099     0.12433  4224.39879   7867.01791   0.3037         2418.53171     19.85922  0.04017  58806.22752  2.47419  3.54255    976847.3183  45.91083  20.00721  58915.42417    51.36709       44.33279   56.43722  78.37061   86.0    0.05545  -21.20039  0.92885 
  -39.57083  0.07062  2.11247     14.03175  1.88524  0.79754  19.08678  0.10829     0.15292  4426.76273   3605.43912  0.27976         3054.01726     20.20252  0.08856  58806.97995  2.23117  1.34797   674953.26794  46.06535  19.97505  58914.45027    51.36407       44.35161   53.14492  74.22835   90.5    0.05315  -21.30617  0.97259 
  -39.10356  0.00416  2.15644      13.7657  1.44326  0.91724  11.26059  0.15512     0.08865  4337.19708   9111.58297  0.51477         3308.00165     19.69341  0.02742  58807.44722  1.26359  0.04685  1833300.33991  45.49748  20.00073     58915.31    51.38595       44.35475   55.58695  75.58834   75.0    0.05859  -21.23792  0.99846 
  -34.83242  0.00175  1.62714     14.05666  1.81625  0.83171  49.04969  0.02572      0.0263  2882.46104   9945.57815  0.62329         4870.70062     19.83709  0.03818  58811.71836  2.43103  0.08573    343970.7086  46.56865  20.02204     58915.31    51.38163       44.34018   58.57857  79.38433   74.0    0.05613  -21.16797  0.99888 
   -30.9597  0.05409  1.91736      14.0806  2.10634  1.42995  28.48901  0.04906     0.04204    3064.251   6307.86079  0.70826         5017.27963     18.46698  0.00163  58815.59108  1.59571   1.5409   496068.36936  46.33143  20.00961  58913.46484    51.38561       44.37024   54.26305  74.82607   87.5    0.05574  -21.18173  0.97822 
   -45.6037  0.10438   2.3421     13.89714  1.95744  1.37684  26.90024  0.06887     0.09076   4358.2565   4576.22256  0.04021          2898.9706     20.12673  0.07438  58800.94708  3.04796  2.80788  1601173.14254  45.61688  19.98923  58918.08481    51.35015       44.32952   55.62304  79.92535   98.0     0.0518  -21.26974  0.93594 
  -38.73397  0.01015  2.23526     13.85033   1.7969  1.52671   25.9766  0.04676     0.02801  3437.39351   9171.73016  0.39573         4712.89664     19.39843   0.0139  58807.81681  1.83091  0.26355  1660855.66883  45.60438  20.00633  58918.08481    51.36714       44.32029   59.19548  80.38308   79.0    0.05819  -21.15189  0.99339 
  -35.17238  0.00669  2.73499     14.20332  1.87511  0.50401  39.90111  0.03653     0.40037  3808.00495   9596.53869  0.83064         3674.17863     17.35125  0.00012   58811.3784  3.45149  0.26694   510630.61165  45.95985  19.99117     58914.32    51.33809       44.32413    54.5739   75.6235   75.5    0.05974  -21.14153  0.99059 
  -46.52446  0.00193  2.13792     13.70935   1.4908  1.14871  23.87534  0.07156     0.36361  4116.09012    6946.4196  0.17331         4518.63367     19.15638  0.00796  58800.02632  2.41294  0.04601  2412809.97155  45.39976  20.00452  58915.42417    51.42401       44.43343   55.12911   75.2839   94.5    0.05263  -21.19925  0.99858 
  -38.60951  0.12222  2.05362     13.74572  1.28529  0.77836  10.37156  0.16493     0.01863  4626.79455   5549.44735  0.34857         2811.38026     19.23291   0.0095  58807.94127  1.32444  1.26756  1623362.95056  45.54239  20.00604  58915.42417    51.38136        44.3628   52.77937   79.2012   84.0    0.05731   -21.2497  0.95691 
  -38.35808  0.06412  1.92804     13.77104  1.57219  1.38743  38.11235   0.0348     0.21074  3556.33843   7352.93082  0.55517         4263.52893     20.37293  0.13112   58808.1927  2.87541  2.44376  1557669.97558  45.70264  19.98603     58915.31      51.353       44.30733   58.93112  77.94116   98.0    0.05698  -21.28908    0.947 
  -42.20833  0.07015  2.30963     13.93474  1.97868  1.46663  19.61723  0.08138     0.01747  3534.83255   6106.25254  0.30005         5720.43447      16.0747    1e-05  58804.34246  1.46219  1.37606  1323728.58809  45.71634  19.99139  58918.08481    51.35873       44.34725   57.03012   79.1016   95.0    0.05195  -21.18385  0.96899 
