 texplosion  fnickel    Pspin  log(Bfield)      Mns  thetaPB   mejecta    kappa  kappagamma      vejecta  temperature    alpha  cutoff_wavelength  log(nhhost)      A_V         MJD0   kenergy  mnickel            TSD   log(L0)  Peak_mag     Peak_MJD  log(E_rad)  log(Peak_lum)  Rise_Time    E_fold  tau_1  delta_m15     r_peak     frac 
  -14.78588   0.0204  1.26768     14.18305  1.70504  1.37401  13.43965   0.0702     0.39706   8757.57136   3852.03512  0.46543         5936.80836     20.48308  0.16897  58710.54412   6.14869  0.27413    109511.2779   47.2551  19.33208  58758.11695    51.32741       44.70169   16.88819  33.77637   37.5    0.23925  -21.78201  0.99779 
  -14.07211  0.01239  1.99744     14.24111  1.66716  1.06732  24.27577  0.01498     0.32299   5068.99348   3810.27701  1.02064         5705.67999     16.15436    1e-05  58711.25789   3.72086  0.30085   203482.51635  46.58135  19.34058  58750.53528    51.10633       44.50483   20.64112  31.49112   39.0    0.27646   -21.5251  0.99344 
  -17.15679  0.02075  1.67429      14.2542  1.70651  1.32991  13.70684  0.09188     0.01191   8555.84747   3164.86989  0.65079         5517.38018     17.90111  0.00044  58708.17321   5.98537  0.28435   137777.69572  46.91412  19.31713  58755.58972    51.16007       44.51836   15.77019  36.77084   37.5    0.21949  -21.43455  0.99591 
  -19.94456  0.00124  1.28337     14.31736  1.72349  1.17792   8.06788  0.19763     0.07266   9443.31597   6342.66031  0.64176         5177.33017     17.68044  0.00027  58705.38544   4.29176     0.01    61125.12763  47.50233  19.40047  58756.35881    51.21093       44.57992   16.88819   37.5293   40.0    0.20657  -21.19539  0.99993 
  -14.81008  0.12287   1.8594      14.2279   1.6512  1.45666   9.15274  0.09927     0.22108   9411.89681   5486.46129  0.67257         5518.65428      19.8399  0.03843  58710.51992   4.83652   1.1246   185594.95814  46.67933  19.37065  58750.53528     51.2101       44.64279   16.88819  28.14698   37.0    0.27155  -21.66656  0.97904 
  -15.09792   0.0031  1.35655     14.26088  1.57924  1.07099    5.7011  0.23885     0.06162   9827.41237   3899.46639  0.58517         4556.03783     17.21361    9e-05  58710.23208   3.28446  0.01767    81166.34432  47.29305  19.37332   58752.4219    51.02876       44.39312   18.76465  33.77637   36.5    0.23125  -21.55581  0.99982 
  -12.86849  0.26343  0.94289     14.43966  1.44981  0.72492   9.38535  0.16111     0.15276    11873.816   4360.64462  0.84321         2620.71149      17.5858  0.00021  58712.46151    7.8933  2.47236    15803.06265  48.28249  19.39976   58753.0625    51.40008       44.80187   20.64112  31.49112   39.5    0.23528  -21.53692  0.99067 
  -20.91734  0.04788  1.53655     14.39359  1.81735  0.87687   7.59405  0.28613     0.24086  12981.18766   4943.66348  0.13727         3007.22174     18.82412  0.00371  58704.41266    7.6336  0.36358    65037.50777  47.34203  19.32929  58756.35881    51.13892       44.49654   17.64665  36.77084   38.0    0.22553  -21.28961  0.99609 
  -12.48833  0.00215   1.5813     14.27835  1.82345  1.36134  13.47287  0.03136     0.30322   5055.55589   5754.58035  1.03809         5494.84236     19.12656  0.00744  58712.84167   2.05412  0.02891   117500.14447  47.06167  19.42306  58755.58972    51.19467       44.53031   20.64112   37.5293   37.0    0.27137  -21.55571  0.99967 
  -15.41738  0.00109  2.54128     14.23581  1.83131  1.47851   5.45803  0.12305     0.07505   7132.17776   6612.37474  0.92349         5561.45337     16.94005    5e-05  58709.91262   1.65618  0.00593   370737.96787  46.15243  19.38233   58753.0625    51.17205       44.51897   16.96693  39.32703   38.5    0.24925  -21.57055  0.99981 
   -6.50478  0.32685  1.18299      14.3871  1.68197  1.42242    9.4957  0.15966     0.03296  13322.99582   4335.33181  1.48567         3355.38357      20.2449  0.09764  58718.82522  10.05444  3.10365    36761.90742  47.78331  19.45732  58756.35881    51.04093       44.38218   20.64112   37.5293   36.5    0.25964  -21.70243  0.98435 
  -14.51906  0.00338  0.72503     14.69553  1.86022  0.56674  29.29212  0.05044     0.09003   8976.69607   3014.09922  0.79834          4590.4959     18.29677   0.0011  58710.81094  14.08027  0.09892     3690.03086  49.25067  19.37205  58755.58972    51.22476       44.64031   15.77019  33.01791   38.0    0.21017  -21.47751  0.99992 
    -19.445  0.00286  2.96712     14.21346  1.78143  0.87015   6.14693  0.11166     0.02618   9215.28488   5468.90068  0.28922         5734.58294      17.9164  0.00046    58705.885   3.11389  0.01759   544929.51871   45.8386  19.32184     58750.28    51.12525       44.50232   16.88819  35.65284   38.5    0.27401   -21.4811  0.99921 
  -19.67038  0.00999  3.43781     13.99342  1.74469  1.17722   3.50059  0.19991     0.03877  10835.65991   4906.65627  0.26165         5646.83702      16.7656    3e-05  58705.65962   2.45177  0.03496  1973548.84374  45.14275  19.39848  58755.58972    51.19679       44.52834   16.96693  39.32703   37.0    0.29725  -21.62517  0.99781 
  -20.05319  0.00924   0.9148     14.54503  2.07233  0.85104  24.24639  0.08435     0.13118  11784.27793   5300.08393  0.11347         3208.96111     19.69463   0.0275  58705.27681  20.08538  0.22405    13087.69509  48.54579  19.31666     58750.28    51.11448       44.43119   18.76465  41.28223   38.0    0.21343  -21.11322   0.9996 
  -15.92463  0.01703  1.13304     14.51041  2.00316   0.9632    8.7403  0.08476     0.01601   4996.91292   4508.86773  1.34562         5873.79213     18.09263  0.00069  58709.40537   1.30184  0.14885    22761.30693  48.10487  19.38652   58753.0625    51.14677       44.55647   18.76465  30.02344   40.5    0.19934  -21.50072  0.99947 
  -16.36448  0.00237  2.20763     14.36154  1.60753  0.69503   8.88934  0.07981     0.23189   7363.78328   6684.05691  0.84446         4923.51579     16.77519    3e-05  58708.96552    2.8754  0.02104   137640.41743   46.6484  19.38196   58753.0625    51.24746        44.6847   17.24109  28.99161   38.5    0.25912  -21.42353   0.9994 
   -10.9982  0.07008   2.2976     14.27105  1.59956  0.69646   2.80776  0.12594     0.11528   9881.54779    3412.4757  0.12104          5333.0166     18.40713  0.00142   58714.3318   1.63545  0.19676   225046.92247  46.39802  19.43456  58755.58972    51.16282       44.50008   18.76465  39.40577   42.5    0.37189  -21.45307  0.99387 
  -11.73352  0.00763  1.49966     14.53412  1.94545   0.6597   11.8248  0.04254     0.24028   6080.65759   5788.35331  0.77793         5507.68425     18.93974  0.00484  58713.59648   2.60809  0.09022    34719.28567  47.66531  19.33168   58753.0625    51.18265       44.55061   18.76465  33.77637   36.5    0.27747  -21.51328  0.99918 
  -18.77122  0.01517  3.21009     14.17424   1.8312  1.52428   4.77169  0.21998     0.33894   9644.04252   5198.91412  1.48128         3113.39598     16.92452    5e-05  58706.55878   2.64739   0.0724   785415.87353  45.62345  19.45692  58755.58972     51.1481       44.45925    21.4856  40.92933   42.5    0.21864  -21.38672  0.99638 
   -22.0518  0.00185   0.7905     14.23626  1.47632  1.15203  14.45178  0.09924     0.03362   7949.79277   5407.92259  0.57167          5782.9158     18.54793  0.00196   58703.2782   5.44829  0.02679    28859.47279  48.18194  19.38975  58750.53528    51.18348       44.59924   20.64112  30.02344   41.5     0.1868  -20.95673  0.99993 
  -15.77342  0.17969  3.29809     14.20901  1.76275  1.16755   3.40282  0.26865     0.33218  12087.66594   5558.33114  1.74947         2107.24416     17.24049   0.0001  58709.55658   2.96586  0.61145   680007.46159    45.646  19.41617   58752.4219    51.19304       44.49716   22.59632  39.32703   38.5    0.28995  -21.46579  0.96686 
  -13.95443  0.06684  0.73283     14.34989  1.80257  0.73975   5.94978  0.11141     0.12395   8483.58159   3446.07046  0.26171         4937.98706     20.75602  0.31677  58711.37557   2.55439   0.3977    17944.37732   48.5408  19.33298  58755.58972    51.08231       44.43822   20.64112  33.77637   36.0    0.30288  -21.79702  0.99927 
  -14.69896  0.00241  2.34603     14.34293  1.93843  0.86485  10.55261  0.04327     0.01602   7573.24499   4723.83148  0.48901         4666.12668     17.94702  0.00049  58710.63104   3.61036  0.02542   204204.58706  46.50557  19.27458   58753.0625    51.07545        44.4298   15.77019  40.52377   39.5    0.30054  -21.44212  0.99938 
  -13.97579  0.00388  1.10038      14.3262  1.88415  1.27501  13.59411   0.0516     0.03648   6055.09832   8528.14908  1.02688         5595.20135     20.56556  0.20431  58711.35421   2.97317  0.05277    47163.91295  47.78727  19.39482     58757.27    51.31592       44.70094   18.76465  33.77637   38.0    0.21165  -21.75531  0.99977 
  -15.12298  0.00532  2.39292     14.28131  1.75272  0.97695   4.66175  0.23182     0.34844    9389.3449   5939.99531  0.68931         5986.63933     16.79742    3e-05  58710.20702   2.45158   0.0248   255131.82986  46.34794  19.39625   58753.0625    51.11495       44.49265   17.64665  34.89437   37.5    0.24309  -21.66313  0.99927 
  -13.80568  0.00138  1.01659     14.25151  1.99421  1.21943   9.19416  0.05111     0.01199    6663.3824    7049.3343  0.52304         5620.27887     20.69605  0.27592  58711.52432   2.43517  0.01269      60098.457  47.77546  19.35792     58757.27     51.1087       44.46072   20.64112  35.65284   36.5    0.29099   -21.7846  0.99995 
  -20.11659  0.01021  2.90527     14.15069   1.7098  0.98769   4.40519  0.13624     0.38427   8784.67393   5300.41661  0.43188         4484.61478     19.64661  0.02462  58705.21341   2.02788  0.04498   669493.09034  45.74967  19.39986  58755.58972    51.24688       44.62466   17.64665  34.89437   45.0    0.27153  -21.42637  0.99795 
  -14.15348  0.08314  1.69579     14.27181  1.65392  1.11741    9.9588  0.09789     0.02561   9229.40629   4168.18668  0.62256         4824.99685     19.18188  0.00845  58711.17652   5.06036    0.828   126314.22578  46.92716  19.42926   58752.4219    51.06072       44.38348   19.52312   38.6473   37.0    0.24181  -21.56714  0.98725 
  -21.00242  0.00241  1.04195     14.18049  1.53286  1.34945  19.60237  0.08992     0.05598    9962.7096   5903.93847  0.25455         4874.86479      19.5051  0.01778  58704.32758  11.60622  0.04724    67302.69995  47.59062   19.3177   58752.4219    51.13182       44.56657   15.01172  28.14698   41.0    0.20498  -21.16228  0.99973 
  -19.98713  0.00224  1.23675      14.3337  1.89786  1.14787  23.60112  0.05848     0.01019    9447.2868   4652.06649  0.39043         5660.02656      20.2987  0.11052  58705.34287  12.56533  0.05289    57977.08228  47.59929  19.36905  58755.58972    51.26479       44.66407   16.88819  31.04252   37.0    0.21306   -21.3484  0.99968 
  -12.73295  0.02114  1.28532     14.33162  1.80109  1.45248  20.60051  0.04005     0.01787   7354.12699   5924.40761  0.65557         5212.43212     16.90036    4e-05  58712.59705   6.64611  0.43556    59997.90229  47.52822  19.35426  58750.53528      51.142       44.50182   15.09046  37.45056   38.0    0.23833  -21.42158  0.99707 
  -21.65323    0.004  0.94119     14.42509  1.88445  1.01707  11.48652  0.14032     0.03556   9271.02978   4152.64317  0.44245         4643.93593      18.2724  0.00104  58703.67677   5.88941  0.04589    21886.53844   48.2565  19.39982  58750.53528     51.0922       44.39946   15.36462  39.05287   39.5     0.2074  -20.97471  0.99989 
  -19.71699  0.00367  2.95169     14.18209  1.83973  1.11485   3.12137  0.19514     0.07272   8713.56103   4062.94716  0.27526         5771.03581      18.3539  0.00125  58705.61301   1.41372  0.01144   643461.59103  45.78493  19.26966   58752.4219    51.08121       44.44732   20.64112  31.89991   41.5    0.26449  -21.40973  0.99952 
  -16.19943  0.05061  1.43967     14.62276  1.94546  0.54803   9.60549  0.08433     0.03431   7597.74093   3866.43132  0.57256          5310.6355      16.6789    3e-05  58709.13057   3.30762  0.48614     21273.7629   47.9135  19.42002   58752.4219    51.15085       44.43141   19.59479  45.03517   38.0    0.24459  -21.44042  0.99606 
  -14.42031  0.00779  1.86418     14.35193  1.84212  1.07412  23.82263  0.02511     0.04175   6206.76947   6087.10253  0.91871         5515.18631     19.23714  0.00959  58710.90969   5.47455  0.18561   117556.04957  46.92294  19.41546  58755.58972    51.09235        44.4617   26.27051  33.77637   37.5    0.25602      -21.5  0.99703 
  -16.39869   0.3777  1.86256     14.26995  1.34524   0.6996    6.7184  0.10438      0.0758  10005.73629   5765.51032  0.44635         3027.12815     18.64593  0.00246  58708.93131   4.01228  2.53755   125009.62419  46.76048  19.37842  58755.58972     51.3786       44.66411   25.18951  43.07996   46.0    0.29567  -21.41437  0.93728 
  -16.28299  0.01586  1.13653     14.28241  1.63182  1.29091   4.83263  0.20274     0.14164   6399.71002   3743.90195  1.30106         4483.64218     19.87882  0.04203  58709.04701   1.18068  0.07665    53312.30285  47.64353  19.34332   58753.0625     51.2865        44.6527    15.3902   38.6185   41.5    0.18625  -21.34073  0.99955 
  -17.65994  0.05209  1.53031      14.1864  1.50882  1.17232  13.43402  0.05732     0.25469   7779.20561   3936.82154  0.53627         5725.49791     19.07979  0.00668  58707.67006   4.84958  0.69983   139064.97237  46.93471   19.3056     58750.28    51.18197       44.58197   16.88819  30.02344   39.5    0.24548  -21.40269   0.9899 
   -10.9248  0.00422  1.50368     14.43789    1.538   0.6524  24.92055  0.02557     0.05757   5881.47971    8500.6729  1.34926         5752.37897     19.50148  0.01763   58714.4052   5.14231   0.1052    42984.47488  47.46818   19.3921  58755.58972    51.13099       44.50177   16.88819  35.65284   36.0    0.23855  -21.69269  0.99861 
  -15.89592  0.00586  1.55742     14.32647  1.65465  0.93856  31.15188  0.02024      0.0202   5538.60122   7104.73768  1.26957         5456.74532      19.9474  0.04922  58709.43408   5.70048  0.18251    82869.83779  47.18434  19.35998  58755.58972     51.2569       44.66329   15.01172  31.89991   39.0    0.22489   -21.5918  0.99765 
  -15.41579  0.02384   2.3908     14.13176  1.61435  1.37447   3.07575  0.22692     0.07336   7763.33619     6783.524  0.64586         5349.33029     19.24149  0.00969  58709.91421   1.10579  0.07331   467069.81055  46.05037  19.44257   58753.0625    51.13017       44.50111   16.88819  35.65284   39.5    0.25926  -21.48945  0.99756 
  -12.57008  0.14559  1.82611     14.39628  1.61302  0.94129   8.61915  0.06476     0.39096    5699.2557   3664.01629  1.48008         5046.72676     16.08514    1e-05  58712.75992   1.67004   1.2549    80529.17766  47.04748  19.43426  58755.58972     51.1806        44.5762   15.01172  35.24405   39.5    0.25122  -21.46643   0.9775 
  -12.92819  0.19361  1.50009     14.27799  1.73967    1.554   6.20096  0.08409      0.0155   6090.63716   3742.36171  0.82976         5705.03788     16.88789    4e-05  58712.40181   1.37218  1.20057   101050.47043  47.15254  19.31502   58753.0625    51.16463       44.53653   18.76465  31.89991   37.5    0.25355  -21.52331  0.98718 
   -8.37984  0.00151  1.24795     14.60774  1.73121  0.57708  14.01459  0.09506     0.04738   9477.18828   4622.83205  1.25972         3928.77037     16.64164    2e-05  58716.95016   7.50873  0.02114    15243.39408  48.13172  19.32642   58753.0625    51.20395       44.62155   16.88819  30.02344   36.0    0.25002  -21.52228  0.99987 
  -19.48893  0.02489  1.95785     14.28229   1.8801  1.41801   6.79138  0.09944     0.06834   5583.68197   4838.42171  1.08536         5404.00612     18.00372  0.00056  58705.84107   1.26307  0.16901    182381.3832  46.69849  19.34549     58757.27    51.18657       44.53605   17.24109  39.05287   43.0    0.20322  -21.31865  0.99706 
  -16.11666  0.01445  1.23705     14.32308  1.73009  1.12195  14.03103  0.10685     0.36774  10464.20588   5295.42672  0.31153         4033.48318     17.09932    7e-05  58709.21334   9.16494  0.20279    55526.22366  47.57764  19.32053   58752.4219    51.11163        44.4558   18.76465  35.65284   37.0    0.22986   -21.4377  0.99862 
  -18.42184  0.01935  2.24696     14.42542  2.11123  0.98115  12.74908  0.04144     0.01248   5227.34582   6090.63016  1.05002           5793.561     16.36972    1e-05  58706.90816   2.07811  0.24669   139543.99791  46.74548  19.30849     58757.27    51.10743       44.48298   16.88819  35.65284   41.5    0.23105  -21.40692  0.99524 
  -20.89032  0.00865  3.55401     14.18927  1.97451  1.29137   3.60627  0.22223     0.08278   9524.11693   5984.46115  0.55116          5787.2868     18.43806  0.00152  58704.43968   1.95135  0.03119   968640.62634  45.47671  19.46401   58753.0625    51.13466       44.51293   13.48816  35.29994   40.5    0.26509   -21.5435  0.99828 
  -20.38445  0.05875  3.77312     14.28175  1.80825  0.38392   2.71749  0.13912     0.03476  10736.32589   3761.36423  0.15006         4624.31804     19.17477  0.00831  58704.94555   1.86856  0.15966   653097.79615  45.55773  19.32738  58756.35881    51.11832       44.46323   24.39405  35.65284   41.0    0.28545  -21.48929  0.98849 
  -10.71318  0.13237  1.09818     14.72004   1.5826  0.41489   6.92104  0.07651      0.4346   4646.77389   3856.05807  1.61649         5612.80512     17.57494  0.00021  58714.61682   0.89146  0.91615     6433.54787  48.57842  19.41281  58758.11695    51.27351       44.67714   15.09046  34.71671   38.0    0.22678  -21.58157  0.99554 
  -13.09538  0.36644  1.20674     14.25183  1.43865  0.86113   4.58387  0.15982     0.11917    8652.7875   7200.63247  0.58918         5337.63211     20.30751  0.11278  58712.23462   2.04725   1.6797     61000.1503  47.47825  19.31937  58756.35881     51.1361       44.51228   24.39405  31.89991   38.0     0.2814  -21.69111  0.98472 
  -21.28657  0.00237  3.00586     14.49491  2.12484  0.41828   4.34595  0.30242      0.0227  10471.58435   5858.16021   0.6277         3589.49841     20.55458  0.19921  58704.04343   2.84274   0.0103    182495.4104  46.37898  19.29796  58756.35881    51.18298       44.57481   17.64665  34.89437   36.0    0.26519  -21.69463  0.99964 
  -21.87071  0.00315  1.96029     14.32376  1.92309  1.35516  24.94925  0.02964     0.01017   5728.21827   3145.30763  1.13754         5288.81579      17.1435    8e-05  58703.45929   4.88342  0.07854   154506.05461  46.77926  19.39698   58753.0625    51.13144       44.49725   15.01172  35.65284   43.0    0.20467   -21.1599  0.99868 
  -17.35579  0.25766  3.78546     14.38599  1.95575  0.37444   2.83269  0.13165     0.02826  10593.26577   3861.91194  0.13107         2260.99675     18.23357  0.00095  58707.97421   1.89621  0.72988   439937.44326  45.76053  19.40695   58753.0625    51.10056       44.42656   21.39958   38.6473   39.5    0.29755  -21.48313  0.95494 
  -15.43831  0.11051   2.3269     14.23014  1.68946  0.88752   2.50863  0.24184     0.04034   7886.82909   4314.98457  0.51603         5339.38287     16.06547    1e-05  58709.89169   0.93083  0.27724   294325.96157  46.29421  19.39481  58758.11695    51.16214       44.47549    21.1327   43.1587   36.5    0.28513  -21.53406  0.99187 
  -21.63048  0.00216  1.69105     14.10741  1.55045  1.14369   7.50449  0.23886     0.03947  12054.42786   6768.83451  0.08375         2793.99341     20.47109  0.16437  58703.69952   6.50491   0.0162   251053.35367  46.60322  19.43433  58755.58972    51.13591       44.45534   26.76209  39.40577   35.5    0.23143  -21.49841  0.99971 
  -14.64343  0.07815  1.32601     14.26663  1.55348  1.17475   6.01412  0.12746     0.03191    6089.0685   6113.46529  1.30517         5185.80258     19.54289  0.01939  58710.68657   1.33015  0.47001    74294.45476   47.3441  19.36381  58748.00805    51.11401       44.45906   23.00916  33.36758   39.5    0.21855  -21.57615  0.99548 
