 log(Bfield)      Mns     Pspin  cutoff_power  cutoff_wavelength  fnickel    kappa  kappagamma   mejecta  log(nhhost)  temperature  texplosion  thetaPB     vejecta      A_V        MJD_0   log(KE)      M_Ni  Peak_mag     Peak_MJD 
    13.53986  1.96832   5.37706        0.0081         2800.19584  0.26624  0.02346     0.30401  24.08257     16.23556   7392.08989   -16.19065  0.89734  4750.43689    1e-05  58767.31326  52.02897  21.14244  19.65337  58854.30423 
    13.47447  1.67262   2.99243       0.89669         2476.81109  0.47634  0.04559     0.01179  19.28296     16.19936   8086.98669   -17.93327   0.0584  5052.05321    1e-05  58765.57064   52.0645  36.29528  19.66066    58845.555 
    12.40426  1.71865   1.37724       4.17144         3192.86811  0.01765  0.03177     0.38272  20.32531     18.30679   9509.35239   -14.38116  1.50358  7946.68488  0.00113  58769.12274  52.46225   1.35857  19.64182     58846.22 
    13.38879  1.87023   3.99712       4.24642         3447.48268   0.1095  0.04217     0.13757    8.9606     18.91316   9102.41085   -17.01257  1.17143  3552.41532  0.00455  58766.49133  51.69034    7.1299  19.57107  58842.63859 
    13.44537  1.64242   3.72955       0.74939         2640.08783  0.00971  0.08248     0.09631   8.92216     20.13002   9981.76548   -21.54859  1.46161  5212.01107  0.07495  58761.95531  52.02289    0.6314  19.51517  58852.26666 
    15.03632  1.39491  27.30888       3.57513         2085.90474  0.38782  0.03687     0.39528  23.11125     16.99187   5789.39475   -10.89542   0.8135  5511.04999    5e-05  58772.60848  52.15471  30.56613  19.65982  58851.38782 
    13.42672  1.77325  10.51865       4.63764         2498.80476  0.24151  0.03643     0.22713  39.02252     19.84136    9882.8834   -10.23792  0.25846  7589.36799  0.03856  58773.26598  52.47251  20.86419  19.66675  58854.30423 
    13.75232  1.74932   8.93486       4.51216         2209.17474  0.26877   0.0271     0.45532   32.8209     18.20527   9029.61463   -20.69498  0.24137  4692.04898  0.00089  58762.80892  52.04205  22.54691  19.57881  58848.47141 
    13.87397  1.87559   4.66387       2.41572         2104.54592  0.02847  0.03166     0.29297  45.33353     18.91392   9023.20388   -20.99207  1.07953   4973.0627  0.00456  58762.51183  52.11611   2.52129  19.63174  58857.22065 
    13.59841  1.86731   4.40397       3.42288         2892.69302  0.22919  0.06725     0.04511   7.76714     18.18275   8303.55167   -18.02883  0.84605  3873.57801  0.00085  58765.47507  51.75151   14.4497  19.50777  58848.47141 
    13.33955  2.01676   3.30908       1.59888         3520.46421  0.14866  0.09797     0.02108   5.71238     16.17322   8202.02233   -14.18043  0.81587  5981.86792    1e-05  58769.32347  52.09721   8.71189  19.57511  58859.10938 
    13.29842  1.68215   3.29304       0.42343         2910.25318  0.01934  0.10757     0.03783   4.86093     19.13724   8185.56623   -14.57658  1.27659  6668.08248  0.00762  58768.92733  52.17389   1.08846  19.59396  58854.30423 
    13.38405  1.54353   3.87996       2.80532         3315.47716   0.0821  0.06632     0.25528  10.80865     16.56048   8722.06447   -19.71654  1.55457  5100.82638    2e-05  58763.78737   52.0223   5.56821  19.52578     58849.13 
    13.72605  1.61154   4.73356       0.54359         3417.28988   0.0348  0.02085     0.26051  40.62836     17.99193   9545.86419   -16.13879  1.31408  5161.59132  0.00055  58767.36511  52.14058   3.02627  19.62545  58850.33729 
    14.14363  1.79156   4.66527       3.22416         2428.79533  0.00526  0.09471     0.10842   5.87553     17.99173   9263.95198   -14.48952  0.34463   4741.7191  0.00055  58769.01439  51.89842   0.31021  19.59723  58850.33729 
    13.79825  1.99541   4.80747       0.56764         2495.06533   0.1803  0.02069       0.046  39.32635      19.4641   9024.95482   -16.03177  0.23836  5709.38774  0.01617  58767.47213  52.22584  15.59667  19.54837    58845.555 
    13.63903  1.67013   3.95951       4.16094         2264.11637  0.02678  0.06688     0.08212  12.72906     20.15527   7622.44019   -27.92512  0.90465  4707.26601  0.07943  58755.57878  51.96744   1.87967  19.57006  58854.30423 
    13.51712  1.53762   4.48607       0.64207         3432.71086  0.07441  0.01837     0.05417  41.58232        16.77    9957.6663    -19.0522  1.09687  5622.27421    3e-05   58764.4517  52.21651    6.4969   19.6299  58839.72217 
    13.83043  1.83765   5.66502       3.60397         3098.86861  0.16001   0.0633     0.02257  18.37552     16.07601    8253.4804   -19.53955  0.97974  5831.72308    1e-05  58763.96435  52.18516   12.0808  19.61038  58850.33729 
    13.87552  1.90869   5.25312       1.32901         3506.61773  0.07336  0.04511      0.2743  13.00974     17.59575   9904.36767   -16.55914  0.97281   3523.7319  0.00022  58766.94477  51.71785   5.17221  19.50154  58852.26666 
    13.61882    1.988    4.7582       4.58315          3410.5566  0.02727   0.1306     0.08988   7.00423     17.37089   9259.88357   -20.34637  1.38167  4383.96651  0.00013  58763.15753  51.84859   1.67866  19.64684  58848.47141 
    13.13152  1.85316   9.78423       4.82506         2822.06101  0.10851  0.01342     0.02342  82.77055     17.57318    8980.7882   -15.53509  1.43014  5489.89214  0.00021  58767.96881  52.24271  10.55445  19.66792  58851.38782 
    13.78039  1.80981     6.807        3.1009         2957.72083  0.38247  0.05722     0.12784  13.66781     17.51481   9075.66676   -17.80652  1.30841  4453.65822  0.00018  58765.69739  51.92566  27.23934  19.55375  58848.47141 
    12.45098  1.69992   5.20934       2.60367          2328.9268  0.34015  0.02528     0.04792  30.89715     16.83772     8967.342      -21.16  0.30814  3906.95263    4e-05  58762.34391  51.87846  28.23703  19.62522  58844.33033 
    13.48709  1.77007   3.48415       0.69882         2453.22771  0.00845   0.0206     0.13098   21.0077      20.6156   9337.21887   -17.09065  1.36331  5265.88619  0.22926  58766.41326  52.10751   0.65432  19.55073  58844.33033 
    13.14199  1.69278   2.27291       4.88897         3599.99498  0.13178  0.04971     0.22817  12.30044     17.93117   7919.10463   -22.23144  0.45211  4235.60507  0.00047  58761.27247  51.87266   9.18439  19.56602     58846.22 
    14.26056  1.71586   5.37736       0.67495         2789.21347  0.47505  0.13267      0.2491   8.19082     19.73724   7855.37081   -27.14298  0.29629  4475.15238  0.03034  58756.36092  51.88216  30.31463   19.6522     58849.13 
    13.51359  1.52366   3.91707       0.85516         3795.43053  0.02206  0.02985     0.41958  15.92832     17.89213   9833.32646   -17.86223  1.17945  3767.47429  0.00043  58765.64167  51.79361   1.61965  19.61652  58848.47141 
    13.67281  1.74596   4.27275       1.92969         3305.55065  0.01933  0.04042     0.04842  16.35073     17.16285   9164.03909   -24.52305   0.7596   4092.3596    8e-05  58758.98085  51.86769   1.42648  19.60629  58848.47141 
    13.75863  1.70154   4.59643       3.81016         3442.13146  0.00577  0.05086     0.01053  22.01195     19.21647   9728.49653    -21.2583  1.35491  3228.79935  0.00915  58762.24561  51.68642   0.45073  19.57348     58846.22 
      14.437  1.47835   9.71913        0.1072         2530.46824  0.16877  0.01418     0.04308   61.5998     19.79841   8614.86339   -21.45003   0.1059  4197.31423  0.03493  58762.05388  51.99002  15.69422  19.61998  58854.30423 
    13.34898  1.86853   3.79171       1.28022         3380.29875  0.33436  0.07152     0.13424   14.0155     17.60896   9669.89784   -11.10153  0.72835  7286.74654  0.00023  58772.40238   52.3555  23.93423  19.66204  58854.30423 
     13.8239  1.35853   8.39685       2.73217         3251.46081  0.19817  0.02464     0.16936  43.29577     18.88241   6838.60872   -10.46405   0.1041  5408.39549  0.00424  58773.03985  52.18572  17.41762  19.66169     58846.22 
    13.63027  1.67948   4.39811       4.28398         2780.04472  0.00647   0.0225     0.01505   37.5962     17.77995    7962.6051   -19.36379  1.24457  4673.42708  0.00033  58764.14011  52.04865   0.55506  19.56777  58837.33174 
    13.20482  1.34031    2.9239       1.46561         3341.32768  0.38148  0.08595     0.01252  19.43862     19.23951   8849.87258    -9.66682  0.42518  8289.62648  0.00964  58773.83709  52.49529  29.11174  19.57725     58849.17 
    13.49453  1.74461   4.04394       1.15675         2829.45764  0.18863  0.20989     0.05197   4.90264     19.66021   7980.03567   -19.55519   1.3513  5982.54027  0.02541  58763.94871  52.08061  10.63709  19.59789  58857.22065 
    13.10053  1.73982   2.73591       1.48754         2659.14386  0.01223  0.12063     0.01075   7.00896     17.56151   8865.29761   -20.13676  1.48945  5780.91423   0.0002  58763.36715  52.08892   0.75316  19.54922     58849.17 
    12.82498  1.52716   2.32438       0.01593         5648.05947  0.07609  0.02146       0.129  51.17738     17.01799   9754.54887   -12.33349  1.20302  8583.76305    6e-05  58771.17041  52.59873    6.8717  19.61926  58854.30423 
    13.68434  1.93892   4.56618       1.86633         3370.38341  0.38671  0.14576     0.10119   7.62946       18.273   8209.44568   -24.48772  0.61592  5252.02497  0.00104  58759.01619  52.01415  24.28026   19.6553  58850.33729 
    13.27459  1.61918   2.41887       2.15301          3390.2917   0.0256  0.01889     0.10974  22.61994     17.72209   8781.12259   -12.02113  0.43994  5508.63667  0.00029  58771.48278  52.15261   2.00973  19.63432  58848.47141 
     13.4272  1.84939   4.04314       4.94355         2940.75059    0.027  0.03041     0.03815  19.40552     17.27048   9352.84157   -15.84621  1.30395  5436.05233   0.0001   58767.6577  52.12865   2.06009  19.59421  58854.30423 
    13.25985  1.90071   2.73198       0.87694         2202.23532  0.00139  0.06688     0.02385   4.35305      18.6339   8323.82817   -17.04432  0.68976     6129.57  0.00239  58766.45959  52.08825   0.07596  19.59984     58846.22 
    13.24294  1.73906   3.05884       1.70185         3159.81737  0.03145  0.05103     0.01092   6.29079     17.52559   3763.99597   -12.51993  0.97239  5363.78721  0.00019  58770.98397   52.0127   1.88716  19.60096  58850.33729 
    14.38226  1.96864   7.29339        0.2947         3432.37427   0.4656  0.04805     0.11456  12.16768     16.58047   8740.36455   -21.93693  0.41432  3804.71675    2e-05  58761.56697  51.77849  32.37684  19.62511  58848.47141 
    14.13589  1.70569   6.27697       4.44464         2994.44386  0.17448  0.04134     0.02664  22.09033     18.43061   9571.47094    -21.0625  0.68272  3326.33219   0.0015  58762.44141  51.71255  13.63748  19.51096  58851.38782 
    12.87455  1.72852    2.1371       2.77206          2773.2861  0.03554  0.08707      0.0226   6.88236     17.74545   8232.47537   -20.80344  1.02179  5630.99559  0.00031  58762.70047  52.06423   2.17865  19.59688  58854.30423 
    12.92875  1.62935   4.77174       1.85954         2076.76319  0.13466  0.02568     0.03065  75.65903     16.89278   9076.42094   -14.02506  1.02212   7949.5544    4e-05  58769.47885  52.55843  12.92325  19.61352  58851.38782 
    13.62243  1.47349   4.03701       4.63878         2973.87161  0.03332  0.10204     0.06196   9.78687     17.94291    8999.6135   -26.37614  1.01179  3773.42449  0.00049  58757.12777  51.75119   2.21238  19.65087  58848.47141 
    13.61823  1.78974   4.56581       4.11502         3052.45631  0.00151  0.05131     0.01387  13.87607     17.61433   8826.58026   -16.43133  1.35693  5022.14384  0.00023  58767.07257  52.03133   0.10792  19.50006  58854.30423 
    12.94995  1.63314   2.55903       3.04353         3253.75616  0.06433  0.02826     0.04225  20.02184     18.84877   9649.80113   -15.48702  1.34614  5463.36545  0.00392  58768.01688  52.13557   4.93699  19.68396  58854.30423 
    13.95342  1.49077   4.41772       0.23977         2971.10468  0.29742  0.06886     0.29829    9.6397     18.35519   9919.99259   -19.58909  0.81025  3496.29852  0.00126  58763.91481   51.6835  19.68031  19.53225  58854.30423 
    14.89909  1.89928  11.33937       3.20871         3127.04991  0.09379  0.01537     0.02018  76.64236     16.19758   9431.30942    -11.0837  0.44683   4617.8829    1e-05  58772.42021  52.08747   9.01852   19.6252  58854.30423 
    12.95683  1.83462   3.38914       4.80627         3089.52778  0.10842  0.01285     0.27029  77.41316     17.28168   7904.30291   -12.60911  0.12577  5016.87405  0.00011  58770.89479  52.16011  10.44058   19.6365  58848.47141 
    12.32301  1.48881   1.02102       1.76938           3102.417  0.03145  0.01465     0.03515  42.20298     20.24958   9273.60756    -23.5512  0.70347  5602.55068   0.0987  58759.95271  52.21453   2.75293  19.59347  58851.38782 
    13.65513   1.9927   4.32713       3.77668         2386.55757  0.01343  0.06042     0.01379  10.29993     16.19098   9535.42427   -17.41254  0.94616  5502.07039    1e-05  58766.09137  52.08358   0.90178  19.61759  58852.26666 
     13.4371  1.78634   5.57275        3.5995         2475.74357  0.47665  0.06016     0.14235  12.73298      17.2453   9631.27554    -7.04733  1.44726  6580.52872   0.0001  58776.45657  52.25845  33.45781  19.57144    58845.555 
    14.04529  1.85782   4.86028       0.15366         2319.61469  0.01573  0.04475     0.46983  22.18729     19.42059   8474.87295   -12.95865  0.64915  5975.63912  0.01463  58770.54526  52.22174   1.23048  19.56926  58848.47141 
    12.87589  1.99041   2.17808       3.92354         2919.15544  0.18201  0.01862     0.21941  32.23341     18.53655   8080.49596   -15.11276  0.47122  4688.39023  0.00191  58768.39115  52.04002  15.22116  19.59528  58859.19922 
    13.77091  1.71929    4.8051       1.21684         2616.94383  0.23555  0.03569     0.01476  18.17324     17.07962   9206.55068   -21.36024  0.53245  4322.59019    7e-05  58762.14366  51.92414  17.74649  19.62123     58846.22 
    13.82907  1.81941   5.75544       4.97951         3494.86685  0.07393  0.03537     0.05555  26.91001     17.67163   8247.65418    -22.2327  1.22221  3887.65636  0.00026   58761.2712  51.86357   5.98954  19.54663  58848.47141 
    13.07971  1.90308  10.09338       0.50789         4018.73981  0.20687  0.02958     0.35341  45.87264     16.63879   8263.42912   -20.46971  0.84898  5141.98025    2e-05  58763.03419  52.14596  18.35535  19.55257  58851.38782 
    14.15368  1.61792   6.37349       4.42387         3675.00688  0.10031  0.02392     0.01225  36.00112     19.14714   9423.30854   -15.20204   0.6422  3318.84796   0.0078  58768.30187  51.74817     8.549  19.57463  58850.33729 
    13.72224  1.89059   4.70729       1.06996         3655.75227    0.017  0.13334     0.10029   6.25475     19.52172   9672.18723   -19.76414  1.17049  4992.80938  0.01847  58763.73976  51.94984   1.01873  19.51251  58850.33729 
    13.80632  1.82973   4.54041       3.60449         2568.45955  0.04701  0.03998     0.01659  11.60368     16.33003   8165.87711   -18.54205  0.68681  3928.70959    1e-05  58764.96186  51.80204   3.23692  19.54734  58854.30423 
    13.91883  1.91164   6.34637       3.33461         2601.13124  0.30202  0.08046     0.24889  10.38015     18.32063   8773.22688   -18.18218  1.39983  4605.22466  0.00116  58765.32172  51.92975    20.308  19.57683  58854.30423 
    12.78712  1.85865   2.97525       3.44687         3541.28667  0.23785  0.03602     0.01947  26.36538      19.3411   8643.16493   -18.30758  1.46256  4524.77979  0.01219  58765.19633  51.99381  19.19915  19.61057  58859.10938 
     14.0153  1.71931   4.34568       1.23365         2819.23595   0.0127  0.08227     0.35976  12.55012     18.18902   9145.41664   -15.14458  0.37252  7551.77233  0.00086  58768.35933  52.37673   0.88913  19.68122  58841.36062 
     13.4892  1.81037   3.99106       4.57209         2167.42142  0.00677  0.14272      0.0245   6.17267     17.50238   6953.63966   -20.21588  1.43373  5921.41025  0.00018  58763.28802  52.09662   0.40405   19.5762  58857.22065 
    13.59755  1.95816   4.28312       0.27163         3295.24398  0.01818  0.07315     0.13264   7.93829     17.89582   9639.41669   -15.95958  1.11458   5415.4772  0.00044  58767.54433  52.04472   1.15214  19.65052  58859.10938 
    12.04457  1.32155   2.75618        4.3323         3099.35785  0.23738  0.02479     0.42574  33.10943     16.11174   7537.01095    -9.18287  0.61747  5533.47932    1e-05  58774.32103  52.18598  19.94306  19.59015  58857.22065 
    12.50356  1.81827   3.66104       4.55074         3330.80008  0.25871   0.0369     0.05539  29.04991     16.18247   8059.94929   -11.39916  1.20909  5676.00528    1e-05  58772.10475  52.19818  21.24601  19.57016  58852.26666 
    13.72726  1.81666   4.52737       0.81607         2659.93294  0.00255   0.0376     0.10244  13.08118     19.00484   9421.60864   -18.44361  1.16746  4209.84607  0.00562   58765.0603  51.87287   0.17979  19.53724  58841.36062 
    13.70141  1.47397   3.75715       1.34363         2775.80459  0.02415   0.0979     0.02393  16.96934      20.0007   6821.33181   -21.06423  1.21942  5394.27284  0.05564  58762.43967  52.11076   1.79537  19.66711  58844.33033 
    12.83682  1.32262   1.11441       2.88938          3573.2915  0.01236  0.02044     0.08676  17.12795     19.94936   9277.25646   -17.66311  0.24079   4330.3326  0.04944  58765.84079  51.92072   0.92031  19.63974  58854.30423 
    13.80167  1.88432   4.34212       0.13303         3537.94675  0.04656   0.0257      0.1239  23.73605     18.41836   8475.00199   -14.10084  0.53397  6808.46212  0.00146  58769.40307  52.34046   3.68778  19.55546    58845.555 
      13.577  1.28834   4.88017       0.75192         3882.89201  0.27682  0.05322     0.09745  16.69838      16.7192   9459.23372   -20.69994  1.11766  4385.24657    3e-05  58762.80397  51.92952   20.5163  19.65897  58868.88629 
    12.67892   1.5651    2.5975       0.48413         3076.43175  0.11055  0.01413     0.39962  59.54672     16.68273    8603.9281   -10.72456  1.54709  6234.04078    3e-05  58772.77934  52.33132  10.22588  19.61894  58854.30423 
     13.7285  1.74614   4.37782       0.67503         4070.20064  0.00482  0.14319     0.22863   6.15371     18.65232   9920.45958   -17.75278   1.1955  4481.26751  0.00249  58765.75112  51.85425   0.28767  19.56242     58849.17 
    13.26826  1.67794   3.09401       3.17198         3186.77418  0.00381   0.0227      0.1279  22.60183     20.36403   7538.52663   -17.18342  0.98894  5629.57871  0.12846  58766.32049  52.17141   0.29943  19.60847  58850.33729 
    13.22001   1.5418   3.74326       1.86497         3023.63394  0.19653  0.02797     0.17843  22.58824     16.05732   9877.97198   -15.63836  1.04507  4906.60372    1e-05  58767.86555  52.05197  15.42459  19.59672  58854.30423 
     13.7157  1.50316   5.22075       1.83672          3328.0042  0.21893  0.05501     0.16556  14.41077      19.0373    9745.2654   -11.68917  1.23679  5244.39823  0.00605  58771.81473  52.07226  15.75975   19.5407     58846.22 
    13.55226  1.29634   3.60361        1.3244         2275.88392  0.02685  0.05148     0.01137  11.20252     16.48044   7530.27975   -17.34507  0.85777  5249.59686    2e-05  58766.15884  52.05057   1.83515  19.63832  58854.30423 
    13.81091  1.54942   4.50812       2.39196         3624.59138  0.07918   0.1069      0.1917   5.71285      17.3484   9023.86072   -13.80429  0.71754  4296.24156  0.00012  58769.69962  51.80973   4.64034  19.66912  58854.30423 
     13.7662  1.45267   4.85593       1.45906         3689.40278  0.28633  0.09115     0.29092   7.63237     18.26671   8906.08071   -13.23595  1.55685  3978.51784  0.00103  58770.26795  51.77298  17.97945  19.64393  58850.33729 
    13.34624  1.51115   6.13733        1.2053         3434.63339  0.38289  0.03927     0.15883  18.64758     19.34476   8757.89818   -13.21728  1.33139  4934.11257  0.01229  58770.28662  52.04121  28.98961  19.68219     58849.17 
