 texplosion  fnickel    Pspin  log(Bfield)      Mns  thetaPB   mejecta    kappa  kappagamma     vejecta  temperature    alpha  cutoff_wavelength  log(nhhost)      A_V         MJD0  kenergy  mnickel              TSD   log(L0)  Peak_mag     Peak_MJD  log(E_rad)  log(Peak_lum)  Rise_Time     E_fold  tau_1  delta_m15     r_peak     frac 
  -16.26422  0.47916  4.91549      14.1785  1.51491  0.38083   5.30185   0.2637     0.45095  6232.55177   3247.87448  1.47177         3263.65769     18.24362  0.00097  58767.23969  1.22853  2.54044    1493925.84394  44.89177  19.57712  58854.14811    51.00607       43.88798   62.57347  101.46858   88.0    0.07595  -20.83286  0.70064 
  -11.35566  0.24063   3.7805     14.27894   1.8605  0.43219   8.05944  0.15585     0.48518  5370.36332   3792.05745  4.50675         2901.96755     20.98803  0.54046  58772.14825  1.38656  1.93938     683368.61481  45.54872  19.54683  58851.70462    50.97129       43.92354   57.77168   78.08539   87.0    0.08157  -21.30072  0.88079 
  -21.20914  0.09315  3.90299     13.79567  1.41568  0.50112   3.03808  0.32656      0.1556  6213.71528   5584.39334  0.92325         3728.48161     19.05975  0.00637  58762.29477  0.69973  0.28299    5131507.03552  44.52677  19.61796  58851.70462    50.87211       43.94254   43.18764   69.86935  114.5    0.07867  -20.79141  0.96554 
  -18.68023  0.03355  3.56633      13.8604  1.46844   1.2041     7.525  0.25423     0.37024   5922.5485   8049.19921  0.90067         3208.43504     20.10236  0.07032  58764.82368  1.57453  0.25248    3298533.72814  44.81294  19.51152  58851.70462    51.03822        44.1241   39.69798   69.09101   66.5    0.08224  -20.87778  0.97822 
  -13.58883  0.00426  3.42827     14.14919  1.67293  0.88773  11.22288   0.2542     0.48732   6298.2228    7962.8226   2.0231          2517.4618     18.37704  0.00132  58769.91508  2.65563  0.04785     918477.50208   45.4591  19.63565  58854.14811    51.15205       44.15409   49.23887   77.40383   63.0    0.07941  -20.77027  0.99686 
   -11.0475  0.49087  2.26153     14.35156  1.89472  0.87708  19.68038  0.09808     0.03936  6400.71225   9751.54394  0.99951         3601.65969     21.05087  0.62459  58772.45641  4.80969  9.66052     178257.00859  46.58654  19.64778  58856.59159     50.8871       43.84524   58.61001   79.67758   73.5    0.06694   -21.4466  0.81586 
  -12.81671  0.32773  4.50833     14.01983  2.06702  1.20286   5.91395  0.28369     0.49638  6531.16171   9711.23616  4.95881         2102.26688      20.6645  0.25659   58770.6872  1.50482   1.9382    3560601.19386  44.72464  19.55343     58849.13     50.8776       43.92101   58.29517   69.86935   62.0    0.08977  -21.11967  0.85851 
  -22.65167  0.08821  4.36202     13.64867  1.85221  0.97592   4.38555  0.16725     0.22431  5086.49106   9873.63093  0.52858         3750.77387     17.98582  0.00054  58760.85224  0.67684  0.38683   16502410.62513  44.03961  19.56329     58849.13    50.85197       43.82139   57.50342   76.89791  127.0    0.07333  -20.72873  0.95964 
  -14.20831  0.00562  4.36038     14.21082  1.72222  0.52021   5.47642  0.29062     0.38431  6150.90485   4864.30338  3.62479         2329.74488     18.74061  0.00306   58769.2956  1.23595  0.03078    1151642.76283  45.16457  19.53617     58849.13    51.02717       43.97128   49.50511   94.11522   71.5     0.0893  -20.83057  0.99679 
  -20.11428   0.1505   4.2113     13.76182  1.51572  1.20868   4.84429  0.25149     0.41997  5431.07959   8007.19472  2.14359         2590.63428     18.31473  0.00115  58763.38963  0.85237  0.72908    7475408.46532    44.327  19.52221  58850.33729    50.87037       43.87396   68.63991   73.75098   86.0    0.07869  -20.77654  0.91868 
  -20.33393  0.01438  3.94305     14.36862  1.87322   0.2481   7.11606  0.15575     0.49826  5474.80748   7754.29417  2.19313         2551.60397     20.75498  0.31601  58763.16997  1.27234  0.10236     495266.57449  45.65493  19.58537     58849.13    50.97666       43.89852   59.93076   87.10791   96.0    0.07219  -21.08137   0.9921 
  -12.96821  0.00102  5.06609     14.15003  2.06494  1.18405   8.14842   0.1832     0.02636  3708.90405   5366.43483  2.61603          4068.0297     16.02699    1e-05  58770.53569  0.66864   0.0083    2466113.46565  44.78239  19.60983  58851.70462    51.08333       43.91561   57.73924  124.21218   78.5    0.07062  -20.67765  0.99912 
  -13.17302  0.03353  4.18555     14.19117  1.91441  1.02097  13.43757  0.13453     0.29187  4166.09525   5705.96913  1.51421         4251.50082     16.34499    1e-05  58770.33088  1.39125  0.45056    1291265.25899  45.19636  19.57389  58852.26666    51.08177       43.95113   66.25913   96.30606   75.5    0.07098  -20.71583  0.96498 
  -17.71756  0.00278  4.39024     13.91274  1.67982  0.85395   4.70641  0.23242     0.13556  6362.08042   8558.99181  0.27118         2146.74452     19.64877  0.02475  58765.78634  1.13636  0.01306      4493470.837  44.55655  19.62999  58846.81765    50.93938       43.88677   56.58476    89.2775   70.5    0.10037  -20.84149  0.99852 
   -17.6254  0.43153  5.70591     14.28878  2.06013  0.64231   6.21872  0.27329     0.01936   5683.7124      9719.73  0.67011         3574.11276     19.02935  0.00594   58765.8785  1.19837  2.68355    1647398.74718  44.85329  19.54113  58852.26666    50.93139       43.92787   57.96802   81.28546   57.0    0.09846  -20.78689  0.73051 
  -18.98132  0.47183  5.08317      14.5116   1.8397  0.28984    5.2067  0.33194      0.0216  6076.87455   3314.83836  2.53291          2010.6003     17.66748  0.00026  58764.52259  1.14697  2.45666     418443.92959  45.49969  19.54961  58850.33729    51.01416       43.89672   58.18965   99.01639   60.5    0.10007  -20.80029  0.75856 
  -12.73043  0.29945  5.50972       14.077  1.82037  1.16584   7.08066  0.18556     0.37022  3551.90766   5682.79936  3.15921         4126.58165     18.03012   0.0006  58770.77347  0.53287  2.12028    3599493.86393   44.4905  19.58595  58849.26113    51.03145        43.9007   63.52687  104.83884   92.5    0.06427  -20.73469  0.75439 
  -12.40021  0.21311  4.01134     13.92767  1.40062  1.05003   5.43739  0.28604     0.07944  4724.60628   9233.07185  3.00314         3666.61151     19.24404  0.00974   58771.1037  0.72402  1.15873    2919907.37384  44.74322  19.54648  58841.93067    50.96485       43.95856   50.40462   72.35182   72.0    0.07571  -20.80068  0.87813 
  -15.43675  0.02679  4.84884     14.01187  1.87796  1.42595   5.33755  0.32935     0.02707  5045.16064   9566.98399  2.31281         3529.37323     18.35624  0.00126  58768.06716  0.81044  0.14301    3881858.17305  44.58222  19.57797  58852.26666    50.89169       43.89275   60.81865   77.63261   59.5    0.07813  -20.72645  0.98406 
  -21.12968  0.00103  4.26754     14.04292   1.7769   0.4498   5.47478  0.26811     0.02046  5647.47442   8688.41467  3.20207         2299.24032     19.68151  0.02668  58762.37422   1.0416  0.00566      2466054.072  44.86615   19.6187  58852.26666    50.97737       43.97148   52.40201    75.6918   60.0    0.08892  -20.81388  0.99942 
  -15.70881   0.0119  4.12729     13.86463  1.38566  0.75976   8.47532  0.19552     0.40542  5817.85802   8100.18705  4.94836         3511.03489     18.39031  0.00136   58767.7951  1.71123  0.10086    4088205.22075  44.56764  19.56651  58851.70462    51.14182       43.89199   66.28884  166.91011   81.5    0.08259  -20.84486  0.98675 
   -5.42112  0.00591  1.08784     13.90413  1.61867  1.55846  16.74894   0.1618         0.5  7360.10828   7965.28118  4.35063         2064.48417     21.24136  0.96848  58778.08278  5.41231    0.099      276594.0979  46.96303  19.54638  58854.14811    50.99995       43.92133   58.22446  104.80403   60.0    0.07689  -21.82962  0.99933 
  -19.20174  0.00509  4.97495     13.91194  2.04895  1.12862   4.54239  0.31364     0.47468  6299.48907   8399.66097   1.0441         2232.44933     18.66034  0.00254  58764.30217  1.07528  0.02314    7063837.20749  44.33776  19.59031  58851.70462    50.96218       44.00515   42.69794   71.03182   79.0    0.08445  -20.86069  0.99749 
  -10.33191  0.02389  4.03378     14.80729  2.15257  0.26536  12.59408   0.1515     0.45872  4754.66434   9260.93602  0.66145           4942.825     18.79303  0.00345    58773.172  1.69837  0.30083      78998.59784  46.49276  19.54634  58854.14811    51.04139        43.9973   55.79842   77.63261   60.0    0.07927  -20.76988  0.98156 
   -8.13455  0.00846  2.50031     14.07736   1.4397  1.17608  14.82128  0.11497     0.07642  4082.21053   7778.18418  1.09122          4504.1686     17.61785  0.00023  58775.36936  1.47334  0.12542     585267.74515  45.86378  19.57644  58852.26666    51.03131        44.0317   52.56685   74.70707   65.0    0.07948  -20.69437  0.99457 
  -16.73158  0.11855  3.00888      13.8306  1.54604  1.16839    5.1713  0.28304     0.04071  5329.20664   9263.90515  2.99453         2027.82604     20.81271  0.36094  58766.77233   0.8761  0.61303    2835548.49696  45.04862  19.54028  58841.93067    51.02774       43.93247   53.89336  104.57525   59.5     0.0744  -21.08268  0.96569 
  -16.62343  0.00395  3.18024     14.02211  2.13163  0.98548   9.20408  0.30074     0.01188  6671.70221   9807.87332  3.47072         2292.10664     20.95508  0.50097  58766.88048  2.44389   0.0364    1808086.78471  45.33542  19.51961  58850.33729    51.06011       43.94298   64.31321   93.19395   48.0    0.09498  -21.37619  0.99855 
   -16.5433  0.00347  5.02221     14.03893  2.07362  1.13633   6.97145  0.23647     0.42075  6003.66665   9496.39685  3.45077         2401.32962     19.55788  0.02007   58766.9606  1.49894  0.02416    4059482.12873  44.57531  19.60777  58851.70462    50.92938       43.93244   56.51242   79.34465   64.0    0.09088  -20.82189  0.99745 
  -13.96449  0.14639  4.94578     14.09677  1.79171  0.71323   5.35437  0.28986     0.39919  7217.28326   7552.98406  3.61755         2236.97097     18.83319  0.00378  58769.53942  1.66373  0.78384     2606215.7389  44.71763  19.47065  58850.33729    50.98074        44.0421   63.49417   65.25302   73.0     0.0982   -20.8757  0.90849 
  -21.03877  0.29595  4.05462     13.80358   1.8521  0.74908   3.49499  0.27986         0.5  5552.80093   9461.27875  0.52207          4226.2873     20.64289  0.24413  58762.46514  0.64283  1.03435    6985851.23365  44.47639  19.58047  58851.70462    51.10146       43.94867   58.87783  118.38973  100.5    0.06678  -21.08399  0.91649 
  -11.94847  0.08168  2.86616      14.3654  1.95891  0.32281   9.12066  0.16412     0.29531  4838.86821   4771.62669  2.60668         3464.91861     21.17772  0.83647  58771.55544  1.27392  0.74497       277738.044  46.20263  19.63289  58859.03508    51.03113       43.92727    64.3055   93.61191   86.5    0.07264  -21.63417  0.97331 
  -18.19008  0.02734  4.05104     14.15874     1.51  0.30561   8.39169   0.1813     0.40467  5635.30901   5321.09637  4.14666         3435.21177     20.34339   0.1225  58765.31383  1.58969  0.22947    1107748.11963  45.18825  19.56247  58852.26666     51.2108       44.26162   47.25328   63.85827   97.5     0.0727   -20.9377   0.9741 
  -16.19329  0.34095  5.51161     13.95024  1.83475  1.37947   5.85899   0.2232     0.40934  5595.27833   8916.47596  2.26052         3208.42511     17.29905  0.00011  58767.31061  1.09419  1.99764    6508449.57363  44.23639  19.59606  58851.70462    51.07673       44.07346    51.7873   69.86935   78.0    0.08169  -20.79951  0.76368 
  -15.06685  0.42231  5.34666     13.84056   1.5635  0.96924   5.97042   0.1992     0.49183  5677.84975   5088.86827  4.75664          3031.8341     18.39888  0.00139  58768.43706  1.14815  2.52135    8648952.47315  44.06981  19.59179  58854.14811    51.01896       43.85534   66.28884  110.62647  101.5     0.0744  -20.76243  0.67315 
  -14.65359  0.19551  5.14254      13.9538  1.86768  0.74957    3.8137  0.29415     0.16286  7391.58219    7955.2668  2.24118         2526.14211     18.15247  0.00079  58768.85031  1.24293  0.74563    5673739.62612  44.36392   19.5885  58856.59159    51.01278       44.02486   48.46843   74.29264   84.0    0.09662  -20.87369  0.90728 
  -21.39335  0.09536  4.16984      13.9612  1.69554  0.48407   6.00975  0.14904     0.48702  5375.67641   6844.89952  2.07642         2191.78882     18.40045   0.0014  58762.11056  1.03598  0.57308    3273057.81614  44.74296   19.5577  58851.70462    50.83169       43.90235   59.51575    62.1409  129.5    0.06689  -20.83202  0.94278 
   -22.4829  0.00523   2.5307     14.21018   1.8469  0.53292   6.73875  0.25985     0.36058   4722.4896   8522.20534  0.41188         2372.29528     20.84485  0.38866  58761.02101   0.8965  0.03527     417237.97959  46.10842  19.57616  58852.26666    50.98231       43.92115   61.17486   95.09995   68.5    0.06623  -21.11622  0.99891 
  -16.94193  0.00683  3.76243     13.74792  1.37532  0.54018   3.60519   0.2306     0.45198  5936.72028   6779.69712  1.27208         3666.93977     19.70398   0.0281  58766.56198  0.75796  0.02461    5771811.22196    44.495  19.51469  58854.14811    50.93958       43.91924   50.84332   83.22628  134.0    0.07897  -20.80717  0.99701 
  -15.61927   0.4766  1.85385     12.71091  1.44943  1.21449   4.62687  0.31773     0.04944  7963.28967   8410.43996  2.97431         2759.18919     18.50497  0.00178  58767.88464  1.75025  2.20515  175123559.45699  43.65055  19.55635  58846.81765    50.90737       43.87596   66.28884   81.51424  108.5    0.04618  -20.97237  0.88603 
  -15.45351  0.04688  3.45061      14.0364  2.14404  0.89115   8.24612  0.23386         0.5  6638.14556   9479.30515  3.25873         2513.62907     21.03669  0.60453  58768.05039  2.16756  0.38658    2004615.92431  45.22226  19.51983  58854.14811    50.94415       43.99113   65.11302   67.07376   63.0    0.07775  -21.47638   0.9822 
  -11.60983  0.10975  4.39411     13.96046  1.76237  1.23405   6.45411  0.24579     0.47109  6582.71117   9938.04539  1.52031         3385.60901     20.42233  0.14691  58771.89407   1.6683  0.70835    3790833.60259  44.65047  19.63327  58854.14811    50.98117       44.00304   54.34283    75.6918   60.0    0.10412   -21.0067  0.93233 
  -11.63524    0.025  1.68163      14.2527  1.87554  0.65896  13.84396     0.28     0.18989   6992.9632    5729.5414  1.44521         2537.59263       21.055  0.63056  58771.86866  4.03841  0.34606     153817.22564  46.90351  19.66128  58854.14811    51.09844       44.07399   63.11567   81.51424   70.0    0.06258   -21.4617  0.99546 
   -17.2844  0.06137   4.4499     14.81441  1.63863  0.12032  13.01601  0.11268         0.5  4342.44867   8786.67968  2.35026         3692.94789      19.6675  0.02584  58766.21951  1.46411  0.79879      70821.82712  46.33646  19.58249  58851.70462    50.90466       43.91215   59.68005    75.6918   78.5    0.07118   -20.7551  0.91409 
  -18.60422  0.04421  4.80195     14.01308  1.88595  1.20236   8.42236   0.2514      0.3537  5004.16646   8442.57542  4.97553         3170.13634     18.09044  0.00068  58764.89968  1.25813  0.37237    3802052.66722  44.60152  19.61527  58850.33729    51.02222       43.92045   57.77168   93.61191   79.0    0.06722  -20.73694  0.96039 
  -18.57521  0.00112  4.14657     13.56477  1.71861  1.30437   5.35878  0.24882     0.01548  6264.13803   9703.62795  4.28006         3328.64436     18.59701   0.0022   58764.9287  1.25434    0.006   20362262.28058  43.95982  19.54294  58854.14811    51.13043       43.92853   60.16527  147.50196   66.0    0.09013  -20.82357  0.99935 
  -14.76322  0.39628  5.65536      13.9879  1.99335  0.71911   6.55866  0.22511     0.02455  6700.93935    7863.7734  3.87098         3129.59993     20.06807  0.06498  58768.74069  1.75677   2.5991    6259184.08535  44.26699  19.63964  58856.59159    50.90142       43.92841   41.29664   82.91554   67.5     0.0914  -20.93235  0.71498 
  -17.45929  0.37606  3.97367      13.8222  1.30328   0.7052   3.47999  0.24102     0.38807  4955.89916   5195.92324  1.11714         3439.13957     17.29559  0.00011  58766.04462  0.50986   1.3087    4333441.88849  44.54867  19.48155  58850.33729    51.84955       45.04334   30.16742   53.44098  102.0    0.08461  -20.75804   0.8484 
   -8.42087  0.13793  2.15568     14.15417  1.18671  0.65136  10.35802  0.30621     0.07215   7072.1986   8570.65555  0.26223         3999.85985     18.79561  0.00347  58775.08304  3.09039  1.42868     251757.42084  46.27504  19.62678  58856.59159     51.0407       43.93541   65.98772   95.09995   58.0     0.0838  -20.84553  0.94186 
  -16.73045  0.11703  4.10193     13.54745  1.63653  1.25846   2.41857  0.30643     0.01545  4565.60418   8679.36899  2.27269         4045.39343     17.70768  0.00028  58766.77345  0.30073  0.28305   20549815.14192  43.94399  19.59727  58849.26113    51.31946       44.31858    50.4612    75.6918   62.5     0.1167  -20.79729  0.96885 
  -17.04578  0.05287  4.55836     13.85978  1.73157  1.06471   4.29994  0.33592         0.5  6739.92613   9661.35252  0.46375          3889.1444     16.75522    3e-05  58766.45813   1.1652  0.22734    6372501.52983  44.38536  19.61502  58850.33729    50.88356       43.84184   60.16527    89.2775   74.5      0.107  -20.87499  0.97414 
  -12.04542  0.02217   3.4877     14.09699  1.41299  0.73144  10.79831  0.19835     0.17494  5962.65706   4816.83126   3.3821         2517.20384     18.14922  0.00078  58771.45848  2.29014  0.23939    1021042.93713  45.32486  19.63062  58846.81765    51.01516       43.85204   57.98302  111.07925   67.0    0.08665  -20.71696  0.97929 
  -17.52548  0.00805  5.07351     14.46942  2.08695  0.37924   4.99422   0.3145     0.07746  5544.99056   4950.05851  0.73834         3739.28823     18.70933  0.00284  58765.97842    0.916  0.04022     574243.55008  45.41864  19.59065  58851.70462    50.92403       43.88849   58.18965   81.54905   72.5    0.08633  -20.78443  0.99575 
  -10.24977  0.00998  3.34428     14.26765  1.46481  0.40102   8.64236   0.2829     0.04432  5408.18403   4418.28826   3.1038         3514.87167     20.47104  0.16435  58773.25413  1.50787  0.08622     443513.57884  45.73911  19.57432  58850.33729    51.02271       43.94318   57.98392   89.81916   74.0    0.07192  -20.93139  0.99337 
  -16.89389  0.00595   4.4603     14.04136  2.14823  0.75778   7.62002  0.26381     0.01191  5897.44825    9575.4316  2.24131         2895.21854     20.55044  0.19732  58766.61001  1.58093  0.04536    3280168.01429   44.7863  19.54308  58846.81765    50.85625       43.85464   65.79119   76.89791   51.5    0.09809   -21.0052  0.99636 
  -19.42319  0.00347  3.08484     13.78101  1.10072  0.50083   9.96409  0.07125      0.3376  4635.88737   9853.76055  0.64845         4359.13202     20.06951   0.0652  58764.08072  1.27741  0.03459    2666429.67167  44.90613  19.62002  58852.26666    51.06867       44.02649   53.24265   77.09309   80.0    0.08478  -20.82219  0.99634 
  -14.90202  0.03196  4.41061     13.89275  1.54725  0.88656    7.1376  0.18286     0.49686  5284.92576   9918.93679  2.01745         3863.56012     18.82213  0.00369  58768.60188  1.18921  0.22815    4580051.96402  44.50854  19.50126  58852.26666    50.85168       43.89687   60.54619   68.03269   69.5    0.08085   -20.8345  0.97155 
  -26.28019  0.02005  3.68098      13.4293  2.09337   1.2014   4.56071   0.2265     0.01097  5166.45203   8948.39103  1.58741         3234.54325     16.64373    2e-05  58757.22372  0.72618  0.09143   36474000.25046  43.89578  19.50972     58849.13    50.82199       43.85951    65.5025   67.92853   68.5     0.0936  -20.74839  0.99331 
  -11.90542  0.01138  4.50631     13.99566  1.77416   1.1961   8.55174  0.23033      0.3398  7116.35225   7885.19293  0.56317         2195.13655     16.08898    1e-05  58771.59848  2.58343  0.09734    3413041.87718  44.67705  19.56986  58852.26666     51.0926       43.89296   67.92853  124.21218   61.5    0.10219  -20.83741  0.98975 
