 texplosion  fnickel    Pspin  log(Bfield)      Mns  thetaPB   mejecta    kappa  kappagamma     vejecta  temperature    alpha  cutoff_wavelength  log(nhhost)      A_V         MJD0  kenergy  mnickel             TSD   log(L0)  Peak_mag     Peak_MJD  log(E_rad)  log(Peak_lum)  Rise_Time    E_fold  tau_1  delta_m15     r_peak     frac 
  -37.15193  0.00527  5.28196     13.92626  1.88091  0.89519   3.41265  0.21886      0.0116  4642.46228   8589.10033  4.69812         3404.88108     18.63908  0.00242  57590.24807  0.43875  0.01798   6843047.11228  44.26237  23.25241  57687.96407    50.73663       43.85748   52.31094   55.8776   54.0    0.14115  -20.72776  0.99745 
  -40.11706  0.00242  3.70892     13.62675  1.74396  1.38416    3.4921  0.29533      0.0132  5518.93835   8040.76217  2.29487          3530.7269     20.68839  0.27109  57587.28294  0.63449  0.00845  12426569.48914  44.27754  23.20043  57690.42269    50.81049       43.91267   53.49983  59.44425   57.0    0.13041  -21.11456  0.99933 
  -33.55566  0.00791   4.6323     13.81022  1.64675  1.08582    5.1098   0.2399     0.01783   6735.2436   7563.42718  4.75185         3366.40587     18.94069  0.00485  57593.84434  1.38273   0.0404   7862976.01186  44.25829  23.28065     57686.11    50.84608       43.94696   51.12206  60.63314   54.0    0.14508  -20.92852  0.99471 
  -37.35559  0.01202  4.26091     14.31886   1.7822  0.23487   5.81403  0.26904     0.01288  7046.70715   7186.05929  3.73941         3424.73182     18.12537  0.00074  57590.04441  1.72217  0.06986    691929.87671  45.42073   23.1761  57690.42269    50.85448       43.94611   54.68871  60.63314   55.0    0.14251  -21.01323  0.99298 
  -42.99115  0.39517   4.0056     13.54696  1.45011  1.48909   5.76896  0.23248     0.01005  5686.67345   7494.54782  2.65877          3483.9766     17.92849  0.00047  57584.40885  1.11286   2.2797  17403082.74021  43.98429  23.21818  57687.96407    50.71755       43.86902   48.74429  53.49983   61.5     0.1176  -20.88064  0.77892 
  -41.91406  0.00154  3.73616     13.90827  1.65112  0.41268      5.18   0.2824     0.01293  7067.78729    7783.5533  4.04206         3322.29803     18.24718  0.00098  57585.48594  1.54356  0.00798   3265159.38572  44.82787  23.21826  57687.96407    50.79386       43.89325   51.12206  60.63314   56.5    0.14148  -20.96488  0.99927 
  -43.64825  0.01523  4.00249       13.647  1.50017  1.30447   3.91862  0.31638     0.01632  5433.77772   5437.18416  2.37558         3756.63201     17.55857   0.0002  57583.75175  0.69018  0.05969  11340051.62122  44.18571  23.21119  57690.42269     50.8041       43.93651   50.40361  54.21828   59.5    0.12304  -20.87229  0.99323 
  -37.72216  0.00329  4.78268     14.00833  1.75081  1.00881   6.54379  0.22681     0.01123  5840.36813   7805.03176   3.5607         3467.24362     18.09348  0.00069  57589.67784  1.33149  0.02156   3578831.54653    44.599  23.29566  57690.42269    50.81828       43.93632   54.68871   55.8776   51.0     0.1299  -20.83862  0.99735 
  -36.14661  0.04243  4.25491     13.73737  1.57721  1.39728   4.96436  0.30461     0.02342   6998.5778   3770.94504  1.90009         3706.76792     18.35697  0.00126  57591.25339  1.45047  0.21065   8886772.34298  44.26021  23.31049     57683.12    50.83548        43.8882   49.93317  70.14422   55.5     0.1287  -20.98677  0.97586 
  -31.83338  0.09426  4.65135     13.92242  1.65345  0.84542   5.59414  0.18126     0.01045   5998.0813   8378.53163  2.52513         3716.86604     19.88803  0.04293  57595.56662  1.20056  0.52732   4748190.25578  44.47555  23.26396     57694.19    50.79373       43.90725    55.8776   55.8776   49.0     0.1586  -20.93694  0.93572 
   -31.0775  0.03805  3.48862      13.9918  1.53721   0.7566   4.57576  0.28749     0.01454  5108.40365   3061.20717  4.28742         3472.03478     20.84207  0.38618   57596.3225   0.7123  0.17409   1804086.06747  45.11401  23.19254     57686.12    50.76559       43.88952   48.74429  57.06648   56.0    0.11409  -21.20446  0.98646 
  -40.16023  0.32004  4.46957     13.64331  1.70523  1.11253   3.22402  0.29468      0.0203   6109.0712    7661.6411  4.24825         3379.67481       16.851    4e-05  57587.23977  0.71775  1.03181  16349682.45914  43.98659    23.273  57690.42269    50.80783       43.90809    55.8776  58.25537   60.0    0.13525  -20.89107  0.88564 
  -29.58358  0.02913  4.63358     14.57243  1.69682  0.22615   6.73663  0.20896     0.01215  6718.00646   7655.07744   1.7297         3793.62293     19.34083  0.01218  57597.81642  1.81364  0.19621    242345.74382  45.78221  23.13261  57690.42269    50.78973       43.92002   52.31094   55.8776   48.0    0.15761  -20.92457   0.9768 
  -28.12375  0.25432  4.28546     14.37486  1.80797  0.36173   6.03247  0.26205     0.01295  6570.44187   3302.45747  2.57142         3647.25607     20.65776  0.25263  57599.27625   1.5535  1.53415    548623.21564  45.52277  23.35249  57695.33992    50.83052       43.91832   58.25537  60.63314   53.0    0.13856  -21.20521  0.87404 
  -34.37658  0.00157  3.79143     13.75085  1.64471  0.56945   4.07738  0.17238     0.01043  5714.84272   8541.40046  2.48865         3641.61732     19.66681  0.02579  57593.02342  0.79436  0.00641   6915187.03154  44.48752  23.31705  57687.96407    50.79193       43.87064   54.68871  63.01091   56.0    0.14523  -20.90848  0.99938 
  -33.00015  0.10444  5.02458     13.87682  1.84739  1.18929   3.83636  0.29239     0.01554   5869.8294   4222.69719  2.85207         3594.20687     18.52943  0.00188  57594.39985  0.78849  0.40067   7637345.61254  44.25026  23.28573   57692.8813    50.80754       43.91456   57.06648  58.25537   53.0    0.13956  -20.88052  0.95065 
    -47.389   0.0303  3.18149     13.72794  1.89858  0.37749   4.24355  0.30583     0.01442  6645.54575   5216.40361  3.32075          3412.4939     17.34817  0.00012    57580.011  1.11794  0.12857    6246228.2972   44.7464  23.24514     57686.12    50.88534       43.90946   52.78138   76.8071   67.5    0.12268  -20.96817  0.99178 
  -33.44704  0.23207  5.39979     14.28675  2.16362  0.35928   4.24851  0.16984     0.01058  5296.01616   7581.63121  2.15784         3751.32079     20.17293  0.08273  57593.95296  0.71082  0.98596   1564037.02745  44.94503  23.31038   57692.8813    50.75377       43.87347   53.02033   56.3571   58.5    0.13937  -20.91143  0.89226 
  -38.36199  0.01028  3.76176     13.63194  1.52346  1.28176   5.51406  0.27931     0.01499  6946.75156   7711.33814  3.97351         3364.68281     20.20521  0.08911  57589.03801  1.58731  0.05671  10903135.59202  44.26334  23.22203  57690.42269    50.76176       43.89792   52.31094  54.68871   53.5    0.13878  -21.07888  0.99445 
  -34.21643   0.0021  5.75511     14.21923    1.959  0.61656   9.38897  0.09165     0.01426  5069.49066   9405.01915  3.19324         3584.60543     18.33895  0.00121  57593.18357  1.43937  0.01975    2195297.6718  44.69928   23.2818   57692.8813    50.82602       43.91124   54.68871  61.82202   60.5     0.1116  -20.74848  0.99699 
   -35.6312  0.03933  4.85194     13.91822  1.82101  0.65522   5.33398  0.15264     0.01266  5778.10855   6992.09154  3.60438         3388.01012     18.12205  0.00074   57591.7688  1.06231  0.20979   5801152.38072  44.39381  23.30111   57692.8813    50.85037        43.9048   60.15848  67.05223   62.5    0.13474  -20.83576  0.97349 
  -37.54358  0.00224   4.2215     13.78539   1.5039  0.78519   3.76411  0.24358     0.01397  5303.05347   7836.26519  3.02246         3593.40989     17.38927  0.00014  57589.85642  0.63145  0.00844   6686175.25538  44.36995   23.3331  57690.42269    50.78103       43.88568   56.17112  57.96184   56.0    0.13538  -20.81602  0.99893 
  -36.99525  0.05441  4.31413     14.04921  2.03197  0.43022   4.57974  0.33049     0.01009  6551.73577   7254.52898  4.62071         3301.71233      19.3593  0.01271  57590.40475  1.17268  0.24918   2799578.95201  44.85988  23.30371  57690.42269    50.76239       43.86751   53.49983  58.25537   56.0    0.14617  -20.94441  0.97856 
   -42.2764   0.3373  5.12708     14.43492  1.68994  0.24316   4.23866  0.28844     0.01795  5072.96789   3501.23621  4.31541         3410.13192     18.45422  0.00158   57585.1236   0.6507   1.4297     556663.6788  45.33138  23.20446  57690.42269    50.87674       44.02068   52.31094  52.31094   62.5    0.10441  -20.78101  0.81901 
  -37.40949  0.06205  3.63389     13.47372  1.45282   1.4587   4.47134  0.21449     0.01024  5878.45056     8136.085  2.65754         3590.57293     17.14128    8e-05  57589.99051   0.9217  0.27744  20106037.97193  44.00699  23.26006   57692.8813    50.73765       43.89113   49.93317  52.31094   55.0    0.14332  -20.89384  0.97193 
   -38.4051  0.02683  4.96031     14.17004  1.87951  0.43838   5.34965  0.25449     0.02565  7638.95605   6936.59653  3.54524         3214.01655     16.10938    1e-05   57588.9949  1.86218  0.14353   1962403.65852  44.85908  23.29456     57694.19     50.7786       43.89789   54.68871  57.06648   57.5    0.13661  -20.96541  0.98237 
  -37.26472  0.02659   4.6779     13.74457  1.80031  1.36343   3.50154   0.3198     0.01803  6078.03582   8095.93056  3.62072         3389.45993     18.44059  0.00153  57590.13528  0.77164  0.09311  11861074.35688  44.10997  23.21419  57690.42269    50.75235       43.90057   51.12206  52.31094   53.5    0.14178  -20.88394  0.98897 
   -26.0931  0.00428  4.94807     14.88095  1.70016  0.14229   2.81033  0.27994     0.17457  3662.24864   6565.55783  3.56846         3666.60177      19.7418  0.03066   57601.3069  0.22484  0.01204     66877.31001  46.28518  23.37005   57692.8813    50.81442       43.88028   60.63314  64.19979   70.0    0.10883  -20.65465  0.99837 
  -37.05299  0.15843  3.63574     13.61452    1.486  1.01812   4.23284  0.24866     0.01408  5985.21823   8965.31245  2.88797          3474.1368     20.52802  0.18739  57590.34701  0.90452  0.67063  10764049.09213   44.2877  23.32802   57692.8813    50.78155       43.90349   55.40294  55.16338   53.0    0.13524  -21.07757  0.93876 
   -42.4561  0.00163  3.60808     13.41508  1.49517  1.40955   3.20653  0.23191     0.01772   5327.2933   7066.89169   4.5889         3387.29015     20.01465  0.05746   57584.9439  0.54285  0.00524  26723815.11377  43.90209  23.26634  57690.42269     50.8623       44.00576   50.40361   53.0294   68.0    0.12109  -20.88709  0.99946 
  -34.91792  0.04868  4.69916     13.77825  1.84161  1.55269   5.42316  0.26912     0.01801  7332.83995   3244.11057  2.75974         3442.71199     19.47129  0.01644  57592.48208   1.7395  0.26399  10484734.14601  44.16945   23.2511   57692.8813    50.79593       43.92154   54.68871  54.68871   53.0    0.14793  -20.99743  0.97047 
   -38.8346  0.00493  3.27652     13.29883  1.61281  1.50972   7.00518  0.10975     0.01165  7042.57754   7133.10405  1.44124         3649.66714     16.20253    1e-05   57588.5654  2.07257  0.03454   40603379.8674  43.83704    23.278  57687.96407     50.8688       43.95425   51.12206  63.01091   69.0    0.12549  -20.94244  0.99715 
  -30.74851  0.07371  4.44051     13.68416  1.68281  1.06398   6.32035  0.13439     0.01022  6527.84873   8106.11115  3.78137         3449.98324     16.45827    2e-05  57596.65149   1.6066  0.46586  13194316.21181  44.07963  23.29971  57690.42269    50.75276       43.87883   51.12206   55.8776   54.0    0.15201  -20.93852   0.9457 
  -36.44274  0.02895  4.17729     13.83035  1.49027  1.28548   5.52339  0.24987     0.03296  6658.53999   3011.76952  1.77733         3449.46821     18.12058  0.00073  57590.95726   1.4608   0.1599   5274399.95916  44.47815  23.30234  57687.96407    50.87299       43.88116   52.31094  82.03307   59.0    0.11137  -20.92429  0.98117 
  -40.38432   0.0461  4.21281      13.7982  1.66801  1.03349   5.48045  0.30657     0.01477  6731.96869   6825.04226  2.07458         3721.78789     17.25791   0.0001  57587.01568  1.48159  0.25263   6962559.09819  44.39913  23.24081  57690.42269    50.74323       43.89453   51.12206  51.12206   55.5    0.13462  -20.98303  0.97386 
  -44.23171  0.05687  4.04222     13.70547  1.83758  0.63598   5.19408  0.14517     0.01205   5669.4813   7243.08113  2.62743         3542.90076     19.21742  0.00917  57583.16829  0.99592  0.29537   10823457.9992  44.28549  23.20051   57692.8813    50.79253       43.91891   53.49983   55.8776   69.5    0.11866  -20.85855  0.97166 
  -34.29963  0.01078   3.3147      13.5195  1.15268   0.9951   6.81924  0.17835     0.01328  7033.74988    7866.5299  2.48414         3571.98172     18.57926  0.00211  57593.10037  2.01251  0.07349  10750198.69648  44.25825  23.31542  57687.96407    50.81996        43.9063   59.44425  60.63314   53.0    0.14874  -20.97347  0.99145 
  -35.67972  0.00113  4.98196     13.82353  1.77072   1.3667   3.42474  0.26903     0.03198  5907.07413   5851.18834  1.55508         3882.27929     18.84599   0.0039  57591.72028  0.71285  0.00388   9198403.18024  44.15848  23.30939  57690.42269    50.78148       43.89211   54.68871  57.06648   62.5    0.11737  -20.83703  0.99947 
  -33.25111  0.48696  5.23503     13.88201  1.88263  1.33767   5.46536  0.28326     0.01009  6187.31803   3449.83731  2.83686         3618.11339     17.31506  0.00011  57594.14889   1.2481   2.6614    8248914.2676  44.18937  23.24436   57692.8813    50.76693       43.91119   51.12206  53.49983   55.0    0.13406  -20.93724  0.73332 
  -33.08548  0.01329  3.95155     13.72171    1.527  1.35488   5.78389  0.30351      0.0135   7355.4318   7056.85156  3.88762         3398.02858     18.53142  0.00189  57594.31452  1.86665  0.07688   7975588.06114  44.35739  23.29819   57692.8813     50.7999       43.92396   53.79335  55.58407   50.0    0.15429  -21.03013  0.99195 
  -37.05547  0.00306  3.99533     13.68223  1.49349  1.11229   4.43447  0.29576     0.01261  6123.91876   8439.48056  4.98605         3371.41433     18.18448  0.00085  57590.34453  0.99204  0.01358   9564618.43224  44.25927  23.26178   57692.8813    50.77724       43.89701   54.68871   55.8776   51.0    0.14264  -20.91442  0.99845 
  -30.24383  0.09221  4.67911     13.82823  1.66496  0.98859   2.90275  0.32782     0.02367  6160.79048   6384.02446  2.47038         3562.89893     18.79662  0.00348  57597.15617  0.65722  0.26768   7465989.79453  44.27684  23.21805  57690.42269    50.79757       43.90411   57.06648  58.25537   55.5    0.14339  -20.88055  0.96571 
   -38.3702  0.01191  4.98956     13.86565  1.80008  0.98931   4.68647  0.20466     0.01155  5168.25316   8714.47989  4.99009          3372.6359     17.44079  0.00015   57589.0298  0.74673  0.05582   7725481.61836  44.24009  23.26133     57694.19    50.78875       43.91504   53.49983   55.8776   54.5    0.12832  -20.79611  0.99252 
  -30.84507  0.00438  3.84774     13.54703  1.79025  1.15778   3.31873  0.32663     0.01682  7191.95429   3805.94265  4.15058         3382.83207     18.01767  0.00058  57596.55493  1.02398  0.01452  19818926.68031  44.05427  23.22134  57690.42269    50.76293       43.89646   52.31094  53.49983   55.5    0.16015  -20.99898  0.99871 
  -37.33404  0.00604  4.42297     13.81537   1.6155  0.75533   4.10003  0.21132     0.01227  5340.33879   7325.12989  3.00299         3611.77798     18.63264  0.00238  57590.06596  0.69751  0.02475    6867747.8578  44.34891  23.18978  57687.96407    50.77833       43.91009   46.83695  56.59605   58.0    0.13483  -20.80762  0.99686 
  -38.98102  0.01523  3.61181     13.49733  1.45654  1.23921   4.23949  0.25854     0.01294  6079.76814   7446.44388  2.50905         3643.79493     17.60613  0.00022  57588.41898  0.93479  0.06455  17861671.99132  44.06479  23.22847  57690.42269    50.81415       43.93531   53.49983   55.8776   58.0    0.13429  -20.90987  0.99344 
   -20.9108  0.00164  4.27049      14.2116  1.71528  0.84338   6.11581  0.24109      0.0642  5873.17078   8203.99008  2.89073          3611.2038     20.03799  0.06063   57606.4892  1.25842  0.01003   1096230.53761  45.20232   23.2586  57695.33992    50.77972       43.91097   53.49983  54.68871   58.0    0.11765  -20.88288  0.99901 
  -36.31357  0.00474  4.68764     13.94433  1.80704  1.03062   6.47948  0.20044     0.01054   5997.9421   6779.26004  1.72842         3565.37033     19.93237  0.04754  57591.08643   1.3905  0.03069   4764761.12045  44.50586   23.2857   57692.8813    50.81211       43.90877    55.8776  59.44425   52.0    0.13752  -20.87355   0.9965 
  -30.64011  0.41035  4.58699     13.78995   1.4145  1.04326   4.25416  0.23609     0.01831  6011.87044   8437.15889  2.83751         3566.24628     19.92555   0.0468  57596.75989  0.91719   1.7457   7270830.77061  44.23481  23.30679  57690.42269    50.85414       43.90425   54.68871  70.14422   54.5    0.13574  -20.90295  0.78088 
   -40.5278   0.1433  4.06504     14.16789  1.69296  0.27365   4.25175  0.31626       0.013  6352.56641   5960.37523  3.01971         3500.03035      18.2027  0.00089   57586.8722  1.02351  0.60926   1198954.47667  45.20056   23.3998  57690.42269    50.75046       43.85436   53.49983  59.44425   57.0    0.14302   -20.9382   0.9416 
  -41.80761  0.03835  4.59533     13.90953  2.05471  0.83883   8.89041  0.22722     0.01056  7472.70385   6981.65933  1.54978         3676.42441     17.54032  0.00019  57585.59239  2.96145  0.34094     6111493.459  44.47082  23.33468   57692.8813    50.83471       43.89394   60.63314  65.38868   55.5    0.12825  -21.02059  0.96882 
  -41.17579  0.00368  3.82471     13.99559  1.59305  0.44663   5.78748  0.28293     0.01169  6745.95479   6788.09963  2.55361         3648.92468       18.677  0.00264  57586.22421   1.5711   0.0213   2208339.42117  44.96181  23.23677  57690.42269    50.79309       43.91851   54.68871  54.68871   55.5    0.14225  -21.02356  0.99797 
  -36.30777  0.00205  3.71858     13.72819  1.68219  0.57018   3.37762  0.26642     0.01316  5852.17928   7822.69485  3.38798         3530.85721     17.70575  0.00028  57591.09223  0.69004  0.00692   7552003.10685   44.4759  23.23257     57686.12    50.75758       43.88866   49.93317  54.68871   59.5    0.14085  -20.91604  0.99937 
  -36.12521  0.00185   4.8732     13.85915  1.99503  1.36031   4.66155  0.30373     0.01055  5733.40343   3656.43176  4.50705         3401.56952     19.56928  0.02061  57591.27479  0.91408  0.00862   8415716.60422  44.26808  23.18102  57690.42269    50.76744       43.91598   51.12206  52.31094   54.5    0.13519  -20.90241  0.99906 
  -35.16385  0.00445  3.91938     13.64797  1.24491  1.43613   6.23397  0.14118     0.04739  5642.27826    4048.9948  3.12185         3392.76307     19.62528  0.02344  57592.23615  1.18386  0.02777   8983625.15215   44.2241  23.20634  57690.42269    50.84164       43.93353   53.97026  61.35159   77.0    0.11172  -20.82939   0.9961 
  -31.64621  0.40302  5.60784     13.84918  1.83984  1.16177   5.09568    0.183     0.01011  5580.04662   7172.00896   4.5298         3429.47825     17.24168   0.0001  57595.75379  0.94647  2.05364  10760566.78569   44.0042  23.34943   57692.8813    50.76191       43.88218   54.68871   55.8776   56.5    0.13435  -20.84022  0.74431 
  -35.40032  0.14758  4.00498     13.62302  1.66604  1.53943   5.41625  0.30837     0.01187   7213.7999   7923.54235   3.5144         3417.56534      18.8179  0.00365  57591.99968  1.68133  0.79932  14081843.11401  44.13667  23.28091  57690.42269     50.9076       44.02602    55.8776   55.8776   52.0    0.15102  -21.00806  0.92634 
  -34.11207   0.1299  5.37826      13.9472  1.89757  1.47303   5.18959  0.25755     0.01363  5930.42741   6995.49311  4.91439         3426.53006     16.84784    4e-05  57593.28793  1.08876   0.6741   6499642.57011  44.27287  23.29526   57692.8813    50.82598       43.91426   57.06648  61.82202   54.0    0.13641   -20.8742  0.91367 
