 texplosion  fnickel    Pspin  log(Bfield)      Mns  thetaPB   mejecta    kappa  kappagamma      vejecta  temperature    alpha  cutoff_wavelength  log(nhhost)      A_V         MJD0   kenergy  mnickel           TSD   log(L0)  Peak_mag     Peak_MJD  log(E_rad)  log(Peak_lum)  Rise_Time    E_fold  tau_1  delta_m15     r_peak     frac 
  -20.33173  0.47999  1.46621     14.62415  1.82837   1.4979   9.55074  0.05631     0.07011  14342.67281   3820.40216  2.29373           2905.218     18.71727   0.0029  55368.26827  11.71992  4.58423   20604.44032  47.88456  21.10134  55395.09215    51.09863       44.56925    11.2054  23.61078   35.0    0.52612  -21.77381  0.97817 
   -18.7467  0.48879  0.81256     14.70321  1.68634  1.17025  12.71214  0.03514     0.21741  14909.32399   3706.26955  1.63569         3059.68383     19.17673  0.00835   55369.8533  16.85628  6.21361    4055.66762  49.06801  21.13562  55395.09215    51.14926       44.59543    9.96036  23.65585   56.0    0.49128  -21.53379  0.99731 
   -12.3372  0.38186  0.87572      14.8912  1.84335  1.27511   17.5269  0.02282     0.11875  16340.98434   3408.89233  4.14766         2692.40537     19.73693  0.03032   55376.2628  27.91828  6.69285    2166.43559  49.31397  21.14462  55395.09215    51.07733       44.47412    9.96036  25.21109   24.0    0.68225  -22.40708  0.99846 
  -27.29532  0.32993  1.01041     14.51539  1.60888  1.04948   9.45687  0.07221     0.08006   12561.0468   6891.79379  1.65665          2980.0781     19.50962  0.01796  55361.30468   8.90074  3.12012   14208.90056  48.31381  21.12057  55395.09215    51.12382       44.54515   10.37606  24.44013   47.5    0.36573  -21.05394  0.99231 
  -16.63786  0.26879  0.79229     14.71595  1.53081  0.99727  19.73708  0.02783     0.30996  15102.20866   5022.11409  4.02318         2734.34297     19.65592  0.02516  55371.96214  26.85289  5.30517    3300.68269  49.13739  21.11447   55392.6571    51.05918       44.53098    9.59118  25.05369   48.0    0.42851  -21.51587  0.99764 
  -26.34192  0.17832  3.51933     14.45077  1.64178  0.65718   4.18613  0.09198     0.39057  12016.30374   9563.87974  2.98827         2881.34761     17.40703  0.00014  55362.25808   3.60563  0.74646    236866.358  46.01674  21.11809   55392.6571    51.10626       44.56081    11.2054  26.14594   27.5    0.51166  -21.44727  0.94978 
  -23.04899  0.40538  1.17551     14.62922  1.86058  1.46828  10.62665  0.05919     0.01389  12961.82772    8515.5575  2.77302         2769.63918     18.43241   0.0015  55365.55101  10.65016   4.3078    13166.6691  48.27856   21.1331  55395.09215    51.07727       44.53303    9.96036  25.09355   31.5    0.37931  -21.21539  0.99085 
  -25.08906  0.38603    2.854     14.64096  1.86081  0.66432   5.69307  0.09116     0.09594  12511.43666   7510.50531  3.03765         2797.70608     17.62591  0.00023  55363.51094   5.31604  2.19769   73537.92913  46.76113  21.11143  55395.09215    51.14265       44.56213    9.96036   22.4108   34.5    0.45124  -21.39185  0.92356 
  -17.36591   0.4031  1.20147     14.71827  1.75329  1.20911  12.25638  0.04006     0.06044  13429.10614   6021.74743  3.13428         2882.70633     18.77172  0.00328  55371.23409   13.1851  4.94059    8601.16703  48.41871  21.12226  55395.09215    51.06293       44.50909    8.71531  25.09355   36.0    0.44351  -21.78114  0.99109 
  -22.59125  0.44195  1.53962     14.60607  1.82321  1.10807   6.01426  0.12931     0.05741  14546.98125   8065.61839  3.72304         2717.05261     18.98176  0.00533  55366.00875   7.59198  2.65799    24622.9184  47.76352  21.14523  55395.09215    51.08309        44.5258    9.96036  24.90089   30.5    0.40744  -21.32246  0.98167 
  -17.79786  0.12219  0.79016      14.5665  1.54245  1.08386  12.56882   0.0662     0.12141  14585.20929   8630.03056  4.16293         2665.10675     16.11058    1e-05  55370.80214   15.9495   1.5358    6583.64002  48.84316  21.15578  55395.09215     50.9858       44.51114    9.96036  24.46206   27.0    0.45551  -22.64905  0.99881 
  -28.47464  0.22213  1.80528      14.5525  2.18402   1.5098   9.46964  0.07964     0.43851  13547.67833   7299.10993  1.81313          2885.3498     20.13272  0.07541  55360.12536  10.36789  2.10348    51897.9228  47.37986   21.1316   55392.6571    51.19723        44.6778    11.2054   22.5729   35.5    0.40602  -21.21212  0.97982 
  -17.04544  0.28262  1.15011     14.71612  1.77812  1.01647  11.71483   0.0537     0.20664  14146.74416   8385.80331  4.67699         2698.40581     16.64522    2e-05  55371.55456  13.98544  3.31086    8072.44898  48.49032  21.18005  55395.09215    51.03351       44.52058    9.96036  24.46206   29.5    0.47622  -21.58322  0.99393 
  -25.57443  0.37165  3.74908     14.40961  1.60412  0.65616   2.70239  0.15855     0.25013  13920.82786   9060.63843  4.70345         2636.50588     18.31768  0.00115  55363.02557   3.12396  1.00434  317451.09786  45.82456  21.20323  55395.09215    51.13296       44.60033    11.2054  23.65585   28.5    0.50772  -21.57071  0.92266 
  -23.05347  0.35905  1.86963     14.52954  1.86025   1.4027   7.75966  0.06608     0.20952  11512.61665   6902.46088  1.92946         3043.35936     19.63344  0.02389  55365.54653   6.13505  2.78608   52700.27606  47.27309  21.14854  55395.09215    51.14018       44.58119    9.96036  23.65585   39.5     0.4232  -21.27894  0.96458 
  -23.38079  0.18877  0.80868     14.63262  1.61061  0.97903  19.46738  0.03652     0.04482  12844.57714   7171.64836  3.59174         2754.95578     16.14033    1e-05  55365.21921  19.15907  3.67483    5310.46709  48.93515  21.15889  55395.09215    51.07445       44.54955   10.83623  24.02503   50.0    0.33714  -21.10322  0.99738 
  -25.78949  0.41313  1.56308     14.51969  1.65582  0.99921   8.16702  0.06744     0.02622  11626.45422   8541.31267  2.01909         2913.51405     19.14391  0.00774  55362.81051   6.58545  3.37401   34309.12147  47.56448  21.19284  55395.09215    51.05247       44.49249    9.96036  24.97336   35.5    0.38005  -21.16716  0.96646 
  -21.59267  0.21949  1.26559      14.9156  1.80935  0.50617  15.70694  0.03567     0.01897  13125.65711   4446.77803  2.01592         2971.65334     17.28458  0.00011  55367.00733  16.14213  3.44753    3969.33694  48.72306  21.14174   55392.6571    51.01738       44.48583    11.2054  25.99596   38.0    0.43514  -21.31719  0.98933 
  -26.23198  0.46675  4.20753     14.45569   1.7976  0.73926   3.58612  0.12173      0.0878  13158.56085   7123.96239  4.16143         2692.42762     18.45497  0.00158  55362.36802   3.70398  1.67382  362398.06797   45.7163  21.18253  55395.09215    51.08644       44.53724   12.45045  24.68451   35.5    0.46068  -21.49583  0.87085 
  -18.61782  0.35606  1.34746     14.98409   2.0662  0.68181  14.63615  0.03122     0.18601  12936.83955   3121.60056  2.97577         2838.73834     17.26086   0.0001  55369.98218  14.61202  5.21139    3748.26864  48.75116  21.13661   55392.6571    51.02803       44.50441    9.59118  26.07629   52.0    0.41589  -21.49681  0.99041 
  -17.20254  0.23595  0.98344     14.52595  1.46828  1.42518  14.20052  0.03555     0.06507  12514.60242    7724.4956  3.03856         2861.91876     17.44561  0.00016  55371.39746  13.26678  3.35063   11701.21886  48.38193  21.11138  55390.22204    51.04807       44.51645    11.6211  25.73024   33.5    0.47036  -21.43298  0.99416 
  -21.89663  0.29866  1.59692     14.56705  1.81611   1.5298  10.59141  0.05192     0.05395  12171.75696   8866.80745  2.76786         2827.78044     17.28756  0.00011  55366.70337   9.36025  3.16321    31580.8921    47.622  21.13729  55395.09215    51.10065       44.56641    11.2054  23.61078   33.0    0.42106  -21.30699  0.97615 
   -20.1922  0.42814  1.27294     14.74527  1.73715  0.83225  10.94562  0.04547     0.09802  14301.58537   5960.57468  2.17286         2964.42849     17.77903  0.00033   55368.4078  13.35476  4.68628    8447.70644  48.37233  21.12904  55395.09215    51.12924       44.58302    9.96036  23.65585   41.5     0.4937  -21.58623   0.9858 
  -17.51642  0.19555  0.85992     14.67054  1.64259  1.07035  19.34359  0.03385     0.02748  15089.10647   7213.98474  3.44791         2798.96614      17.0914    7e-05  55371.08358  26.27189  3.78268    5142.59038  48.90427  21.14562  55395.09215    51.06782       44.54913    11.6211  24.44013   31.5    0.46725  -21.63629  0.99739 
  -19.89753    0.176   0.9464      14.9346  1.92898  0.61823   21.7655  0.03329     0.04598  14395.37864    6473.5209  3.69937         2769.34064     17.53742  0.00019  55368.70247  26.90556  3.83081    2168.10825  49.26595  21.15474  55395.09215    51.07242        44.5659    9.96036  23.65585   31.5    0.44379  -21.82793  0.99737 
  -19.91717  0.22803  1.14715     14.75809  1.84066  0.92363  17.96389  0.02846      0.1528  12644.40102   4824.15608   2.5054         3042.89269     18.36611  0.00129  55368.68283  17.13263  4.09622    6852.60678  48.57872  21.17605  55395.09215    51.05654       44.49831   12.45045  24.46206   32.5    0.50546  -21.70191  0.99303 
  -18.97164  0.45987  1.23909     14.68848  1.86064  1.49495  10.15119  0.06441     0.11691  15753.22376   6237.13394  3.06856         2804.00755     17.79936  0.00035  55369.62836  15.02736  4.66821   11135.70054  48.30559  21.19089  55395.09215    51.02497       44.50414    11.2054  26.14594   37.0    0.43011  -21.68827  0.99053 
  -19.45441   0.1784  0.77802     14.68998  2.08149  1.44788  10.43065  0.08784     0.19996  14932.29246   8969.18382  4.61328         2617.45572     20.11829  0.07295  55369.14559  13.87367  1.86086    4877.65367  49.11703  21.13825  55395.09215    51.14482       44.58795    9.96036  24.90089   27.0    0.40833  -21.78911  0.99938 
  -18.74033  0.23121  1.07959     14.69134  1.69859  0.90701  13.14174  0.05733     0.39117  14815.71697   8034.26723  3.61587         2741.15341     18.54091  0.00193  55369.85967   17.2078  3.03849    7616.44572  48.55066  21.12744  55395.09215    51.16052        44.6264    8.71531  24.90089   30.5      0.398   -21.4989  0.99439 
   -29.5894  0.25292  1.44007     14.52493  1.89618  1.29747   7.78057  0.11241     0.09361  13692.42343   7372.36794  2.10065         2847.22134     16.92508    5e-05   55359.0106    8.7016  1.96786   32553.23591  47.71736  21.20106  55395.09215    51.07269       44.50228    9.96036  26.21841   36.5    0.37958  -21.01061  0.98773 
  -18.01796   0.2969  0.72336     14.50744  1.39204   1.4409  15.28122  0.03278     0.04709  13056.29567   9086.50897  2.58431         3073.19103     19.92903  0.04718  55370.58204  15.53908  4.53693    6535.58758   48.8785  21.16402   55392.6571    51.04479       44.50916    11.2054  26.21841   30.0    0.50971  -21.65526  0.99739 
  -31.43298   0.2153  3.15207     14.12309  1.53186  1.42472   3.50539  0.08304     0.25178   9969.37269   6831.49781  1.78317          3109.5719     16.17921    1e-05  55357.16702   2.07826   0.7547  801776.73509  45.55282  21.15375  55395.09215    51.09748       44.57747    11.2054  23.65585   41.5    0.44259  -21.32431  0.95449 
  -18.36255  0.47234  1.02347     14.61202  1.68613  1.51367  10.33557   0.0547     0.19273  14687.11237   5958.00996  2.61804         2874.28167     20.00834  0.05663  55370.23745  13.29948  4.88186     9790.6576  48.48477  21.13926  55395.09215    51.16409       44.59566    9.59118  22.77998   31.0    0.54811  -21.91807  0.99334 
  -20.99068  0.32707   0.8952     14.65451  1.63877  1.00121   12.9018  0.04007     0.03233  12280.57048   7426.75771  2.50178         2909.50839     18.50323  0.00177  55367.60932  11.60685   4.2198    5986.14366  48.80237  21.16349   55392.6571    51.03226       44.50438   12.45045  26.72971   43.5    0.40529  -21.34811  0.99605 
  -19.28364  0.43261  1.10598     14.51906  1.49875  1.07508   6.71877  0.11451     0.28839  15170.78175   8517.60696  4.83186         2557.09576     19.71756  0.02899  55369.31636   9.22429  2.90658    15592.6784  48.16416   21.1426   55392.6571    51.01649       44.48223    11.2054  25.48466   28.5    0.43389  -21.57725  0.99026 
  -33.96125  0.17197  1.96591     14.39939  1.85922  1.32197   5.34503  0.14527     0.08127  12577.26691   9687.50643  1.55098         2980.44425     16.31719    1e-05  55354.63875   5.04371   0.9192  106047.11171  46.92555  21.14288   55392.6571    51.08093       44.50397    11.2054  25.48466   26.0    0.39004  -21.03038  0.98449 
  -25.52019   0.3845   1.0556     14.63571  1.83397  1.20637  13.15965  0.04223     0.02655  13239.26712   7503.75086  1.55796         3055.05803     16.96244    5e-05  55363.07981   13.7594  5.05992   10157.72788  48.47844  21.10741   55392.6571    51.15477       44.61178    9.96036  24.90089   49.5     0.3561  -21.21652  0.99216 
  -17.71758  0.30914  0.90717     14.70842  1.82127  1.41818  14.09436  0.04306     0.03733  14579.99404   3596.54069  3.18133         2831.01269     16.40072    1e-05  55370.88242  17.87258  4.35718    5329.96122  48.88712  21.15578  55395.09215    51.03183       44.49733    9.96036  25.48466   40.5    0.43245  -21.47378  0.99752 
  -18.82097  0.37944  1.22477     14.94508  1.91675  0.60636  11.76743  0.05634     0.06096  15267.74006   7599.14491  3.37576         2775.15425      18.7472   0.0031  55369.77903  16.36283  4.46502    3438.26559  48.83896  21.15795   55392.6571    51.06416       44.50426    9.96036  24.90089   29.0    0.48517   -22.0481  0.99184 
  -23.30203  0.44568    0.992     14.79109  1.84281  0.68439   9.24338   0.0726     0.02643  14683.18725   6181.40212  1.81649         3020.41464     19.94261  0.04868  55365.29797  11.88772  4.11963     4406.9826  48.89716  21.14248  55395.09215    51.05398       44.55783   10.37606   24.4852   36.5    0.42475  -21.33822  0.99464 
  -13.99678  0.25345  0.91842     14.85561  1.60843  0.71195  17.89881  0.02929     0.04572  14874.55174   5917.13503  4.18815         2723.88172     18.42594  0.00148  55374.60322  23.62322  4.53639     2449.4878  49.16009  21.18065  55395.09215    51.06408       44.55405    9.96036  25.41825   38.0    0.45125  -21.57886  0.99685 
  -32.52204  0.11413  1.22135     14.58777  2.07552  1.34235  21.05539  0.03947      0.0525   12489.9175   8271.23771  1.78939         2967.51666     18.53999  0.00193  55356.07796  19.59339   2.4031    19190.1185  48.12922  21.10866   55392.6571    51.04444        44.4969    11.2054  26.72971   40.0    0.31834  -20.88576  0.99314 
  -13.63181   0.4413  0.77466     14.69445  1.43215  1.16115  13.13812  0.03595      0.0389   16358.4519   6315.34745  3.61758         2778.69809     18.11848  0.00073  55374.96819  20.97224  5.79783    3259.38257  49.13347   21.1226  55395.09215    51.07566       44.48319    8.71531  24.97336   48.5    0.48842  -21.52465  0.99781 
  -17.40882  0.35146  0.91206     14.84074  1.40003  0.51341  14.08016   0.0367     0.10282  14897.14136    4756.3349  2.71662         2890.07138     18.02626  0.00059  55371.19118  18.63977  4.94868    2251.78926   49.1424  21.17572  55395.09215    51.00944       44.50917    9.96036  25.70711   35.0    0.49357  -21.77227   0.9938 
  -19.83375   0.2148  0.99716     14.61535   1.7941  1.34162  11.88237  0.07041      0.1763  14813.21069   8915.69182  3.38856         2801.05652     18.70812  0.00284  55368.76625  15.55352  2.55233    9738.54173  48.53667  21.12041  55395.09215    51.08892       44.54838    11.2054  22.92816   28.0    0.39963  -22.03076  0.99676 
  -30.73445  0.23394   3.8622     14.25286  1.84124  1.31816   4.42872  0.07368     0.25758  10924.57156   7999.77188  1.76315         2972.66711      17.6644  0.00026  55357.86555   3.15293  1.03607  795947.64389   45.4594  21.18193  55395.09215    51.10836       44.53134    9.59118  25.27007   38.5    0.42478  -21.34165  0.93052 
  -26.22716  0.19943  1.12134     14.43532   1.6194   1.4832  14.42518  0.04104     0.02621   11999.6124   7529.61624  1.51953         3096.63282     19.87834  0.04198  55362.37284  12.39033  2.87677    25467.9282  47.97273  21.17476   55392.6571    51.02963       44.51407    11.6211  26.53646   39.5    0.39168  -21.12374  0.98915 
  -14.31009  0.48048  1.23398     14.67081  1.47537  0.72919   5.54582  0.12672     0.10019  16418.15432   9015.67919  4.48146         2636.72542     19.15538  0.00795  55374.28991   8.91747  2.66464    9500.00828   48.2774  21.17978  55395.09215     51.0084       44.52109    9.13101  26.53646   24.5     0.5272  -21.87911  0.98817 
  -28.99079  0.16272   2.5327     14.49624  1.79464  0.87321    8.5235  0.06165     0.36017  10722.06452   7674.96478  2.56428         3053.48544     18.57393  0.00208  55359.60921   5.84523  1.38695  108763.54777  46.67917  21.12892  55395.09215    51.10552        44.5365    9.96036  24.68451   35.0    0.41176   -21.1768   0.9585 
  -18.46202  0.47542  1.24056     14.65765  1.73806  1.27749   9.44131  0.05928     0.09682  13775.16709   7923.35642  3.41702         2837.07475     19.51638  0.01824  55370.13798  10.68694   4.4886    12017.5158  48.24186  21.17661  55395.09215    51.03866       44.49644    8.71531  26.21841   34.0    0.46076  -21.65478  0.98875 
   -17.8769  0.42014  0.81875     14.76913  1.95151  1.02299   6.29633  0.12325     0.06105  14608.21674   8990.69152  3.94734         2719.00471     17.96855  0.00052   55370.7231    8.0151  2.64531    3517.42572  49.18668  21.07462  55395.09215    51.07512       44.58322   13.69549  21.16576   26.0    0.47725  -21.95115  0.99898 
  -24.01879   0.3726  2.44467     14.54302  2.00227  1.42146   6.20467  0.09088     0.19881  12835.20123   9260.84832  2.42611         2833.33319     19.11105  0.00717  55364.58121    6.0975  2.31186   91145.64822  46.83419  21.17459  55395.09215    51.07858        44.5256    11.2054  25.09355   29.0    0.43656  -21.31709  0.94906 
  -17.61109  0.19939  0.87086     14.74299  1.68699  0.94275  20.12288  0.03161     0.07162  14606.85872   7014.97598  4.51988         2738.14851     16.63662    2e-05  55370.98891  25.61127  4.01224    3880.21844   49.0272   21.1555  55395.09215     51.0652       44.51595    11.2054  23.65585   35.5    0.39136  -21.53557  0.99754 
  -16.78375  0.20468  1.04246     14.60973  1.66072  1.20746  12.30472  0.06034     0.21841   14704.7217   8051.21376  4.27296          2671.3616     17.94204  0.00049  55371.81625   15.8713  2.51849   10110.28132  48.44826  21.14898  55395.09215    51.04434       44.46703    9.96036  24.90089   28.5    0.46668  -21.44462  0.99578 
  -18.31026  0.47089  1.55108     14.73058  2.02026  1.33771   8.11477  0.07012     0.32313  13849.67569   9262.15221  4.02036         2702.39534     18.95555  0.00502  55370.28974   9.28501  3.82113   15607.75176  47.99964  21.10142  55395.09215    51.03468        44.5556    11.2054  24.17321   27.0    0.49198  -21.83429  0.98463 
  -22.49021  0.39783  1.52318      14.6171  1.79627  1.06375   9.33626  0.05742      0.2408  13248.18324   7502.28021  1.65895         3049.02536     19.10093  0.00701  55366.10979   9.77491  3.71426   22568.27569  47.80422  21.11525   55392.6571    51.06107       44.50113    8.71531  26.72971   40.5    0.44722  -21.33081  0.97525 
  -23.97427  0.19172  1.10667     14.80867  2.05574  0.83419  19.29613  0.02622     0.13977  11309.53869   3094.01998  1.94778         3163.78138     16.74419    3e-05  55364.62573  14.72269  3.69953    5642.63985  48.74229  21.15153  55395.09215    51.11035       44.56117   10.37606  24.44013   52.5     0.3692  -21.11778  0.99499 
  -17.16635  0.23955  0.97959     14.81795  1.78389  0.84124  17.62614  0.03193     0.15748  14039.91233   6377.15149  3.47464         2789.79966     18.58071  0.00212  55371.43365  20.72589   4.2224     3675.9607  48.97276  21.11679  55395.09215    50.98449       44.48248    9.96036  24.23962   40.5    0.44803  -21.47366  0.99656 
