 log(Bfield)      Mns    Pspin  cutoff_power  cutoff_wavelength  fnickel    kappa  kappagamma   mejecta  log(nhhost)  temperature  texplosion  thetaPB      vejecta      A_V        MJD_0   log(KE)      M_Ni  Peak_mag     Peak_MJD 
    14.50372  1.88715  2.29354       1.38339         3167.80763  0.18625  0.02559      0.1056  19.25406     19.27861   6911.57893    -25.5026  1.56186  12275.13768  0.01055   55363.0974  52.83549  14.18743  21.15188  55393.85414 
    14.60975  1.72404  1.44689       2.58273         2730.00478  0.47161  0.05417     0.06882   9.06416     18.72184   6955.27978   -20.25904   1.2812    12330.388  0.00293  55368.34096  52.77235  30.78638  21.15106  55390.95038 
    14.78378  1.83238  1.22329       4.80065         2654.40073  0.30255  0.02658     0.07693  17.22189      17.7213   5274.64099   -15.33676  1.28105  13791.85176  0.00029  55373.26324  52.92739  22.55862  21.15319  55393.85414 
    14.68302  1.73792  1.37907       1.34543         3084.01495  0.23047  0.02267     0.02118  21.20164     19.62714   4992.26928   -23.61202   0.8177  11952.65813  0.02354  55364.98798  52.82024  17.87698  21.12761  55396.75789 
    14.55884  1.62779  2.19656       1.34661         3130.79162  0.28697  0.04714      0.4642   9.56669     18.82295    8634.4079   -21.95785  0.76701  11920.92659   0.0037  55366.64215  52.74818   18.9568  21.16526  55396.75789 
    14.49295  1.94913  2.99736       2.34594         2859.54235  0.25897  0.04529     0.45205   10.0976     18.00792   4980.64394   -26.14666  1.21391  10876.07241  0.00057  55362.45334  52.67361  17.30957  21.16736  55390.95038 
    14.68628   1.8695  1.10894       2.12418         2832.51068  0.46778  0.05521     0.04342  10.12831     18.69243   7894.36992   -18.99626  1.51066  13934.28702  0.00274  55369.60374  52.88912  31.28744  21.14691  55396.75789 
    14.58383   1.5509  0.90921       1.63839         2960.81044  0.15556  0.01436     0.19076  35.61933     18.68799   8191.71496   -20.36701  1.47707  13959.61704  0.00271  55368.23299  52.99516  13.23406  21.15675  55396.75789 
    14.76867   2.0067  1.99013       4.58323         2662.39933  0.42585  0.03497     0.02329  11.83854     16.64756   8536.31292   -15.45347  1.38203  13146.67542    2e-05  55373.14653  52.85299  29.44389  21.20395  55390.95038 
    14.58577  2.11132  2.38051       1.45165         3015.26756  0.47572  0.12978     0.18005   5.00582     19.77624   7770.03801   -30.74852  0.94287  11650.90514  0.03319  55357.85148  52.66187  26.96952  21.15231  55396.75789 
    14.44313  1.51239  2.36497       1.43972         3253.54771  0.16478   0.0197     0.14867   19.0342     20.36002   4458.67323   -22.16584  0.72076  11304.42444  0.12728  55366.43416  52.76299   12.5244    21.166  55393.85414 
    14.23738  1.74946  3.47445       1.21632         3075.86636  0.18317  0.06787     0.19901   6.16963      19.3462   9107.48529   -31.64115  1.24574  11973.82284  0.01233  55356.95885  52.70818  10.93835  21.17196  55393.85414 
     14.7722  1.98545   1.1191       4.33684          2629.1091  0.40214  0.06019     0.05012   9.19998     17.07237   9067.29081   -13.05321  1.53888  13787.06399    7e-05  55375.54679  52.87077  26.33756  21.15865  55393.85414 
    14.39806  1.64385  4.08964       4.98151         2596.40264  0.46059   0.1812     0.21235   1.89366     18.92087    9335.1366   -26.38817  0.56579   13900.7182  0.00463  55362.21183  52.69146  19.63672  21.20641  55393.85414 
    14.37224  1.42378  2.54178       1.08062         3067.52374  0.26227  0.02619     0.06512  17.46872      16.5543   5436.79151   -22.08554  1.10452  15051.91706    2e-05  55366.51446  53.00452  19.60955  21.15754  55393.85414 
    14.52919    1.446  0.74025       1.98596         3046.34288  0.20444  0.02951     0.12361  17.78479     17.46139     5811.602   -19.42093  1.30323  11939.73093  0.00016  55369.17907  52.80483  15.33863  21.15917  55393.85414 
    14.81903  1.87074  1.57886       3.89091         2637.66961  0.38582  0.03441     0.03258  13.92677     19.79567   5139.14444   -16.40947   0.8735  13878.84508  0.03471  55372.19053  52.91458    27.582  21.15245  55393.85414 
    14.46929  2.00947  3.64324       2.50851         2796.54276  0.07946  0.01259     0.25008   33.6315     19.76495   7953.84629   -25.94082  1.10968  12179.01203  0.03234  55362.65918  52.87237   6.69417  21.13383  55393.85414 
    14.40123  1.67169  3.69475       4.24903         2670.43474  0.42998  0.03511     0.02804   9.14448     17.32523   5813.01261   -22.25785  1.38627  10930.17779  0.00012  55366.34215   52.6685  28.12355  21.12871  55393.85414 
    14.87971  1.68512  0.80894       1.62248         2841.79886  0.48927  0.04546     0.14878  12.29417     20.23585   3018.84121   -18.78453  0.57564  15462.74303  0.09563  55369.81547  52.99735  34.09572  21.16856  55390.95038 
    14.66665  1.71912  1.04574       1.35629         3237.83826  0.28828  0.01871     0.27962   18.7454     18.15763   5023.03135   -17.52025   1.4138   12232.5587   0.0008  55371.07975  52.83026  21.84811  21.18841  55390.95038 
    14.68617   1.7763  1.08092       2.35628         2913.03658  0.30079  0.03544     0.02448  13.05534     18.90251   6710.67331   -17.15008  1.21724  11731.45076  0.00444  55371.44992  52.76286  21.22264  21.19337  55393.85414 
    14.79917  1.75154  1.00133       4.38687         2631.42633  0.42022  0.04784     0.14502  11.29347     18.83552   3845.48435   -15.49074  0.94516  14354.45476   0.0038  55373.10926  52.92503  28.76792  21.19048  55393.85414 
    14.63717  1.49987  1.76941       2.39896          2872.9904  0.41608  0.02984     0.03803  13.02958     17.44453   8904.15848   -17.30992  0.91747  13481.60886  0.00015  55371.29008  52.88347  29.34504  21.14085  55396.75789 
    14.64582  1.69687  1.39364       4.60726         2607.54956  0.28327  0.03061     0.08687  17.86337     17.71748   6795.59958   -16.94641   1.5213   14792.8521  0.00029  55371.65359  52.99132  21.27117   21.1831  55393.85414 
    14.70314  1.43611  0.74504       4.08198         2717.05304  0.40461  0.03307     0.21467  14.12839     19.34759   6508.03561   -12.45406  1.10814  15619.12659  0.01237  55376.14594  53.01845  29.00942  21.24373  55390.95038 
    14.62863  1.94835    2.363       3.59399         2666.45391  0.39986  0.05308     0.11535   9.00588     19.11383   9072.85458   -20.31095  1.26866  11943.87876  0.00722  55368.28905  52.74407  26.06524  21.12398  55393.85414 
    14.47749  1.68342  2.07695       2.32208         2884.99636  0.42689  0.06499     0.01802   7.50238     18.96297    6318.5547    -26.8057  1.13646   10791.3936   0.0051   55361.7943  52.63797  26.69923  21.13567  55390.95038 
    14.82162  1.72174  0.98717       4.35619         2618.89392   0.2696  0.03621     0.30079  15.76375     16.01636   8181.61381   -13.48946  0.85094  14658.08755    1e-05  55375.11054  52.97278  19.75657  21.16616  55393.85414 
    14.27375  1.73863   1.9555       0.76756         3216.83528  0.31573   0.1128     0.13715   4.75778     20.05178   8970.09195    -37.2334  1.46947  10678.70383  0.06259   55351.3666  52.58052  17.66747  21.18401  55393.85414 
    14.78072  1.91481   1.4653       2.42221         3034.91418  0.40244  0.03424     0.14382  11.32541     17.86426   9264.69085   -15.18892  1.12066   12097.4452  0.00041  55373.41108  52.77671  27.56726  21.08187  55396.75789 
    14.24108  1.71625  3.61857        0.9133         3405.48451   0.1104  0.02036     0.35659  15.70273      18.8662   5313.64413    -27.0252  1.35953  12152.83705  0.00408   55361.5748  52.80965   8.08406  21.24594  55390.95038 
    14.67817  1.73498  0.83861       1.11604         3203.95938  0.47129  0.03096     0.18335  13.16125     19.87683   7213.14672   -17.95512  1.51619  14149.60382  0.04184  55370.64488  52.92637  33.30732  21.17089  55396.75789 
    14.47671  1.90902   2.4565       1.13731          3059.6696   0.4703  0.06361     0.12237   6.35789     18.31375   5880.71248   -34.09913  0.99832   9906.99732  0.00114  55354.50087  52.54675  28.28861  21.12987  55390.95038 
    14.61715  1.36953  0.94342        3.4799         2716.24353  0.38399  0.02972     0.16614  13.45803     19.70302   8669.11527   -16.41454  0.95931  11819.44127  0.02804  55372.18546  52.77205  27.26167   21.1684  55393.85414 
    14.53362  1.42551  0.86963       1.43044         3091.95526  0.36251  0.02848     0.31722  15.13216     18.85008     4987.714   -19.44794  1.31121  13323.94162  0.00393  55369.15206  52.88637  26.35089  21.12944  55393.85414 
    14.49668  1.70442   3.1147       2.63325         2755.54598  0.19327  0.02358     0.02228  16.87314     18.55956   5467.94336   -22.36656   0.9709  12064.57267  0.00202  55366.23344  52.80944  14.35362   21.1407  55393.85414 
    14.61552  1.75342  1.05492       1.94004         2881.95076  0.24679  0.02807     0.04225   17.7201     17.40355    6185.5419   -24.94592   1.1757  11393.75005  0.00014  55363.65408  52.76387  18.50306  21.15312  55393.85414 
    14.93132  1.83449  1.60016        4.7785         2593.93894  0.38074  0.03359     0.04345  14.21731     17.25388   9658.59113   -14.64544  0.71477  15930.76466   0.0001  55373.95456  53.03616  27.33292  21.12617  55396.75789 
    14.47173   1.7359  2.06345       1.15102         2980.34278  0.28171  0.02351     0.03816  18.56554     20.26409    7697.2468   -22.72498  1.29327  13900.93859  0.10205  55365.87502  52.94051  21.31099  21.22033  55396.75789 
    14.88773  1.56773  1.05124       4.66824         2649.25711  0.26846  0.02544     0.03409  18.59789     18.61203   5938.37407   -13.06988  0.65564  15173.17693  0.00227  55375.53012  53.01672   20.3151  21.17669      55389.5 
    14.45298  1.64967  1.50691       1.05642         3334.14495  0.17794  0.03784     0.26023  13.72156     19.84619   8901.28503    -29.7712  0.98213  10483.19701  0.03899   55358.8288  52.66956  12.68304  21.15561  55393.85414 
    14.65965  1.52401  1.17438        3.5773         2673.02263  0.30987  0.03331      0.0483  16.66052     16.27176   3070.96877   -16.48062  0.99259  15315.14238    1e-05  55372.11938  53.01558  22.95613   21.1303  55396.75789 
    14.84704  1.41859  1.07562       1.43843         3069.03259  0.45616  0.03615     0.08069  11.26331     18.67901   4302.16699   -18.61657  0.47295  13182.49399  0.00265  55369.98343  52.85081  31.21052   21.1468  55396.75789 
    14.84792  1.56659  0.85812       3.65628          2678.7759   0.3217  0.03351     0.04789  15.75084     16.65926   8207.62614   -14.30387   0.6982    15717.391    3e-05  55374.29613  53.03332  23.57123  21.16863  55393.85414 
    14.49651  1.51668  1.24727       1.45391         3187.78475   0.4686  0.04276     0.09246   9.92273     16.76601   4421.61327    -20.8726  1.46499  12093.49211    3e-05   55367.7274  52.76413  31.20315  21.18336  55390.95038 
    14.36035  1.86339  4.31791       4.37708         2646.99488   0.1924  0.02644     0.02443  12.84774     18.55539    8699.4318   -25.66988  1.40438  11042.66715    0.002  55362.93012  52.70888  13.53003  21.20127  55390.95038 
    14.83285  1.85904  2.11653       3.22087         2573.44985  0.43755  0.06495     0.07534  10.15698     18.81532   4399.62913   -19.60667   0.6135  15930.24582  0.00363  55368.99333  53.00566  29.28303  21.21179  55393.85414 
    14.44191  1.77775  2.66865       1.79413          3013.7806  0.10973  0.02659     0.01492  15.56263     17.35095   8570.58947   -37.13168  0.79544   8836.76888  0.00012  55351.46832  52.53211   8.02104  21.15796  55396.75789 
    14.79049  1.88582  4.13235       4.21551         2742.13466  0.23424  0.02665     0.28484  14.18881     16.74787   3989.20794   -21.66122  0.47376  12182.55143    3e-05  55366.93878  52.80298  16.80874  21.17772  55393.85414 
    14.69927  1.73722  0.70209       3.78014         2710.20014  0.48738  0.08232     0.16653   7.51077     17.73362   4306.84438   -15.36882  1.27497  13934.86834   0.0003  55373.23118  52.86013  30.49077  21.19774  55396.75789 
    14.72375  1.99239  1.26986       1.65832         2986.22733  0.40892   0.0422     0.06206  11.01668     19.20392   5013.59156   -17.93419  1.41435  12872.53024  0.00888  55370.66581   52.8281   27.8475  21.14301  55396.75789 
    14.72466  1.60474  1.32871       4.35779         2576.82858  0.33314  0.03276     0.02663  17.23524     16.12014   8944.51304   -14.88269  1.05023  16585.71011    1e-05  55373.71731  53.08768   24.8431   21.1768  55396.75789 
    14.35087  1.62104  3.21539       1.94839         2610.55908  0.19537  0.08734     0.19904    5.4028     17.56974   9409.82148   -30.75103  0.71741  12832.88871  0.00021  55357.84897  52.75418  11.29137  21.12906  55393.85414 
    14.41835  1.79353   3.6157       3.33571         2779.34812  0.27713  0.03512     0.05102  11.09835     17.28696    8926.2536   -23.12278  1.55231  11913.46767  0.00011  55365.47722  52.76153  18.90209  21.15993  55390.95038 
    14.82658  1.67202  1.43582       1.45298          2963.0022  0.32341  0.03118     0.02655  14.40463     17.37926   9096.99633   -20.04727  0.56812  12652.45444  0.00013  55368.55273  52.83718  23.27811  21.17809  55393.85414 
    14.54475  1.74748  2.57176       1.35317         3156.93834  0.25107  0.03399     0.02405  13.04419     17.48966   5818.36816   -28.35259    0.788  10636.72008  0.00017  55360.24741   52.6777  17.71137  21.23341  55396.75789 
    14.62442  1.80683  1.88444       2.20387         2912.67735  0.41185  0.03232      0.2483  11.88529     18.92244   7871.99944   -18.61848    1.412  11708.66244  0.00465  55369.98152  52.75273  28.49923  21.09923  55396.75789 
    14.67841  1.87112  1.26918       3.31865         2862.39065  0.40169  0.04563     0.34701   9.80504     19.48806   9777.91037    -21.4865  1.20349   10221.2201  0.01709   55367.1135   52.6169  26.67806  21.16638  55393.85414 
    14.87333  1.78914   0.9846       3.20042          2760.7559  0.30099  0.03077      0.2076  16.41979     19.98038   4475.49363   -14.88119  0.75301   14320.3541   0.0531  55373.71881  52.95601  22.23433  21.09864      55389.5 
    14.72194  2.13346  2.28633       1.83853         3037.76892  0.40649  0.04316     0.31477   9.74307     16.97409   8228.35584   -18.29933  1.22584  12955.77908    5e-05  55370.30067  52.82222  26.95973  21.16092  55396.75789 
    14.58821  1.71127  2.21827       1.27605         3167.20939  0.42263   0.0385      0.0362   10.7636     18.67028   5864.51115   -18.96066  1.05117  13582.32966   0.0026  55369.63934  52.87258  28.63922  21.15398  55396.75789 
    14.62932  1.84659  1.55506       4.25252         2668.42037  0.27776  0.03776     0.12483  12.91732     19.94522   7127.89023    -17.0456  1.55697  11939.16323  0.04897   55371.5544  52.77716  19.55509  21.14249  55396.75789 
    14.65956  1.74224  1.60373       2.48937         2763.41344  0.25618  0.02882     0.41173  16.98904     19.32882   3779.20249   -18.17877  1.04029  13461.62073  0.01185  55370.42123  52.90519  19.05094  21.11817  55393.85414 
     14.4537  1.50512  0.87323       1.27878         3244.38536  0.36071  0.04606     0.35873  10.77283      19.7378   9981.11926   -26.73789  1.24755  10374.23198  0.03038  55361.86211  52.63862  24.44795    21.145  55393.85414 
    14.52839  1.91101  2.89966       1.21635         3156.70806   0.4838  0.06028     0.17811   7.04147     17.24812   5862.37902   -22.65211  1.19114  12824.14414   0.0001  55365.94789  52.78146  29.81496  21.15898  55396.75789 
    14.63324  1.41579  0.84592        4.3371         2718.34723  0.45599  0.03123     0.03687  11.55871     17.25493   3922.17137   -14.79878  1.26741  11224.27637   0.0001  55373.80122   52.7135  31.37002  21.16159  55390.95038 
    14.53912  1.42643  0.88546       2.12206         2968.40019  0.13791  0.01719      0.0415   31.7515     18.34236   4930.80993   -24.04518  0.99628  11283.80699  0.00122  55364.55482  52.80175   11.5025  21.11568  55393.85414 
     14.6441  1.82699  1.57097       2.58621          2931.5781  0.45573  0.05645      0.1952    8.9816     17.43113   8894.83423   -19.70652  1.20341  12367.84401  0.00015  55368.89348  52.77411  29.68925  21.13625  55393.85414 
    14.49227  1.60324  0.86747       1.83964         2745.24742  0.18328  0.03078       0.038  20.49948     16.54339   6281.07733   -26.81342  1.39763  11970.04578    2e-05  55361.78658  52.81877  14.12757  21.15894  55396.75789 
    14.60199  1.82641  1.48419       1.75068         2803.09994  0.43713  0.08842     0.11211    7.1933      17.3762   8705.55591   -22.21996   1.1043  12780.51677  0.00013  55366.38004  52.78067  27.07414  21.11879  55393.85414 
    14.66014  1.73356  2.28085       1.88316         2947.67826  0.34311  0.04648     0.08361  10.20915     17.42107   5258.51625   -21.16716  0.74508  12690.01768  0.00015  55367.43284  52.80862  22.98803  21.12115  55393.85414 
    14.94177  1.79096  0.97719       3.01472         2811.55318  0.39621  0.04152     0.24645  12.18697      18.5506   8976.32996   -13.86886  0.67404  15328.55877  0.00197  55374.73114  52.98899  27.56067  21.15261  55393.85414 
    14.51524  1.71615  3.00324        1.4049         2977.94283  0.11681  0.01922     0.04727  21.84155     17.24762   6941.76411   -28.20245  0.69476  11359.40004   0.0001  55360.39755  52.77842   9.11096  21.12246  55393.85414 
    14.30004  1.27202  2.24452       4.45821         2639.51238  0.11993   0.0146     0.38275  33.22626     18.26597   3237.42344   -20.39158  1.54209  13396.17395  0.00102  55368.20842  52.95421  10.08172   21.1459  55393.85414 
    14.68313  1.68461  1.05255       2.65433         2761.89377  0.34175  0.05141     0.07464  10.66242     17.86763   3900.64968   -18.89071  0.93149  12701.68317  0.00041  55369.70929  52.81347  23.11197  21.16491  55393.85414 
    14.61067  1.89378  2.16692       2.78401         2755.55357  0.38758  0.05435     0.35269  10.41571     18.14281   9515.96554   -22.87503  1.14966  12997.47952  0.00077  55365.72497  52.83129  26.07977  21.14575  55396.75789 
    14.73557  2.00381   0.7887        1.5103         2861.18213  0.41947  0.03978     0.08424  12.77853     18.93739   5650.99649   -22.81834  1.43747  12348.24946  0.00481  55365.78166  52.80546  29.46634  21.16289  55396.75789 
    14.70688  1.56565  1.69649       1.00441         2960.32029  0.27728  0.05412     0.04096  11.40359     16.17692    6585.3858   -28.00281  0.47181  13071.10995    1e-05  55360.59719  52.84457  19.02111  21.15739  55393.85414 
     14.5065  1.82057  1.86059       1.27426         3208.71668  0.45978  0.07431     0.31993   6.91791     18.65458   6819.13282   -26.13818  1.28647    11172.464  0.00251  55362.46182  52.65989  28.21695  21.11045  55396.75789 
    14.80235  1.55228  0.83359       4.21929         2569.58455  0.25853  0.02905      0.0565  18.66528     16.01597   7905.03991    -14.1959  0.77445  14928.34473    1e-05   55374.4041  53.00289  19.57731  21.14582  55393.85414 
     14.3844   1.6786  2.88053       1.49184          2992.4807  0.30692  0.03874     0.32926   9.59646     18.23507   9123.66896   -24.42893  1.21871  11307.15517  0.00095  55364.17107  52.70256  20.28891  21.12184  55396.75789 
    14.79186  1.58721  1.28335        1.8853         2850.75021  0.24945  0.03645     0.03351  14.38746     16.59595   3749.34554   -23.32529   0.5073  11243.65925    2e-05  55365.27471  52.73454   17.9506  21.17994  55393.85414 
    14.65898   1.9464  1.51125       4.51572         2508.18963  0.15114  0.03231     0.10058  22.23703     16.82779   8943.46492   -20.80668   1.2947  13771.14191    4e-05  55367.79332  52.94709  11.82779  21.12391  55390.95038 
    14.88455  1.94794  0.73685       4.66753         2673.07752   0.4255  0.03473     0.08038   13.0529     18.92978   3676.92956   -11.98965  1.48029  15065.41075  0.00473  55376.61035   52.9801  30.02007  21.21261  55396.75789 
