 log(Bfield)      Mns    Pspin  cutoff_power  cutoff_wavelength  fnickel    kappa  kappagamma   mejecta  log(nhhost)  temperature  texplosion  thetaPB     vejecta      A_V        MJD_0   log(KE)     M_Ni  Peak_mag     Peak_MJD 
    13.74818  2.00501  2.15067       1.86618         2101.83637  0.00372  0.04239     0.06343     35.28     18.91492   7675.60371   -64.09669  1.48665  4240.98401  0.00457  56469.26331  51.95964  0.31585   19.5255     56570.39 
    13.72223  2.05645  2.13474        0.4866         2596.96616  0.00403  0.05134      0.0699  37.00015     17.18091   6619.69222   -73.28134  1.53908  4256.66897    8e-05  56460.07866  51.96635  0.34464  19.50612      56573.4 
    13.71459  1.90149  2.34886       1.79491         2559.68809  0.02808   0.0241     0.07617  48.47201     19.24222   9854.12316   -49.35252  1.53381  4576.34014   0.0097  56484.00748  52.04862  2.51425  19.46312  56572.53193 
    14.34089  1.59854    1.862       2.64526          3150.4714  0.00111  0.01715     0.01749  55.06425     16.16199    4539.0059   -47.61758   0.2287  2652.10872    1e-05  56485.74242  51.58362  0.10153  19.44738     56572.39 
    13.78279  2.14668  2.04099       0.16672         2671.70194  0.00248  0.03354     0.06768  43.42372     17.08986   7326.25983   -68.70158  1.54483  4140.88569    7e-05  56464.65842  51.95398  0.21802  19.50462  56576.38316 
    14.63139  1.94548  2.63058       3.70366         3279.84503   0.0405  0.01838     0.02223  47.96022     17.54695   3739.02777   -46.56022  0.15189  2589.35743   0.0002  56486.79978  51.55322  3.61927  19.46221     56570.47 
    13.79638  2.03344  2.27716       4.01111         2084.16835  0.03164  0.01977     0.03675  55.11474     19.68801   8675.47871   -48.31362  1.53508   4230.7608  0.02709  56485.04638  51.98934  2.89185  19.47583     56572.39 
    14.48237  1.88373   2.1734       2.04561         3707.17867  0.01485   0.0136     0.03895  65.67548     17.54022   9791.49267   -61.16293  0.19875  2185.51988  0.00019  56472.19707  51.42749  1.39485  19.48485     56573.47 
    14.42557  1.81258  2.43346       3.70349         3152.55279  0.03321  0.01668     0.02818  52.51036     16.10146   6686.40368   -54.27145  0.20496  2521.67569    1e-05  56479.08855  51.53654    3.012  19.44107     56573.47 
    14.46784   1.6048  1.72149       1.79092          3239.0938  0.01322  0.01432     0.01198  63.51194     16.60077   6955.75183   -53.26714  0.16459  2442.54046    2e-05  56480.09286  51.52182  1.23548  19.46591  56576.38316 
    14.30509  1.54052  2.34965       4.10803         3344.23366  0.00246  0.01584     0.03486  51.61855     17.35263   4137.08575   -48.05678  0.20463  2738.87922  0.00013  56485.30322  51.60712  0.22238  19.49381      56573.4 
    14.35007   1.6848  2.31948       2.59525         3489.80313   0.0024  0.01469     0.01021  53.73121     16.89166   5843.93347   -45.43465  0.22254  2718.89469    4e-05  56487.92535  51.60353  0.21881  19.49571  56572.53193 
    13.92008  2.04227  1.86847       4.77275         2009.85633  0.09884  0.01938     0.02428  72.55282     19.27749   6625.19876   -54.77447   1.4336  4047.99698  0.01052  56478.58553  51.96947  9.42579   19.5179     56573.47 
    13.74857  2.02027  2.09422       0.53409          2481.9399  0.00136   0.0425     0.07138  36.27863     17.18672   7760.30484   -66.96839  1.55027  4274.29632    9e-05  56466.39161  51.96849  0.11619  19.55777     56570.39 
    13.76604  2.09817  2.26263       2.04997         2366.40642  0.00359  0.05897     0.12783  31.11863     16.34269   9341.97273   -70.61092  1.56125  4273.99099    1e-05  56462.74908  51.95699  0.29808  19.47986     56571.49 
     14.2977  1.09359  1.44593       2.43364         3205.53312  0.00523  0.01766     0.01252  49.81619     17.26151   4516.60512   -47.10983  0.13983  2709.24055   0.0001  56486.25017  51.59519   0.4702  19.50561     56571.46 
    14.37252  1.66949  1.75428       1.73971         2309.49273    0.019  0.02541     0.04212   37.5154     18.68557   3663.81372   -50.73809  0.19681  3419.04323  0.00269  56482.62191  51.77703  1.63036   19.4459     56576.53 
    14.23541  1.49145    1.887       2.40152         2945.25015  0.02427  0.01233     0.01351  62.56556     18.21708   8695.95209     -44.699  0.24591  3061.14438  0.00092    56488.661  51.71689  2.26223  19.43498     56573.47 
    14.21372  2.09828  1.01964       2.41936         2252.92101   0.0028  0.03372     0.02576   51.6318     21.04841    8172.5657   -44.45348  0.34975  4465.44328  0.62106  56488.90652  52.03172  0.25312   19.4875     56571.49 
    13.77935   2.0376  2.23334       1.41961          2529.1547  0.00258  0.04847     0.17981  23.59663     17.70066   7886.54653   -53.91491  1.41246  3982.52674  0.00028  56479.44509  51.87421  0.20441  19.44312      56573.4 
    14.27809  1.61254  1.62847       1.09163         3141.61345  0.01682   0.0155     0.01943  56.41914     17.81448   8427.03855   -54.19743  0.24055  2849.98729  0.00036  56479.16257  51.64779  1.54282  19.44458     56570.39 
    14.44453  1.69981  2.00552        2.8471          3143.7261  0.00144  0.01508     0.01043  52.48017     16.72823    9191.1074   -46.01693  0.19708  2429.22679    3e-05  56487.34307  51.50405  0.13091  19.53487     56571.49 
    13.79579  2.10853  2.20127       1.58705         2030.09556  0.00112  0.04492      0.0743  26.33576     18.01187   6741.82963    -57.0105  1.50187   4139.1821  0.00057   56476.3495  51.91635  0.09041  19.44679  56576.38316 
    14.42948  1.77006  1.98886        1.2544         2689.98544  0.02618  0.02311     0.02398  39.38542     16.82227   3362.26907   -50.22503  0.18962  3696.34146    4e-05  56483.13497  51.84831  2.26537  19.46081      56573.4 
    14.33059  1.85758  1.93715       4.06164         2584.70058  0.00397  0.01981     0.01062  56.11779     18.75583   9621.27486   -59.00577  0.26834  2686.50886  0.00317  56474.35423  51.59611   0.3635  19.48877     56572.39 
    13.54902  1.64726  2.00768       0.79391         2537.67421  0.00378  0.02823     0.02572  60.69351     18.29988   9859.67383   -73.96716  1.55869  4432.43177  0.00111  56459.39284  52.03636  0.35072  19.47173     56569.49 
    14.35519  1.80447  1.86944       1.09686         2606.10112  0.00259  0.01475     0.02966  55.77402     16.09936   5977.45391   -43.62868  0.23488  3670.26153    1e-05  56489.73132  51.86671  0.23677  19.46085      56571.4 
    13.74058  2.04172   2.4474       2.19279         2343.20769  0.00107   0.0431     0.14533  31.39431     16.72102   9875.71871   -49.15794  1.50047  4738.94963    3e-05  56484.20206  52.04735   0.0893  19.48903     56571.49 
    14.49364  1.96314  2.18911        2.8953         2971.47949  0.00502  0.01887     0.01431  46.30105     16.07374   7076.56881   -45.15037  0.21552   2607.5914    1e-05  56488.20963  51.55683  0.44601  19.52545     56569.49 
    13.82184  2.15322  2.50376       3.12626         2113.99291  0.00135  0.02816      0.1558  30.95864       17.161    8639.5967   -37.29927  1.56902  4606.18779    8e-05  56496.06073  52.02161  0.11205  19.46316     56573.47 
    14.26701  1.64618  1.74263       2.73705         2474.80139   0.0042  0.03249     0.02869  39.80172     16.51691    9932.0213   -55.15107  0.25912   3334.9446    2e-05  56478.20893  51.75971  0.36435  19.45209      56573.4 
    14.42576  1.57775  2.18616       4.33504         2824.04532  0.02553  0.01455     0.01361  60.98817      16.6331    6251.8221   -46.27297  0.16381  3029.06351    2e-05  56487.08703  51.70602  2.37038   19.5011     56572.39 
    14.38787  1.83422  1.95409        1.7978         2963.89276  0.00815  0.01697     0.01006  57.50026     19.02912    6504.2955   -55.02001   0.2213  2816.59799  0.00594  56478.33999  51.63885  0.75008  19.50342      56565.5 
    14.37227  1.94195   2.1435       1.40238         3707.61016  0.00457  0.01513     0.02354  55.92562     17.33618   5951.92363   -45.91914  0.26966  2638.70148  0.00012  56487.44086  51.58028  0.41855  19.51454     56570.39 
    13.73925  1.94239  2.26491       1.97543         2552.81929  0.00857  0.02854     0.08093  41.31018     19.28169   9110.38972   -49.65437  1.56432  4267.31279  0.01063  56483.70563  51.97653  0.74746  19.55785  56576.38316 
     14.3929  1.44294  2.22847       4.96491         2930.63333  0.02396  0.01122     0.01009  68.88555     16.46588   8031.96436   -44.53422  0.15078  2945.12376    2e-05  56488.82578  51.68977  2.26729  19.49951  56572.53193 
    14.55887  1.90901   2.3294       2.88464         2751.38428  0.00447  0.02483     0.04717  40.95672     16.11378   9885.91862   -48.80503  0.15215  3406.31745    1e-05  56484.55497  51.78017  0.38956  19.56735     56576.53 
    13.74129  2.07073  2.14281       2.03424          2210.2055  0.01029  0.02828     0.06768  43.15626     20.29506   8768.61776    -53.1415  1.50271  4427.52001  0.10959   56480.2185  52.01167  0.90363  19.45276      56573.4 
    14.29862  1.75957  1.90439       1.86269         2872.40984   0.0026  0.01375     0.01016  71.15949     17.04809   8447.74589   -50.43386  0.26657  3040.97223    6e-05  56482.92614  51.71974  0.24732  19.54597     56571.49 
    13.73046  1.91328   1.7739       0.00267         2690.19031  0.00361  0.02714     0.03835  43.28973     17.93952   7810.54509   -58.97774  1.54761  4206.79493  0.00048  56474.38226  51.96748  0.31746  19.45739      56571.4 
     14.2409  1.42671  2.09902       4.75401         3099.43155  0.00583  0.01196       0.019  82.76759     17.06333   6889.38651   -49.15396   0.2101  3002.48537    6e-05  56484.20604  51.71854  0.56691  19.53636     56571.49 
    13.83488  2.16509  2.23445       3.33994         2162.25548  0.01241   0.0406     0.04976  36.45724     17.34334   8611.04873   -57.82512  1.54531  4024.99019  0.00012  56475.53488  51.91665  1.05996  19.47481     56571.49 
     13.7075   1.9826  2.11234       0.35312         2429.56486  0.00166   0.0271     0.06534  43.31518     18.23442    8284.3909   -63.10613  1.56657  4408.75784  0.00095  56470.25387  52.00825  0.14569  19.49215     56569.39 
     14.6411  1.96581  1.88115       0.96677         2985.07816  0.02834  0.01689     0.03399    44.866     17.69007   4342.64416   -45.27663  0.14388  3140.24314  0.00027  56488.08337  51.71605  2.50585   19.5205     56569.49 
    14.45516  1.80526  1.87723         1.939         2776.26679  0.03867  0.01591     0.01521  68.61165     16.49349   7992.69304   -62.78466  0.19552  2867.43506    2e-05  56470.57534  51.66629  3.65597   19.4516     56569.49 
    13.72497  2.17857   2.3122       1.27141         2384.74651  0.00363  0.02374     0.02383  77.15976     18.93049   5268.61943   -86.51456  1.39177  4001.78787  0.00473  56446.84544  51.96354  0.34928  19.45274      56570.5 
    13.72338  1.95577   2.0903       2.88523         2100.14905  0.00206   0.0331     0.04019  52.41493      18.3012   9237.52135   -68.68107  1.46995  4297.91997  0.00111  56464.67893  51.99955  0.18666  19.48074     56570.39 
     14.3714  1.72258  2.02795       2.27946         2905.86759  0.01146  0.01649     0.02471  73.17136     16.19401   8575.19087   -60.07762  0.21167  3295.41938    1e-05  56473.28238  51.79137  1.09459  19.53046     56567.39 
    14.48215  1.96093  2.34839       2.88504         2904.26236  0.00184  0.01675     0.02134  46.76423     17.65201   4204.05295   -41.71696  0.20862  3031.83434  0.00025  56491.64304  51.68847  0.16363  19.41984     56571.49 
    14.31338  1.51417  1.95988       2.40871         3334.51712  0.00101  0.01467     0.01029  58.18187     17.45934   8634.05849   -50.28481  0.20188  2542.36585  0.00016  56483.07519  51.55068  0.09297  19.49518     56576.53 
     13.7786  2.06796  2.37768       3.09884         2289.22249  0.05016  0.02719     0.03776  51.92688     18.05583   9864.42061    -62.1844  1.56492  4060.86602  0.00063   56471.1756  51.94962  4.54043  19.43123     56573.47 
    14.45864  1.85928  1.98913       2.35323         2793.37411  0.00318  0.02274     0.01606  42.23413      17.0089   3471.79951   -47.78615  0.20656  2887.97297    6e-05  56485.57385  51.63899  0.27834  19.46964      56573.4 
    13.77185  1.94032  2.00685       1.75078         2631.16055  0.02176  0.05719     0.12099   28.8249     17.51061   7587.26386   -69.14788  1.32519  3738.42744  0.00018  56464.21212  51.83487  1.78455  19.47131     56572.39 
    13.60367  1.76306  2.08163       0.75025         2215.31696  0.00157  0.02647     0.02511   43.1881     19.05084   9569.45734   -59.16333  1.56153  4756.31753  0.00625  56474.19667  52.07395  0.13807  19.51705     56572.39 
    13.63248  1.65197  2.11867       0.47027         3106.50064   0.0664   0.0141     0.02057  57.06917     17.13748   7087.24586   -44.96547  1.53112  4738.88736    8e-05  56488.39453  52.09024  6.10142  19.50843      56571.4 
    14.41026  1.57954  2.10205       4.33498         3121.96823   0.0045  0.01697     0.01461  62.64866     16.25009   8757.99516   -53.00765  0.17725  2664.53282    1e-05  56480.35235  51.59646  0.41914  19.48537      56570.5 
    14.55216  1.87052  1.53873       2.63319         2111.82017  0.00101  0.02202     0.01857  50.64029     17.28257   8649.21548   -53.62366  0.17115  2929.46022  0.00011  56479.73634  51.66421   0.0907  19.45282     56573.47 
    14.61803  1.91784  2.33011       4.01504         2651.98161  0.00991  0.01702     0.04498  74.94466     17.80729   5115.13065   -51.71043  0.13787  3598.99762  0.00036  56481.64957  51.86949  0.94959  19.55377  56564.82947 
    13.69401  1.98199  2.06503       0.08007         2685.99894  0.01309  0.03146     0.05343  44.91546      18.2401   8912.90838   -74.87772  1.53708  4138.15626  0.00097  56458.48228  51.95581  1.15774   19.4592      56571.4 
    13.59126  1.82405  2.33629       2.05766         2501.52591  0.00674  0.01743     0.04189  83.36484     19.37153   7447.20486   -68.58271   1.5303  4571.25637  0.01307  56464.77729  52.08412  0.65646  19.49026     56570.39 
     13.7441  2.00479  2.11988       2.82473         2434.67409  0.00466  0.10337     0.17142  22.26951      17.9649    7137.6278   -72.14964  1.54371  4126.14652  0.00051  56461.21036  51.90036  0.36512  19.53723     56571.49 
    14.33505    1.432  1.62983       1.31346         3279.07618  0.02113  0.01587     0.01899  58.70819     16.29223   4013.07963   -58.41658  0.17131  2665.55813    1e-05  56474.94342  51.59239  1.95006  19.53269      56571.4 
    14.32394  1.76624  1.85686       3.51425         2173.38281  0.00475  0.02002     0.01929  51.28466      17.2648   7757.97544    -52.0197   0.2426  3277.61196   0.0001   56481.3403  51.76263  0.42928  19.44149     56573.47 
     14.5315  1.69317   2.0734       3.01903          2934.3634  0.00215  0.01699     0.02051  48.86582     16.46092   5581.91189   -45.14396  0.14647  2710.55892    2e-05  56488.21604  51.59427  0.19272  19.46982     56572.39 
    14.43472  1.80815   2.0608       3.25785         2746.40196  0.02286  0.02583     0.02256  37.05462     16.05862   4720.35597   -43.44374   0.2183  3039.96689    1e-05  56489.91626  51.67405  1.95765  19.47003      56573.4 
    14.60429  1.91473  2.22095        1.5313         3436.32694  0.00618  0.01727     0.02425  48.62185     18.26281   5425.93609   -46.77418  0.14223  2917.50722  0.00102  56486.58582  51.65782  0.55382   19.4922     56570.39 
    14.61449  1.78411  1.79769       1.66244         3579.79856  0.01047  0.01522     0.08513  57.50506     16.16326   8997.94889   -47.14608  0.15174   2404.1087    1e-05  56486.21392  51.50131  0.96344  19.49396     56567.39 
    13.65909  1.98625   2.2184       0.22145         3196.08529  0.00321   0.0146     0.01285  76.51602     19.57141   8735.49885    -63.2456  1.50632  4399.16279  0.02071   56470.1144  52.04522  0.30871  19.47129  56572.53193 
    13.72392  1.89523  2.02793       0.39799          2527.2077  0.00277  0.03202     0.05369  40.14779     18.57366   9553.52649    -54.7708  1.56895  4539.75808  0.00208   56478.5892  52.02822  0.24053  19.46503  56580.23439 
    13.77736  2.15569  2.36053        2.7794         2007.10509  0.00147  0.04821     0.20866   30.3702     17.79638   9891.11103   -62.45442  1.51415  4450.51518  0.00035  56470.90558   51.9903  0.12147  19.48153     56571.49 
    13.77899  2.09475  2.43543       4.85406         2022.04146  0.02949  0.02491      0.0757  56.00141     18.15795   9783.69795   -58.32128   1.5572   4366.3514   0.0008  56475.03872  52.01783  2.70183  19.52064     56569.46 
    13.79999  2.01025  1.87719       0.31588         2888.21421  0.07581  0.01539      0.0169  54.63354     20.19642   7118.76074   -44.07661  1.49505  4405.15905  0.08733  56489.28339  52.02382  6.91788  19.47498      56571.4 
    13.73841  1.96339  2.12348       2.36925         2067.87855  0.00394  0.02354     0.02997  43.86436     20.03535   9287.98981   -47.96142  1.29704  4466.65225  0.06027  56485.39858  52.02048    0.347  19.52062     56571.46 
    14.41299  1.39533  1.63099        3.0033         2945.81296  0.01924   0.0228     0.01784   47.4178     16.42842   4553.03461   -56.88881  0.15251  2717.95785    1e-05  56476.47119  51.59452  1.71612  19.48675     56569.39 
    14.31579  1.39639  1.95997       3.68305          3145.6557  0.00703   0.0158     0.01213     55.42     16.30688   6010.72075   -47.99856  0.18426  2550.51138    1e-05  56485.36144  51.55013  0.64292  19.50244      56573.4 
    13.71484  2.02922  2.18059       0.07251          2154.0379  0.00215  0.02721     0.12467  38.06181     18.68106   5857.40981   -61.16147  1.44441  4651.99529  0.00267  56472.19853  52.04556  0.18526  19.46644     56566.48 
    14.43406  1.86626  1.99021       3.62548          2087.5197  0.00338  0.02459     0.04735  44.78821     16.40382   8068.32535   -58.11044  0.18112  3347.48646    1e-05  56475.24956  51.77144  0.29848  19.48666      56570.5 
    14.34042  1.75589  1.89212       4.37027         2790.74553  0.00103  0.02957      0.0335  39.91252     16.57131   7624.57986   -47.14559  0.26261  2791.56377    2e-05  56486.21441  51.60543  0.08969  19.45438     56570.39 
    14.49022  1.71067   2.1353       3.55232         3150.19353  0.01719  0.01866     0.07208  47.82062     16.37542   9496.63972   -46.59216  0.18288  2586.23932    1e-05  56486.76784  51.55197  1.53546  19.51588      56570.5 
    14.32003  1.74121  2.08225       0.96964         2626.41955  0.00734  0.02839     0.02313  44.37391     17.29578   3488.37604    -62.9202  0.19946  4135.64259  0.00011   56470.4398  51.95442  0.64782  19.48517      56570.5 
    14.50792  1.92186  1.72939       0.01282         2368.73136  0.01804  0.02481     0.03661   35.8766     16.26783   3465.93808   -50.21494  0.16863  4186.64519    1e-05  56483.14506  51.94967  1.53636  19.48674  56564.82947 
    13.81604   2.1038  1.88515       0.13419         2551.00034  0.00737    0.028     0.06368   38.3381     18.53111   6418.83336   -53.92492   1.5705   4252.5299  0.00189  56479.43508   51.9681   0.6352  19.56789     56571.46 
    13.60691  1.69876   1.7886       0.04894          2479.6566  0.00151  0.02347      0.0346  39.87723     16.65764   8920.64259   -57.70965  1.55115    4268.232    3e-05  56475.65035  51.97416  0.13067  19.45558     56573.47 
    14.25853  1.54463  1.78506       3.71421         2395.87778  0.01437  0.02144      0.0231  53.69182       18.579   5894.99913   -57.17445  0.21672  3280.98945  0.00211  56476.18555  51.76671  1.30761  19.49265     56576.53 
    14.40028   1.7563   2.1039       3.90146         2872.82277  0.00322  0.02195     0.01559  45.75861     17.51408   6693.24974   -48.17095  0.21877  2848.85004  0.00018  56485.18905  51.63286  0.28561  19.47657  56572.53193 
    13.75283  2.07241  2.03683       0.06977          2485.6914  0.00206  0.03031     0.06926  41.28792     17.90746    8146.6291   -64.11543  1.54675   4300.5258  0.00045  56469.24457  51.98322  0.17922   19.4317     56573.47 
