 log(Bfield)      Mns    Pspin  cutoff_power  cutoff_wavelength  fnickel    kappa  kappagamma   mejecta  log(nhhost)  temperature  texplosion  thetaPB     vejecta      A_V        MJD_0   log(KE)      M_Ni  Peak_mag     Peak_MJD 
    14.34924  2.03619  0.78184       0.83439         2202.68884  0.38796  0.01201     0.11353  18.19053     21.29127   9878.05201    -6.14078   0.8459  6822.07585  1.08643  57903.13322  52.32056  29.23404   17.5374    57927.572 
    14.73548  2.09974  0.70154       0.79829          2021.0986  0.29313  0.01086     0.23899   19.8383     21.23289    9355.3628    -6.36937   0.3533  6918.42624  0.94978  57902.90463  52.33991  22.45574  17.49042    57927.304 
    14.24863  1.47937  1.41541       1.20392         2213.17319  0.41405  0.01597     0.26913  12.35849     21.19183   8947.86458    -6.00076  0.68057  6675.05639  0.86408  57903.27324  52.26816  28.88487  17.46466  57924.94405 
    14.43884  2.02894  0.99662       1.68488         2054.43144  0.37849  0.01014     0.42566  18.60388     21.25488   9803.43581    -3.09546  0.81095  6637.59277   0.9991  57906.17854  52.29862  28.64346  17.48831  57924.94405 
    14.07135  1.62645  1.14622       1.19282         2126.51646  0.32139  0.01149     0.19981  16.88716     21.24336   9533.65999    -6.45244  1.21523  6588.70156  0.97294  57902.82156  52.28408  23.87237  17.46572  57924.94405 
    14.17908  1.46186  1.64875       4.32792         2009.48308  0.37127  0.01335     0.25837  15.47838     21.23063    9801.7571    -2.46898  1.00042  6795.36855  0.94485  57906.80502  52.30348   27.1091  17.55524    57927.304 
     14.1985  1.69479  1.49159        2.3252          2009.9409  0.43021  0.01426     0.42322  14.53787      21.2791   9101.34601    -5.31255  0.85825  6629.75678  1.05639  57903.96145  52.27663  31.02293  17.44983    57927.304 
    14.35555  1.64538   0.8135       1.89931         2001.03008  0.33668  0.01076     0.32737  19.42567     21.24707   9754.22062    -2.89278  0.75821  6770.07292   0.9813  57906.38122  52.31936  25.68943  17.50201    57924.303 
    14.48021  1.73781  0.99398       1.86459         2175.80072  0.48547   0.0146     0.24825  12.88554     21.26141   9738.89766    -2.66588  0.55352  6761.55744  1.01424  57906.60812  52.28309   34.1607   17.4271  57924.94405 
    14.34363  2.01359  0.89545       1.49557         2058.13588  0.46272  0.01012     0.12314  16.83296     21.30773   9939.59522    -3.56773  0.85986  6429.52978   1.1284  57905.70627  52.26257  34.34821  17.51298  57924.94405 
    14.23999  1.61913  0.99643       1.75157         2083.23296   0.4564  0.01186     0.49475  15.15053      21.2828    9560.5435    -3.75256  0.76976  6424.02641  1.06543  57905.52144  52.25283  33.18422  17.41758    57927.304 
    14.35031   2.0042  0.78135       1.85205         2010.37361  0.46562  0.01508      0.3197  14.26409     21.27484   9592.75826     -2.3824  1.23303  7019.13906  1.04608   57906.8916  52.32454  33.44816   17.5612    57927.304 
    14.20834   1.5864  1.57644       1.78039         2113.85929  0.48874  0.01371     0.24735  11.78421     21.21915   9868.01353      -4.008  0.85547  6716.84902  0.92019    57905.266  52.26927  33.75947  17.47228    57927.304 
    14.32566  1.88592  1.26007       2.32231          2030.3306   0.4401  0.01221     0.21417  15.81317     21.25512   9944.66368     -2.5666  1.00587  6656.99939  0.99965   57906.7074  52.28745  32.27123  17.53731  57924.94405 
    14.22766  1.60306  0.86473       1.72006         2018.47716  0.34183  0.01077     0.27335  19.51735     21.26591   9938.28393    -4.31686   1.0012   6793.0492  1.02479  57904.95714  52.32269  26.10568   17.4726    57927.304 
     14.2907  1.77001  0.99573       1.08142         2002.87846  0.33388   0.0107     0.36725  19.17693     21.28852   9719.97393    -5.84041  0.71139  6929.64809  1.07955  57903.43359  52.33853  25.41408  17.44983    57927.304 
      14.188  1.52718  0.70972       1.21423         2090.71332  0.42762  0.01046     0.37714  18.75016     21.29879   9837.48533    -3.93366   0.8104  6523.30079  1.10539  57905.34034  52.28418  32.40982  17.55797    57927.304 
    14.12115  1.72289  0.76213        0.9579         2072.49165  0.28946  0.01114     0.28012  19.09039     21.24257   9439.58114    -5.67875  1.54635  6760.93768  0.97118  57903.59525  52.31675  22.01387  17.43636    57927.304 
    14.36477  1.80064  0.88378        0.8295          2010.4948  0.35432  0.01214     0.32118  15.09146     21.23601   9696.62356    -6.94209  0.61242  6910.91241  0.95661  57902.33191  52.31594  25.74173  17.48857  57924.94405 
    14.16045  1.58419  0.74648       1.33448         2070.42824   0.4667  0.01475     0.28919  15.21438     21.28918   9880.39811    -3.83936  1.00474  6958.73111  1.08121  57905.43464  52.32263  33.96122  17.46269  57924.94405 
    14.37647  1.79151  0.78958       1.43914           2041.141  0.45423  0.01041     0.16416  17.41024     21.29314   9341.92051    -3.34259  0.67039   6358.5261   1.0911  57905.93141  52.25577   33.9393  17.48959    57927.304 
    14.42796  1.66255  1.44057        3.8864         2005.79664  0.47831  0.01125     0.21409  15.58495     21.24789   9682.98485    -2.26464  0.66445  6423.77045  0.98315  57907.00936  52.25523  34.97288  17.40399    57927.304 
    14.25817  1.71603  0.85109       1.53224         2000.33751  0.35768  0.01095     0.33868  19.24929     21.23846   9012.57403    -3.66741  1.11416  6855.22638  0.96203  57905.60659  52.32946  27.24513  17.42227  57924.94405 
    14.15213  1.81975  1.14646       1.64441          2059.5305  0.45306  0.01138     0.48416  14.48428     21.29051   9740.22729    -3.59513  1.14336   6366.5865  1.08452  57905.67887  52.24112  32.64682   17.4904    57927.304 
     14.0905  1.62787  1.23712       1.42558         2131.15429  0.35896  0.01217     0.24615  16.25112       21.277   9635.29096    -5.04683  1.26291  6788.01931  1.05131  57904.22717  52.30671  26.46333  17.49916    57927.304 
    14.24252   1.7411  0.82299       1.18324         2042.00879  0.36605  0.01115     0.16774  17.54646     21.24791   9715.08961    -4.25918  0.94528  6695.07982  0.98318  57905.01482  52.30122  27.39196  17.42754  57924.94405 
    14.10012  1.59829  1.06464       1.82669         2083.97455   0.3763  0.01015     0.27019  20.53799     21.30464   9579.43751    -3.92208  1.22659  6722.31516  1.12038  57905.35192  52.31777  29.01581   17.4446    57927.304 
    14.50246  1.71291  0.93981       2.32429         2028.50907  0.39048  0.01149     0.23641  17.10441     21.23644   9654.48499    -2.03734  0.57034  6550.03343  0.95756  57907.23666  52.28005  29.07581  17.44498    57927.304 
     14.5051  1.65835  0.90067       1.54995         2009.47711  0.30026  0.01179     0.31185  18.13575     21.17664    9624.9453     -5.0171  0.54273  6773.10964  0.83438   57904.2569  52.31405  22.61227  17.50362  57924.94405 
    14.31432  1.69733  0.71243       1.44829         2003.20864  0.33012  0.01021     0.21645  18.80453     21.24421   9394.43375    -3.58689  0.87513  6448.33803  0.97485  57905.68711  52.27438  25.03371  17.40585    57927.304 
    14.13636  1.70346  0.70429       1.06851         2071.42328  0.36513  0.01061     0.26199  18.35176     21.26331   9516.30034    -4.47504  1.40838  6612.60774  1.01869  57904.79896  52.29421  27.56027   17.5135    57927.572 
    14.23167  1.96565  1.63191       1.72134         2130.83134  0.39534  0.01117     0.29713  16.85093     21.24672   9587.93075    -4.60656  1.30875   6379.4008   0.9805  57904.66744  52.25586  29.35266  17.44415    57927.304 
    14.29569  1.89058  0.74964       1.54513         2094.34296  0.41242  0.01017     0.31959  18.20862     21.29561   9839.01519    -2.55327  1.00632  6653.41924  1.09733  57906.72073   52.2989  31.08323  17.38764    57927.304 
    14.61703  2.02835  0.71693       1.05186         2097.32959  0.32684  0.01004     0.28536  18.59236     21.24157    9901.1988    -4.62679  0.47759  6716.13934  0.96894  57904.64721  52.30878   24.7316  17.47574    57927.304 
    14.47984  1.95077  1.37438       1.50691         2162.92665  0.49215  0.01763      0.2396  11.62115     21.20214   9640.32515    -4.01612  0.69406  7016.09316  0.88485  57905.25788  52.30587  33.89544  17.47451    57927.304 
    14.21253  1.81969  0.70715       1.40399         2068.61509  0.37423  0.01093     0.24876  16.96925     21.27758   9728.66723    -4.59685   1.1415  6709.77487  1.05272  57904.67715  52.30031  27.82311  17.42045  57924.94405 
    14.13542  1.64593  0.77434       1.43344          2069.1181   0.3867   0.0106     0.18623  17.86782     21.30908   9254.28472    -2.91716  1.05107  6718.89185  1.13191  57906.35684  52.30583  29.03891  17.42541    57927.304 
    14.07819  1.24302  0.79757       1.68458         2017.22986  0.49767  0.01156     0.15828   15.2151     21.30023   8858.19277    -4.62789  0.67555   6296.8301  1.10908  57904.64611  52.23582    36.215  17.45856    57927.304 
     14.1891   1.8041  1.25248       1.23094         2012.29524  0.45465  0.01664     0.33363  11.48457     21.23922   9268.77599    -4.59523  1.14391  7006.98215  0.96371  57904.67877  52.30366  31.23545  17.44143  57924.94405 
    14.51917  1.96681  1.17849       1.51566         2043.33774   0.3203  0.01044     0.13961  18.03828      21.2438   9807.24535    -4.73923  0.53869  6642.49335  0.97392  57904.53477  52.29669  24.09635  17.44054  57924.94405 
    14.20528  1.36138  1.07691       1.70042         2117.34111  0.46137  0.01397     0.18931  13.28098     21.22275   9643.38128    -4.48202  0.73353  6435.69344  0.92786  57904.79198  52.24287  32.66689  17.51529    57927.304 
    14.23085  1.67621  0.92224       1.85893         2067.57301  0.45642   0.0125     0.40717  15.01543     21.23387   9642.72644    -3.03843  1.19491  6466.99446  0.95192  57906.23557  52.25784  33.12648  17.49491    57927.304 
    14.67111  2.00753  1.89512       1.27413         2238.64239  0.37267  0.01593     0.22699  13.23205     21.20078   9283.59481    -6.78797  0.39239  7126.22715  0.88208  57902.48603  52.33107  26.36677  17.34807  57924.94405 
    14.26956  1.90039  1.60872        1.9746         2064.88075  0.40583  0.01334     0.36701  14.32541     21.18368   9862.09265    -4.49261  1.43189  6407.24655  0.84803  57904.78139  52.24569  29.17825  17.58344    57927.304 
    14.04851  1.53684  1.26144       1.54751          2006.3728  0.39255  0.01184     0.24296  15.03626     21.24878   9383.10517    -5.32542  1.18292  6756.93725  0.98515  57903.94858  52.29606  28.49866  17.41324  57924.94405 
    14.23569  2.05809   1.8508       2.09308         2006.55916  0.45818  0.01043     0.18705  15.40222     21.29664   9831.19852     -4.6638  1.03018  6106.77516  1.09993   57904.6102  52.21026  33.42231  17.46495  57924.94405 
      14.291  1.83932  0.71705       1.25675         2140.25322   0.4033  0.01049      0.1692  17.28463     21.29657   9736.57399    -3.80403  0.83142  6511.19318  1.09977  57905.46997  52.27577  30.09184   17.4362  57924.94405 
      14.243   2.0004  1.47502       2.14032         2020.39388   0.4985  0.01517     0.41996  12.11892     21.27558   9468.67149    -3.28124  1.19165  6901.80265  1.04788  57905.99276  52.29541  34.63517  17.45742    57927.304 
    14.26036  1.66219   1.0877       1.44394         2045.77912   0.3809  0.01124     0.27055  16.18588     21.24511   9557.90521    -4.08581  0.85493   6943.1038  0.97687  57905.18819  52.32599  28.05873  17.38943  57924.94405 
    14.40574  2.09482  0.87747        1.7711         2036.00615  0.47173  0.01733     0.46046  12.01262      21.2018   9575.29359    -2.65665  1.17178  6895.12486  0.88414  57906.61735  52.29377  32.71566  17.50122    57927.304 
    14.16262  1.74375  0.97537       1.47601         2020.71644  0.34855  0.01072     0.18229   18.0485     21.26135   9914.02187    -4.19879  1.20423  6436.57904  1.01409  57905.07521  52.26938   26.2248  17.54632    57927.304 
    14.03728  1.29769  0.74393       1.48251         2127.99705  0.47805   0.0105     0.16989  16.99382     21.29021   9418.01303    -4.11939   0.9548   6331.4119  1.08377  57905.15461  52.25002   35.5517  17.41327  57924.94405 
    14.37804  1.97904  1.55948       2.79788         2012.61633  0.45504  0.01698     0.24327  11.73305     21.20005   9812.91637    -2.73709  1.07034  6838.37465  0.88061  57906.53691  52.28445  31.40296  17.40148  57924.94405 
    14.08123   1.5806  0.70745       1.22259         2013.46555   0.3861  0.01025     0.30563  18.13829      21.3057   9876.64092    -4.81658  1.05847  6647.35863  1.12311  57904.45742  52.29779  29.07738  17.44944  57924.94405 
    14.44243  1.67504  1.40081       1.94846         2047.15878   0.2931  0.01016     0.14855  18.99506     21.25724   9689.87722    -4.74124  0.46758   6867.9543  1.00455  57904.53276  52.32997  22.26961  17.45594  57924.94405 
    14.19492  1.58117  1.48934       3.13496         2000.60882  0.36109  0.01118      0.1684  16.19723     21.24435   9909.32455    -2.96589   0.9207  6449.66455  0.97517  57906.30811  52.26202  26.60313  17.47045    57927.304 
    14.26502   1.9061  1.07372       1.65342          2072.4106   0.4284  0.01106     0.29113  15.76573     21.26305   9890.11079    -2.60656  1.22085  6774.25298  1.01807  57906.66744  52.30236  31.39455  17.40364  57924.94405 
    14.21365  1.73976  1.09915       1.09492         2157.05433  0.46894  0.01585      0.2402  13.42155     21.27879   9237.42945     -4.8699  0.89732  6971.27474  1.05564   57904.4041  52.31324  33.27379  17.48975  57924.94405 
    14.16825   1.6821  1.01212       1.77044         2079.32875  0.39126  0.01098     0.15649  17.20249     21.26278   9621.31369    -2.39262  1.49081  6734.53903  1.01744  57906.88138  52.30466  29.16633  17.45162    57927.304 
    14.19654  1.74245  0.74029       1.14878         2098.71381  0.29366  0.01061     0.25719  19.48303     21.23976   9989.19693    -5.53121  1.14965   6607.5973  0.96491  57903.74279   52.2985  22.41965  17.47387  57924.94405 
    14.17562  1.70383  1.40889       2.02917         2010.69559   0.3876  0.01144     0.15472  15.77365     21.24265   9943.13063    -4.05403  1.04554  6343.59327  0.97135  57905.21997  52.24535  28.40748  17.51427    57927.304 
    14.17956  1.89279  1.56391       2.20374         2002.51035  0.43168  0.01061     0.19962  15.65283     21.24951   9317.43575    -3.66343  1.50663  6255.62366  0.98682  57905.61057  52.23256  31.59007   17.5194    57927.304 
    14.16287  1.48511  0.94855       1.79898         2072.56223  0.35096  0.01177     0.18011  18.03672     21.26579   9319.22171    -3.44637  0.95465  6765.38139  1.02452  57905.82763   52.3126  26.40246  17.38079  57924.94405 
    14.44518  1.90661  1.34995       1.64665          2101.3001  0.44213  0.01406     0.24104  14.16176     21.22557    9494.5602    -3.84455  0.69358  6729.25974  0.93389  57905.42945  52.28728  31.71472  17.49758  57924.94405 
     14.2344  2.12894  1.51825       2.06418         2008.84175  0.49952  0.01251     0.34725  12.43848     21.27622   9821.67709    -2.62369  1.44869  6423.91024  1.04943  57906.65031  52.23543  34.89436  17.58248  57924.94405 
    14.11998  1.56007  1.03302       2.20622         2022.89977  0.40171   0.0123     0.32745  16.07864       21.272   9927.98255    -2.38931  1.37382  7040.00577  1.03926  57906.88469  52.33746  29.55291  17.46711    57927.304 
    14.31569  1.93501  1.40424        1.5521         2026.83137  0.35921  0.01044     0.14635  17.27873     21.20485   9730.07844    -5.09387  0.95269  6416.34232  0.89039  57904.18013  52.26299  26.80007  17.48568    57927.304 
    14.28418  1.84745  0.71407       1.55325         2013.90368  0.30561  0.01055     0.42383    20.962     21.26067   9396.76034    -2.88107  1.17891  6942.56442   1.0125  57906.39293  52.34743   23.6552  17.40691  57924.94405 
    14.09631  1.56903  1.41043       2.13461         2066.73087  0.45831  0.01134     0.35533  16.23323     21.31756   9828.41697    -4.57323   0.8772   6251.2278  1.15422  57904.70077  52.23506  33.78025   17.4194    57927.304 
    14.27705   1.6789  1.11536        0.7945         2262.69436  0.40512  0.01656      0.1585  12.68752     21.20978   9491.43406    -6.10672  0.73668  6889.94795  0.90055  57903.16728  52.29804   28.4159  17.47332    57927.322 
    14.18557  1.76569     1.97       2.25953          2036.2352  0.38367  0.01327     0.18715  15.10627     21.22876   9620.83162    -6.37009  1.10873  6525.20861  0.94077  57902.90391  52.26615  27.87966  17.48844    57927.304 
    14.29967  2.04039    0.879       1.78758         2075.43239  0.48347  0.01273     0.38814  15.47831     21.30162   9574.54799     -2.0343  1.24113  6792.68494  1.11263   57907.2397  52.30314  35.30199   17.4693    57927.304 
    14.04281  1.53132  1.24802       1.39612         2079.32345  0.45385  0.01417     0.33442  13.78496     21.25077   9540.19064    -7.28639  1.33391  6425.65037  0.98969  57901.98761  52.24481  32.37885  17.41777    57927.304 
    14.42396  1.84478  0.96254       1.70437         2040.49402   0.3168  0.01093     0.14459  20.14857     21.25302   9752.77448    -3.57612   0.7365  6879.05797  0.99482  57905.69788  52.33622   24.3399  17.48343  57924.94405 
    14.29321  1.94803   1.0078       1.99065         2027.22653  0.44714  0.01191     0.21374    16.103     21.29632   9673.23498    -3.56648  1.04926  6556.22595  1.09913  57905.70752  52.27575  32.90496  17.42927  57924.94405 
    14.25027  1.95026  1.46531         1.648         2085.85329  0.47884   0.0138     0.21307  12.51699     21.26813   9730.30872    -4.57208   1.0095  6564.61778  1.03004  57904.70192  52.25481  33.49361  17.48785    57927.304 
    14.01843  1.38904  0.75911       1.59966         2012.84798  0.42631   0.0107     0.35145   16.7206     21.30277   9803.04529    -4.26291  1.01694  6315.96277  1.11557  57905.01109  52.24653  31.60444   17.5169    57927.304 
    14.28812  1.99352  0.92119       1.90209         2025.06136  0.48209  0.01406     0.19223  14.17468     21.29216   9656.86794    -2.78091  1.34688  6665.11823  1.08865  57906.49309  52.27904  34.58758  17.39399    57924.303 
    14.37703   1.8042  0.76153       1.20975         2074.31403  0.47014    0.015      0.3324  14.22861     21.28654   9661.14149    -4.45399  0.67897  6951.48875  1.07466  57904.82001  52.31591  33.75609  17.50502    57927.304 
    14.49937  1.64954  0.80362       1.84589         2132.44554   0.3533  0.01064     0.36033  18.12047     21.22833   9734.49372     -1.8737  0.54217  6594.90902  0.93985   57907.4003  52.29082  26.60266  17.43951  57924.94405 
    14.40977  1.93338  1.09663       1.95038         2049.42346  0.42856  0.01117     0.30978  16.80332     21.26336   9679.35327    -3.09367  0.74004  6434.20456  1.01879  57906.18033  52.26305  31.80139  17.53178    57927.304 
    14.49665  1.82441  0.83968       1.38532         2051.94791  0.30569   0.0103     0.11594  20.53391     21.23601    9338.5579    -4.71505  0.57716    6706.284  0.95661  57904.55895  52.31568  23.57024  17.48305    57927.304 
    14.41105  1.69464  1.03209       1.15867         2085.14991  0.30399  0.01059     0.28065  17.27868     21.23478   9764.66457    -4.87693  0.53624   6784.3714   0.9539  57904.39707  52.31144  22.68041  17.47813    57927.304 
    14.58544  1.97107   1.3626       2.06568         2008.03091  0.33995   0.0115     0.13882  17.55951     21.21673    9914.1617    -4.23108  0.50633  6708.21667  0.91509  57905.04292  52.30299  25.44282  17.41374  57924.94405 
    14.19038   1.9174  0.77336       1.20858         2090.57346  0.39921  0.01106     0.26648   16.9337     21.28407   9190.27564     -3.6564  1.30849  6509.08075  1.06856   57905.6176  52.27376  29.66834  17.47907  57924.94405 
    14.08991  1.67836  0.98585       1.56641         2081.49106  0.49481  0.01255     0.18336  14.50907     21.30655   9663.98016     -2.8407  1.40533  6834.03924  1.12532   57906.4333  52.30281   35.6674  17.53231    57927.304 
