 texplosion  fnickel    Pspin  log(Bfield)      Mns  thetaPB   mejecta    kappa  kappagamma     vejecta  temperature    alpha  cutoff_wavelength  log(nhhost)      A_V         MJD0  kenergy  mnickel           TSD   log(L0)  Peak_mag     Peak_MJD  log(E_rad)  log(Peak_lum)  Rise_Time    E_fold  tau_1  delta_m15     r_peak     frac 
   -6.30995  0.22601  1.37993     14.04415  1.73034  1.47285  19.96731   0.0101     0.09029  4779.62749     9919.819  2.77752         2212.52638     21.27141  1.03787  57902.96405  2.72104  4.51276  249670.78003  46.82989  17.53997  57927.01602     51.6682       45.15052   13.82627  23.17067   66.5    0.30811  -21.66052   0.9572 
   -1.66455  0.27385  0.76726     14.67248  1.83933  0.40003   24.6232  0.01006     0.18279  5424.30755   9987.01214  4.38829         2011.39436     21.29327  1.09143  57907.60945  4.32176  6.74303    4543.51189  49.10623  17.51226    57927.572    51.67554        45.1793   11.78333  23.17067   46.5    0.35235  -21.83456  0.98867 
   -5.71705  0.28423   1.5194     14.11025  1.68941  1.01525  15.99271  0.01287     0.32583  5769.83224   9950.97311   3.3489         2007.29644     21.25803  1.00637  57903.55695  3.17596  4.54566  217969.44102  46.79484  17.52198  57927.01602    51.67793       45.16414   12.68176  23.19773   62.0    0.34633  -21.71255   0.9462 
   -2.84733  0.38044  0.98199     14.38745  1.74353  0.76785  17.48882  0.01436     0.19399  5372.25833   9925.85071  4.78111         2072.47006     21.27317  1.04207  57906.42667  3.01094  6.65351   26215.93602  48.10749  17.50862    57924.303    51.78429       45.32942   11.74346  20.08299   44.0    0.31766  -21.85641   0.9743 
   -6.03212  0.22099  1.05275     14.20672  1.82583  1.04548  23.07828  0.01081     0.19483  5761.76492   9831.33616  2.52965         2025.63151     21.24884   0.9853  57903.24188  4.57027  5.10005   72525.83103  47.62516  17.43751  57927.01602    51.55508       45.05743   10.81544  22.27224   65.0    0.29352  -21.55187  0.97543 
   -4.41401  0.26675  1.07988     14.24587  1.91618  0.93308  21.00103  0.01088     0.28841  5778.52155    9902.0129  2.72148          2001.9812     21.29674  1.10018  57904.85999  4.18313  5.60212   66875.47364  47.65927  17.52587    57927.572    51.58875        45.0649   11.78333  24.09616   60.5    0.34687  -21.80274  0.97329 
   -3.78114  0.27865  0.86813     14.68555  1.86881  0.35827  22.12303  0.01008     0.10791  4642.44839   9931.59996  3.27942         2196.20866     21.26573  1.02438  57905.49286  2.84424  6.16463    5564.69598   48.9178  17.46703  57927.01602    51.66612        45.1686   10.38419   24.0167   46.0    0.33492  -21.76846  0.98401 
    -4.5799  0.34654  0.73538     14.49376    2.076  0.72303  18.09567   0.0167     0.14021  5798.18853   9924.66693  3.54795          2010.0328     21.27668  1.05052   57904.6941    3.629  6.27089   10728.70293  48.82251  17.55622  57927.01602    51.63916       45.11861   11.83934   24.0167   58.5    0.29113   -21.6661  0.99258 
   -5.21427  0.28203  0.97835     14.05116  1.41992   0.9267  21.81079  0.01074      0.1296  4891.98243   9992.43303  4.06785         2056.29483     21.31856  1.15688  57904.05973  3.11364  6.15139   99710.12444  47.44138  17.49699  57927.01602    51.62669       45.10168   12.68537  24.09616   63.0    0.30744  -21.80502  0.96163 
   -4.35477   0.2525  0.81155     14.28993   1.9628  1.13251  24.54057  0.01013     0.22245  5697.23561   9753.53582  2.73921         2041.80506     21.27762   1.0528  57904.91923   4.7516  6.19651   31583.27257  48.24363  17.55162  57927.01602    51.56903       45.00901   12.98024  25.96048   60.5    0.31795  -21.70848  0.98768 
   -3.75911  0.32434  0.92729     14.33078  1.70589  0.93677  17.33436  0.01758     0.35448  6751.80683   9553.36594  4.19065         2003.69982     21.22653  0.93597  57905.51489  4.71384  5.62217   29692.52385  48.09372  17.53528  57927.01602    51.60143       45.03612   15.57629  25.00806   51.0    0.32038  -21.73556  0.98126 
    -3.8878  0.30823  0.78002     14.23826  1.68403  0.92062  19.72107  0.01345     0.14635  6098.60671   9881.44223  2.85816         2011.85168     21.28455  1.06973   57905.3862  4.37541  6.07856   31758.37562  48.20913  17.48803  57927.01602    51.72702       45.23463   12.68537  22.51839   54.0    0.32848  -21.85244   0.9848 
   -4.59872  0.29118  0.97221     14.20544  1.85494  1.27704  21.90163  0.01126      0.3739  4782.74092   9993.86972  3.58937         2135.77508     21.30101  1.11106  57904.67528  2.98853  6.37742   63210.53428  47.76087  17.54808    57927.322    51.58273       45.04707   12.12865  24.99639   61.5    0.29163  -21.75061  0.97606 
   -2.96144  0.32638  0.82655     14.24825  1.72815  1.05784  18.59351  0.01337     0.41581  5864.79942    9794.9797  3.33097         2015.60664     21.26016  1.01132  57906.31256    3.815  6.06848   34949.29275  48.12845  17.47967  57927.01602    51.68844       45.20703   11.23022  22.51839   52.0    0.35729  -21.83296   0.9841 
   -2.72666    0.271  1.00853     14.53153  1.56811  0.41371  21.50425  0.01186     0.27434  6470.96885   9670.83528  4.06166         2024.79595     21.26309  1.01816  57906.54734  5.37143  5.82766   12808.92685  48.34933  17.57355    57927.572    51.63553       45.12005    10.9373  24.24762   51.0    0.37563  -21.83744  0.96951 
   -3.49049  0.43426  0.97393     14.23568  1.71044   1.1405  14.64512  0.01693     0.40371  5376.93902   9984.76695  3.70328          2120.4896     21.26321  1.01844  57905.78351  2.52575  6.35983   50888.00949  47.81828  17.52675  57927.01602     51.6358       45.11733   12.68176  23.19773   52.0    0.34419  -21.79058  0.97415 
   -4.36727  0.32431  0.75308     14.51399  1.74627  0.42867  19.12937  0.01273     0.18468  5618.44934   9980.64135  2.16562         2139.45525     21.28994  1.08311  57904.90673  3.60214  6.20388     8622.4464  48.82164   17.5436    57927.572    51.75993       45.32209    9.98557  20.69998   61.0      0.318  -21.72225  0.98621 
   -3.73596  0.30235  1.03131     14.06785  1.45375  1.47475   19.0859  0.01295     0.16165  5989.33781   9830.52007   3.7734         2011.24572     21.24498  0.97659  57905.53804  4.08411  5.77059  105048.04658  47.38317  17.45192    57927.304    51.70685       45.19366   14.43538  22.34614   56.0    0.34522  -21.73927  0.96306 
   -3.88681  0.42664  0.87985     14.40096  1.93625  0.80877  15.33016  0.01977     0.24861  5946.95969   9988.17786  3.62229         2013.75821     21.29703  1.10093  57905.38719  3.23418  6.54051   21962.15208  48.32531  17.55936  57927.01602    51.65204       45.13297   11.23022  25.11444   53.0    0.29286  -21.84472  0.98389 
    -4.1904   0.2694  0.78417     14.11335  1.63907  1.26569  24.36861  0.01035     0.10311  5027.74398   9852.10028  3.63194         2002.95903     21.31379  1.14423   57905.0836  3.67455   6.5649   55530.73862  47.95009  17.46886  57927.01602    51.59829       45.10431   11.23022  21.59029   59.0    0.31328  -21.82222   0.9816 
   -3.28278   0.2508  1.15131     14.47863  2.08095  0.53577  21.64625  0.01022     0.22521  6189.64628   9865.96915  2.71186         2028.12912     21.31833  1.15626  57905.99122  4.94699  5.42889   28261.37923  48.01353  17.54114  57927.01602    51.59882       45.06299   10.81544  24.99639   56.5    0.38905  -21.96018   0.9737 
   -3.35067  0.26679  0.79411     14.13818  1.76935  1.33342  23.91865  0.01051     0.25823  5231.51576   9992.12062  2.87837         2102.87944     21.33009  1.18801  57905.92333  3.90498  6.38136   54831.89277  47.97786  17.51863  57927.01602    51.64906       45.14766   11.78333  22.51839   50.0    0.31596  -21.92134  0.98367 
   -5.71833  0.26182   1.1788      14.1778  1.74177  0.94595  18.48822  0.01385     0.46683  5280.64024   9829.56544  3.42281         2032.73464      21.2687  1.03139  57903.55567  3.07536  4.84067   99103.73212  47.37086  17.50723  57927.01602    51.68727       45.24605    9.70052  20.08299   63.0    0.28896  -21.66457  0.96736 
   -2.10975  0.28889  0.70303     14.41031  1.55263   0.4811  20.94767  0.01046     0.46812  4945.96587   9939.23776  3.94066         2002.60716     21.30913  1.13204  57907.16425  3.05679  6.05157   10770.08845  48.73375  17.51703  57927.01602    51.68118       45.21953   10.86145  20.69998   38.0    0.36527  -21.93992   0.9863 
   -3.30934  0.34804  0.80825     14.60139  1.69802  0.36751  18.49171  0.01385     0.24366   4913.1557   9997.79295   4.2436         2008.12251     21.29056  1.08463  57905.96466  2.66272  6.43582    6457.57079  48.87362  17.51869    57927.572    51.67709       45.13928   13.53334  25.25792   44.0    0.30823  -21.87199  0.98295 
   -5.67351  0.33526  1.04707     14.30345  1.90068  1.08009  17.34922  0.01583     0.26978  5628.37452   9824.48459  3.59063         2019.14694     21.23944  0.96421  57903.60049  3.27848  5.81653   47838.16628  47.82803  17.44787  57927.01602    51.61875       45.10519   11.78333  23.40159   65.0    0.28574  -21.48879  0.97626 
    -3.7072  0.30872  1.14112     14.68852  1.60512  0.26859  19.70758  0.01257     0.14343  5656.15786   9920.95035  4.07918          2006.3594     21.27247  1.04039   57905.5668    3.761  6.08419    8145.84457  48.44875  17.53719    57927.572      51.677       45.14731   12.68176  24.99639   57.5    0.33778  -21.75408  0.95828 
   -3.66479   0.3724  1.18275     14.36105  2.02994  0.91086  15.89463  0.01547     0.38462  5739.61276   9803.91716  3.81438          2028.4575     21.28106  1.06117  57905.60921  3.12351  5.91924   50001.55898  47.73156  17.44267  57927.01602    51.60167       45.11536    10.9373  21.55053   55.0    0.35848  -21.84585  0.97018 
   -2.88101  0.28045  0.87491      14.1575  1.61583  1.11624  21.15265  0.01124     0.31931  4692.68323   9665.83504   4.5765         2040.71562     21.28896  1.08067  57906.39299  2.77865  5.93235   55607.65383  47.84818  17.54756    57927.572    51.73437       45.23768   12.68537  22.51839   40.5    0.36925  -21.88872  0.97819 
   -3.61819  0.23266  0.74868     14.23335  1.55527  0.83861  26.91211  0.01104     0.08917  5554.18018   9890.08857  3.73734         2055.64032     21.28971  1.08253  57905.65581  4.95239  6.26147   27638.80355  48.27055  17.52543  57927.01602    51.61212       45.09557    10.9373   24.0167   55.0    0.26229  -21.82964  0.98404 
   -4.56858  0.31143  0.72023     14.13569   1.6815  1.35114  20.64815  0.01312     0.08138  4875.39742   9742.82766  3.26796         2092.54658     21.30277  1.11556  57904.70542  2.92771  6.43036   43359.02167  48.14252  17.48189  57927.01602    51.72125       45.26844    10.9373  20.71343   64.5    0.28161    -21.698  0.98678 
   -2.31112  0.26309  0.81179     14.72346  2.09464  0.44911  24.63606   0.0102     0.13126  5958.18093   9710.67338  3.71916         2004.54112      21.2694  1.03307  57906.96288  5.21706  6.48157    4580.32919  49.11017  17.47494  57927.01602    51.68642       45.23035   10.38419  21.55053   35.5    0.37093  -21.99597  0.99082 
    -5.7959  0.25558  1.47841     13.84484  1.37435  1.41121  15.39171  0.01154     0.20921  5473.41972   9910.99087  3.88542         2050.21689     21.29297  1.09069   57903.4781  2.75063  3.93379  569918.69895  46.31154  17.51417    57927.572    51.65656       45.16769   11.78333  22.51839   63.0    0.37619  -21.85493  0.93978 
   -7.19424  0.23826   1.5217     14.61895   2.0544  0.33718  19.74786  0.01119      0.1625  5292.78849   9753.21534  2.89713         2121.63152     21.29589  1.09804  57902.07976  3.30002  4.70516   25542.29408  47.80961  17.58528    57927.304    51.63761       45.16359   10.60256  21.95021   68.0    0.29977  -21.68999  0.95801 
   -4.75412   0.3631  1.04894     14.33329  2.03556  1.01304  18.19672  0.01514     0.14838  5675.73204    9998.3939  3.74356         2066.87964     21.29744  1.10197  57904.51988  3.49675  6.60732   44815.35923   47.8846  17.50656  57927.01602    51.71844       45.23324    10.9373  22.43633   59.5    0.29897  -21.76567  0.97528 
   -4.41298  0.37678  0.83032     14.15123  1.71346  1.55816  16.05981  0.01615     0.12383  5482.07203   9914.16616  3.40696         2048.83026     21.27704   1.0514  57904.86102   2.8791  6.05096   54666.49563  47.92651  17.50866  57927.01602    51.64091       45.12659   12.68176  23.19773   57.5     0.3226  -21.76284  0.98271 
   -2.94602  0.24416  0.99182     14.23979  1.68993  1.03295  23.97471  0.01207     0.19251  5376.88932   9730.64988  4.53433         2056.84039      21.2752  1.04694  57906.32798  4.13469  5.85366   51165.00941  47.79487   17.5165  57927.01602    51.75032       45.30005    10.9373  20.76838   52.5    0.32901  -21.78933  0.97404 
   -4.37425  0.43797   0.7144     14.43981  1.98065  1.12308  13.36938  0.02042     0.19615  6289.20805   9703.58198  3.03383         2061.55858     21.18798  0.85646  57904.89975   3.1545  5.85534   12384.85873  48.76488  17.53907  57927.01602    51.58352       45.04123    14.7247  23.19773   58.5    0.32473   -21.4623  0.99516 
   -4.33743  0.33008  0.77408     14.18646  1.72261  1.13348  17.85335  0.01365     0.09818  5279.51567   9856.87562    2.709         2102.62249     21.27109  1.03709  57904.93657  2.96849  5.89307   40612.67424  48.11879  17.44578  57927.01602    51.64131       45.13132   12.98024  23.36443   60.0    0.31486   -21.7177  0.98596 
   -5.59275  0.26957  1.31025     14.20403  1.93519  1.22102  21.35934  0.01205     0.09577  5046.60022   9940.84104   4.2675         2045.84373     21.29979  1.10794  57903.68125  3.24499  5.75779  120554.11931  47.23968  17.51277    57927.572    51.68309       45.14837   11.66703  25.96048   63.5    0.29148  -21.69529  0.95952 
   -2.78376  0.48844  0.76738     14.14741  1.46101  1.12421  13.11424  0.01719     0.42673  6048.06929   9932.39255  3.21241         2044.50519     21.25966  1.01016  57906.49024  2.86157  6.40555   40519.47344  48.05581  17.45737  57927.01602     51.6768       45.16251   12.12865  23.19773   54.5    0.41074  -21.76528  0.98148 
   -2.73584  0.28263  0.72164     14.37107  1.80562  0.92213   21.9469  0.01246     0.12856  5740.35348   9959.91729  3.76047         2113.46878      21.2619  1.01538  57906.53816  4.31397  6.20282   15810.20986   48.6099  17.54913  57927.01602     51.6319       45.09767   14.43538  23.36443   50.5    0.31955  -21.77539  0.99161 
   -4.68352  0.24892  0.82091     14.60195  1.71903  0.40662  27.54011  0.01045     0.22205  5434.35474   9925.39734  3.98243         2041.98846      21.2648  1.02218  57904.59048  4.85164  6.85527    6726.59262  48.84775  17.51547  57927.01602    51.77525       45.27785   12.98024  22.43633   63.5    0.27341  -21.62628  0.98272 
   -6.58669  0.23169  1.29093     14.41381  1.89265  0.59891  22.68794  0.01116     0.22896  5396.28977   9948.66532  3.41532         2029.05718      21.2553  1.00006  57902.68731  3.94106  5.25658   43558.79339  47.68503  17.48557    57927.322      51.613       45.10555   10.81544  23.19773   65.5    0.28456  -21.55719  0.96281 
   -2.89339   0.4039  0.93302     14.39218  1.73675  0.62651  14.43943  0.01556      0.1109  5876.62353   9995.90351  3.27182         2035.47238     21.26566  1.02421  57906.38061  2.97463   5.8321   23065.42823  48.20584  17.53885  57927.01602     51.6896       45.20275   11.83934  21.55053   47.5    0.38377  -21.89608  0.97806 
   -2.94496  0.33034  1.12141      14.0713  1.58265  1.34484  18.10775  0.01176     0.16534  5043.69074   9939.66272  4.85897         2002.34933      21.2868  1.07529  57906.32904  2.74782  5.98177  133085.50969  47.24457  17.51339  57927.01602    51.66373       45.13977    14.7247  22.50316   43.0    0.37493  -21.91567  0.95867 
   -3.36752  0.23317  0.85373     14.32774   1.8808  1.29169  23.20304  0.01322      0.2406  6910.00648   9160.57014  3.57442         2010.82833     21.23713  0.95908  57905.90648   6.6089  5.41017   28139.31031  48.23123  17.52338  57927.01602    51.68986       45.16616    14.7247  23.19773   46.5    0.29848  -21.83964  0.98893 
   -3.09002  0.30773  1.18701     14.81105  2.06494  0.29934  19.63924  0.01192     0.43529  5300.39115   9799.82178  3.81775         2158.29571     21.28077  1.06046  57906.18398   3.2913  6.04352    6449.51273  48.62531   17.4716  57927.01602     51.6856       45.19598   11.78333  22.51839   43.5    0.36375  -21.89858  0.97052 
   -2.57145  0.26358  0.86749     14.34449  1.39639  0.53993  24.58081  0.01014      0.0727  5475.25404   9916.87232  4.70875          2000.5264     21.26617  1.02542  57906.70255  4.39574  6.47904   19969.90345  48.23695  17.51102  57927.01602    51.61432       45.07893   12.68537  24.09616   54.0    0.35265  -21.81025  0.97091 
    -2.9932  0.30134  0.71088     14.36969  1.44428    0.468  20.65321  0.01234     0.47503   4791.3286   9980.93598  4.24538         2003.18136     21.29759  1.10235   57906.2808  2.82831  6.22357   12350.56475  48.63321  17.55201  57927.01602    51.64532       45.08913   14.45968  25.85964   44.5    0.30835  -21.88378  0.98304 
   -3.35797  0.43761  0.93676     14.18623  1.69002  1.30178  14.93575  0.01621     0.21502   5819.6599   9918.81137  3.94211         2018.45702     21.27869  1.05539  57905.91603  3.01751  6.53608   58412.09785  47.78698   17.5166  57927.01602    51.63547       45.13982   11.83934  22.43633   49.0    0.32663  -21.88754  0.97485 
   -5.38265  0.24318  0.79387     14.12256  1.81823  1.39517  22.98166  0.01023     0.20954  5681.52314   9766.71295  2.24278         2056.56178     21.30461  1.12031  57903.89135  4.42525  5.58861   60513.05451  47.94714   17.5355  57927.01602    51.57296       45.03008   12.68176  24.21601   65.5    0.31255  -21.68678  0.98588 
    -4.6127  0.40921  0.74375     14.27807  1.85672  1.39696  16.35513  0.01671     0.13957  6013.51265   9903.96515  2.81037         2043.62967     21.25178    0.992   57904.6613  3.52807  6.69274   26501.55379  48.37146  17.50888  57927.01602    51.76051       45.27059   12.98024  22.43633   63.5    0.29608  -21.54691  0.99012 
   -3.45972  0.32683  0.92101     14.26803  1.71219  0.81783  19.06062  0.01122     0.15279    5037.267   9955.09727  3.42912         2091.08704     21.28732  1.07658  57905.81428  2.88506  6.22963   39250.33009  47.98003  17.47269  57927.01602    51.66754       45.20193    10.9373  21.55053   43.0    0.36887  -21.89797  0.97618 
   -2.75826  0.41625  0.76423     14.33722  1.97216  0.96212  14.94096  0.01758      0.4971   6173.7294   9878.44307  2.91457         2013.79956     21.29578  1.09777  57906.51574  3.39704  6.21924   22634.45041  48.44257  17.54982  57927.01602    51.65032        45.1674    9.07098  23.34378   53.5    0.33489  -21.84498  0.98981 
   -3.91165  0.23452  0.82263     14.17392  1.81006  1.13153  24.29336  0.01013     0.10458  5292.87703   9887.89286  2.96414         2015.64747     21.30987  1.13395  57905.36235  4.05974  5.69734   51059.19513  47.98805   17.6166    57927.572    51.60617       45.02576   15.57629  26.82206   52.0    0.32222  -21.88601  0.98447 
   -2.89691  0.28018  1.03409     14.35857   1.7235  0.75565  23.70968  0.01251     0.14905  5971.51838   9986.72947   4.7496         2002.46327     21.28188  1.06319  57906.37709  5.04339  6.64291   32825.34464  47.95993  17.53201  57927.01602    51.61251       45.06087    14.7247  24.99639   54.5    0.33531  -21.82312  0.96894 
   -3.94157  0.30053  0.81433     14.17211  1.73021  1.26767  20.74443  0.01171     0.12529  5858.67571   9872.64408  2.78056         2032.27517     21.27739  1.05224  57905.33243  4.24744  6.23443   48227.07739  48.00206  17.53141    57927.322    51.66995       45.14301    13.5838  24.21601   56.0    0.35031  -21.83218  0.98327 
   -4.51125  0.28311  0.76371       14.189  1.57264  0.90519  22.73125  0.01119     0.39397  5443.62818   9982.47168  3.37993         2015.70271      21.2913   1.0865  57904.76275  4.01816  6.43539   35669.86474  48.14731     17.48    57927.322    51.68655       45.18049   11.83934  24.24762   60.0    0.31525  -21.75169  0.98225 
