 texplosion  fnickel    Pspin  log(Bfield)      Mns  thetaPB   mejecta    kappa  kappagamma     vejecta  temperature    alpha  cutoff_wavelength  log(nhhost)      A_V         MJD0  kenergy  mnickel             TSD   log(L0)  Peak_mag     Peak_MJD  log(E_rad)  log(Peak_lum)  Rise_Time     E_fold  tau_1  delta_m15     r_peak     frac 
  -11.23761  0.01905  2.22147     14.65046  1.61305  0.10219  23.63698  0.08945      0.0304   4747.2996   3459.91994  2.18652         3441.18786     19.76142  0.03207  54963.08739   3.1777   0.4502     36967.37246   47.2154  20.01644    55068.188    51.41805       44.36111   63.11436   85.39224   97.0    0.05255  -21.68121   0.9868 
  -12.97489  0.40668   2.7194     13.88219  1.95886  1.31876   15.0886  0.15605     0.10421  5624.00299   6850.71199  1.19875         3617.03421     16.18092    1e-05  54961.35011  2.84687  6.13628   2314103.49758  45.32752  19.99781  55069.76222      51.505       44.33838   70.17345  112.60391   98.0    0.05366  -21.70549  0.83138 
  -16.45278  0.00784  2.30919     14.41114  1.60414  0.13067  13.80867  0.16657     0.06612  6125.13451   8190.95684   1.6213         3132.47874     19.68436  0.02686  54957.87222  3.09037  0.10822    119590.42189  46.66947  20.02974  55074.66294    51.39635       44.35365   71.80539   83.22897   95.0    0.05405  -21.78673  0.99642 
  -19.29524  0.00542  2.21602     14.18963  1.70179  0.22738  19.71838  0.08784     0.05857  5398.47384   6252.75803  1.29097         3520.10868     20.48195  0.16853  54955.02976    3.428  0.10689    324041.67059    46.298  20.03287  55062.41114    51.42411       44.35102   62.01375   83.22897  113.5    0.05481  -21.87682  0.99703 
  -13.77812  0.09953   2.4079     13.80266  1.82768  1.21432   18.6337  0.17242     0.01376  6631.87501   8012.56665   1.4286         3194.56367     17.20428    9e-05  54960.54688  4.88876  1.85453   2441606.72671  45.37979  20.01231  55072.21258    51.43776       44.33142   69.70958   93.48449   67.5    0.06156  -21.74703  0.94928 
  -20.72186  0.18084  2.46158     14.33854  1.77574  0.12829   7.31545  0.28906     0.01052  5699.92138   9804.33869  2.42416         3166.09478     19.24225   0.0097  54953.60314  1.41777  1.32291     210156.4613  46.41325  20.03825  55072.21258     51.3762       44.37698   71.80539   73.43733   65.0    0.07975  -21.71053  0.95702 
  -13.77787  0.12456  2.54375     13.60313  1.67809  1.37634  17.33958  0.11345     0.09785   5267.1649   7397.11494   1.8192         3468.42164     18.05729  0.00063  54960.54713  2.86959  2.15977   6270768.37735  44.88539   20.0556    55067.153    51.47064       44.36414   67.74935  100.34054  106.0    0.05162   -21.7244  0.92495 
  -15.30208  0.17446  2.17717     13.64076  1.28168  0.64662  19.03492  0.09401     0.37544  4973.53131   6440.56499  2.45715         3275.44741     19.63534  0.02399  54959.02292  2.80872  3.32083   2950268.76627  45.23098  20.00389    55064.165    51.35004       44.35927   63.64569   73.43733  116.0    0.05261  -21.68322   0.8791 
  -26.99422  0.01706  2.40233     14.01365  1.81869  0.32879  18.97693   0.1073     0.01372  3788.23768   6055.24854  2.61155         3429.38606     19.52457  0.01859  54947.33078  1.62453  0.32378    915238.99867   45.8058  20.00409  55072.21258    51.43917       44.40441   68.01018    83.7603  125.5    0.03665  -21.69951  0.99029 
   -24.7071  0.01015  2.36451     13.77813  1.65801  0.39519   7.13656  0.23257     0.03399  5096.03619   6394.43879  1.96887          3357.9182     17.00253    6e-05   54949.6179  1.10556  0.07243   2391189.00485  45.36234   20.0253  55069.76222    51.54443       44.33009   69.04025  128.42457  114.0     0.0448  -21.73814  0.99744 
  -13.88052  0.00701  1.84807     13.67525   1.5233  1.12862   32.1833  0.11213      0.0114  5207.86317   9582.63965  2.46085         3331.59223     19.40383  0.01408  54960.44448  5.20687  0.22553   2155473.81736  45.58465  20.02457    55069.166    51.40966       44.38341   64.48547   82.38919   80.5    0.04295  -21.73575  0.99501 
   -16.0099  0.02108  2.66431      13.6563  1.78575  1.06379  23.49243  0.05913     0.01357  3897.07097   5483.78246  2.29582         3595.74162     16.14152    1e-05   54958.3151  2.12829  0.49517   5730616.63937   44.9113  20.02097    55069.156    51.36744       44.34685   73.43733   78.33315  119.5    0.05031  -21.61825  0.98158 
  -20.61622  0.19222  2.09057      13.2637  1.59318  0.93088   5.39574  0.25491      0.0166  5736.15842   3185.73481  1.99956         3194.80636     16.28909    1e-05  54953.70878  1.05906  1.03718  19196206.27231  44.54737  20.03565    55069.156    51.43134       44.34448   73.93607   95.78576   90.0    0.06927  -21.71757  0.96779 
  -16.19888  0.01133  2.26206     13.68972  1.59497  0.87714  24.67886  0.09498     0.28561  4955.00025   7343.73685  1.89259         3463.25931     16.38519    1e-05  54958.12612  3.61443  0.27953   3163213.27075  45.26246  20.02535  55067.31186    51.45248        44.3415   65.78683   92.51141  103.0    0.04804  -21.69888   0.9912 
  -16.19729  0.01527  2.58691     14.00182  2.01941  0.53872  10.44298  0.20338     0.01047  4711.25791   3935.16008  2.13613         3420.91662     20.13271  0.07541  54958.12771  1.38269  0.15945   1244397.55869  45.65355  20.03871   55064.8615    51.35063       44.32933   64.10028   81.14244   81.0    0.06014  -21.74594  0.99538 
  -20.02842  0.00153  2.00917     13.12328  1.51836  1.40364  10.44822   0.0887     0.01009  5471.28545   6307.80414  1.70434         3285.28133     17.22425    9e-05  54954.29658  1.86573  0.01601  32260356.89061  44.33552  20.02529    55066.154     51.3186       44.32808   70.17345   73.43733  101.0    0.06208  -21.69816  0.99948 
  -11.60436  0.45692  2.08964     13.76021  1.42106  0.88174   7.84945  0.30966     0.26025  6329.16913   4868.83035  1.41163         3246.61018     19.61376  0.02283  54962.72064  1.87568  3.58654    1738397.5044  45.54116  20.03368   55064.8615    51.44549       44.35027   63.64569    88.1248   87.5    0.06254  -21.73315  0.89823 
    -18.359  0.00159  2.44814     13.65862  1.70125  1.13928  15.93843  0.11253     0.07835  4718.99452   8708.30249    1.525         3588.72458     18.28102  0.00106    54955.966  2.11725  0.02534   4560431.23883  45.06294  20.05482    55066.154    51.39535       44.38587   58.84154   79.87342   95.5    0.05441  -21.64442  0.99914 
   -15.4063  0.30605  2.33391     13.54441  1.58496  0.95606   7.99419  0.28336     0.01152  5723.61013    8011.4499   2.0411         3212.01064     17.41283  0.00014   54958.9187  1.56222  2.44666   6534038.84646  44.91751  20.00099    55066.154    51.48713       44.35788   65.73222  107.25349   70.0    0.07558  -21.72923  0.92064 
  -15.01313  0.24444  2.27472     13.44709  1.41608  0.78728   6.19313  0.19793     0.07144  5234.70025   8967.55739  1.82452         3514.30711     17.53941  0.00019  54959.31187  1.01233  1.51383   8681004.46771  44.76751  20.04487  55072.21258    51.48446         44.363   66.90957  106.07614  117.0    0.05011  -21.71158   0.9409 
  -12.62873  0.10911  1.94992     13.49292  1.25782  1.07952   7.41342  0.26376     0.01058   4710.2933   7135.94121  2.44041         3363.14312     19.71793  0.02902  54961.69627  0.98116  0.80884   4588113.35932  45.12679  19.99959  55067.31186    51.51094       44.44727   62.01375   84.86092   73.5     0.0707  -21.65821   0.9735 
  -12.57964  0.01402  2.38132     13.68602  1.63811  0.91106  17.63324   0.0805     0.02034  4671.87696   8548.20539  1.66621         3667.70631     20.06726  0.06486  54961.74536  2.29584  0.24724   3662240.14769   45.1658  20.01852  55069.76222    51.62263       44.45068   65.27763  114.23585   95.0    0.05971  -21.71961  0.99168 
  -13.84802  0.00165  2.55277     13.77954  1.87086  0.95917   8.71973   0.2901     0.07113  5799.85908   3761.02442  1.86161         3257.65187     18.64687  0.00246  54960.47698  1.74971  0.01436   3124592.76258  45.23207  20.01982    55066.165    51.40905       44.32716    64.7463   90.28806   94.5    0.05459  -21.74463  0.99954 
  -17.53321  0.03261  2.12214     13.58227  1.47939  0.85311  19.38625   0.0914      0.2154    5546.777   5126.04885  0.85143         3444.64215     19.86263  0.04049  54956.79179  3.55797  0.63221   4235441.55097  45.15848  20.02959  55069.76222    51.44199        44.3249   70.00486   98.08503  113.0    0.05549  -21.75307  0.98035 
  -12.57719  0.09258  2.49992     13.78252  1.79869  1.20134  20.45092  0.11302     0.09592  5565.52744   6307.33756  1.57171         3477.09601     17.38964  0.00014  54961.74781  3.77879  1.89329   2841729.30635  45.27437  20.03248  55074.66294    51.48298       44.36072   70.75011   98.97172   94.0    0.05749  -21.70198    0.943 
  -15.25455  0.13118   2.3642     13.55653  1.49332  0.68584   15.1742  0.05981     0.07128  4485.81281   6164.35608  1.16902         4012.90317     17.76276  0.00032  54959.07045  1.82144  1.99054   5974090.48051  44.91936  20.01109   55064.8615    51.49504       44.31089   66.74097  116.03638  162.5    0.04827  -21.64497   0.9248 
  -24.78018  0.26206  1.96907      13.4839  1.55397  0.75818   8.68208  0.27467     0.01214  5820.61219   5251.96175  0.74527         3575.07672      20.2316  0.09469  54949.54482  1.75464  2.27524   6025437.47871  45.09178  20.00788  55072.21258    51.56254       44.36788   67.41877  125.15023   81.0    0.06724  -21.86295  0.94343 
  -16.64612  0.02278  2.30824     13.68564  1.82024  1.07056  16.52857  0.13536     0.45825  5514.42224   8902.77032  1.08931          3495.8765     20.30014  0.11088  54957.67888  2.99821  0.37659   3830225.64027  45.21919  20.04451    55064.165    51.35039       44.36045   62.85353   74.22949   89.5    0.05204  -21.82535   0.9899 
  -15.20037  0.25356  2.08452     14.31962  1.49365  0.16699  10.38962  0.33434     0.01771  6731.50506   9513.47997  1.06872         3294.64067     17.65071  0.00025  54959.12463  2.80835   2.6344    138304.25287  46.66425   20.0173    55063.277    51.38727       44.45421   60.47348   63.55401   60.5    0.06524  -21.81106  0.92758 
  -14.69591  0.36607  2.37383     14.51741  1.46503  0.05312  11.85782  0.06831     0.26802  4656.83618   6703.90363  2.05893         3474.10493     17.79444  0.00035  54959.62909  1.53396  4.34074     70752.41071  46.83405  20.03603    55066.165    51.42169       44.39116    65.3693    83.1373  193.5    0.04515  -21.65198   0.8359 
  -20.39674  0.04935  2.21155      13.6053   1.6165  1.03129   8.63847  0.27042     0.05212  4675.35066   7537.60987  1.71188         3386.82956     19.13409  0.00757  54953.92826   1.1264  0.42633   4520386.52907  45.13285  20.01245  55072.21258    51.36956       44.36402   74.29813   74.20847  106.5    0.04385  -21.69617   0.9874 
  -17.11033  0.05579  2.55003     13.80483  1.84112  0.62754   12.2723  0.19042     0.10044  5986.67457   7416.77779  1.17985         3323.47015     19.16968  0.00821  54957.21467  2.62376  0.68466    2731016.0908  45.28451   20.0183   55064.8615    51.31499        44.3526   66.90957   68.54151  109.5    0.05014   -21.7937  0.97771 
   -20.6374    0.002  2.44338      13.8884   1.7124  0.38013  17.24046   0.0854     0.28064  4375.86509    6717.6276  3.20455          3336.1431     20.23325  0.09505   54953.6876  1.96926  0.03453   1587124.25174  45.52586  20.01929    55068.188    51.42269       44.33369   66.74097   96.45309  142.5    0.04685  -21.76635   0.9988 
  -21.47087  0.02435  1.98044     13.11174  1.67671  1.27093   8.28624  0.11249     0.01022  4624.07052   6069.11844  1.89517         3422.36461     19.34747  0.01237  54952.85413   1.0569   0.2018  36501571.87898  44.33747  20.01171    55067.153    51.43756       44.32615   65.27763   97.91644  115.0    0.05051  -21.70453  0.99427 
  -15.73664  0.00484  2.66642     13.60648  1.78486  0.88634   5.60558  0.26346     0.02452   6242.0548   3904.63777  1.17609         3432.67914     16.89446    4e-05  54958.58836  1.30287  0.02711   7216351.34189  44.81027  20.00464     55059.17     51.4545       44.38001   57.11792   84.86092   77.5    0.07927  -21.70998  0.99893 
  -14.30803  0.47823   2.4011     13.81965   1.7634  0.28962   8.04219  0.14244     0.01099  5817.00615   6858.83827  1.29436         3435.95504     18.89653  0.00438  54960.01697  1.62331  3.84598   2166102.45646   45.4187  20.03992   55064.8615    51.35353       44.37448   64.48547   70.96561   87.0    0.07421    -21.719  0.87861 
  -13.34919  0.01043  2.63984     14.07403  1.79516  0.37915   5.85778  0.31536     0.37798  6086.72873   4857.20223  0.72799         3929.14949     16.35172    1e-05  54960.97581  1.29458   0.0611    826065.13826  45.76278  20.01138  55082.01402    51.65832       44.51933   75.06927  101.18032   97.5    0.06185  -21.71695  0.99778 
  -13.43322  0.22317  2.92771     14.52059  2.03969  0.19087  16.27181   0.1149     0.33873   5695.1332   9956.04841  0.82985         3782.62154     19.18665  0.00854  54960.89178  3.14826   3.6313    147657.32525   46.4761  20.01613    55068.188    51.43652       44.37511   60.38181   86.49286   77.0    0.06088  -21.70319  0.88274 
  -19.67011  0.23528  2.09912     13.53681  1.77487  0.51594   6.40187  0.30425     0.01017  6331.85977   9215.44806  2.14273          2824.9277     17.47331  0.00017  54954.65489  1.53107  1.50623   6129602.54347  45.08651  20.04703  55067.31186    51.36726       44.36049   74.90068   75.23787   66.5    0.08123  -21.70569  0.96099 
  -20.33335  0.10222  2.70099     14.62945  2.08942  0.10593  13.43447  0.12003     0.37461  4546.55962   3387.58371  1.57223         3536.19638     20.31342  0.11433  54953.99165  1.65658  1.37327     77981.55822  46.83383  20.03748    55069.166    51.35875        44.3736   69.35018   70.99672  128.5    0.04792  -21.77633  0.95945 
  -16.39702  0.00295  2.14308     13.43034  1.57075  1.08106  21.40161  0.04887     0.04711  4066.17113   8637.63787  2.19351         3406.60283     20.50734  0.17868  54957.92798  2.11079  0.06324   9232594.42306  44.83755  20.03334    55064.155    51.39093        44.3539   64.48547   85.65307  141.0    0.04922  -21.79365  0.99808 
  -19.37575  0.16332  2.07558     13.30998  1.42124  1.14944  12.26314  0.12062     0.02184  4966.64117   3625.25686  0.88996         3922.05063     18.38168  0.00134  54954.94925  1.80449  2.00277   13639646.6249  44.65243  20.01538   55077.1133    51.43756       44.33335   71.70625   98.01558  118.0    0.04255  -21.76574  0.93596 
  -18.44035  0.02005  2.19827     13.55345  1.51484  0.88733   8.39271  0.27214     0.01375  5514.06119   4053.99481  1.69629         3387.01573      18.0725  0.00066  54955.88465   1.5222  0.16827   5314396.05194  45.03959  20.01245    55066.154    51.47776       44.42596   60.38181   83.22897   77.5    0.06732   -21.7325  0.99445 
  -15.34421  0.01076  2.55476      14.1691  1.72254  0.23617   7.10025  0.24449     0.04229  5113.40384   3997.55621  1.98637         3422.12087        17.65  0.00025  54958.98079  1.10744  0.07638     479172.2986  46.00982  20.03095  55074.66294    51.47773       44.35795   68.54151    96.2845  103.0    0.05212  -21.71214  0.99717 
  -19.17224  0.19352  2.57397     14.10337  1.75789  0.27233  13.99391  0.14236     0.01475  5977.98871   4391.51508  1.36101         3349.65086     19.89024  0.04315  54955.15276  2.98316  2.70804    671843.45563  45.86536  20.01344  55072.21258    51.53874       44.43075   70.67219   94.15382   85.5     0.0583  -21.80503  0.90963 
  -15.53751  0.26953  2.41501     13.77053  1.63685  0.89822  14.76429  0.16794     0.06803  5795.38241   3220.03445  1.30586         3565.01762      16.2311    1e-05  54958.78749  2.95804  3.97947   2550361.88022  45.31042  20.02302  55072.21258    51.43666       44.39893   66.37824    83.7603   97.5    0.05333   -21.7467  0.87924 
  -18.43631  0.06191  2.30099     13.45229  1.50773  0.75953  12.22808  0.09767     0.01405  5970.56402   9043.12778  1.58071         3308.85395     16.61151    2e-05  54955.88869  2.60026  0.75705   9233869.43265  44.75796  20.01467    55066.154    51.37196       44.39919   67.74935   69.33367   82.0    0.06329  -21.72469  0.97108 
   -15.3127  0.39235  3.06758     13.56948  1.86781  0.98053   9.84158  0.08227     0.04743  5098.10722   5212.63255  1.88045          3462.9863     17.69431  0.00027   54959.0123  1.52584  3.86133  11851574.02601  44.49281  20.04619  55072.21258    51.66308       44.37925   68.01485  171.88043  143.0    0.05435  -21.61991  0.83657 
  -16.64751  0.29084  2.32417     14.45843  1.50628    0.115   7.59476  0.27231     0.01656  5898.13069   3597.21276   1.4802         3357.70248     18.53197  0.00189  54957.67749  1.57605  2.20885     91495.06179  46.75282  20.03582    55069.166    51.34069       44.34881   66.74097   71.97398   73.5     0.0764  -21.72856  0.92464 
  -18.04588  0.00335   2.5607     13.64255   1.6351  0.76402   5.25636  0.30528     0.17217  5915.52318   9341.23986  2.24181           3202.165     18.49897  0.00175  54956.27912  1.09723   0.0176   5163900.18164  44.95269    20.043   55064.8615    51.51317       44.39862   62.01375  107.70808   98.0    0.05902  -21.72122  0.99928 
  -15.88585  0.00147  2.37282     13.71516  1.76645  1.33924  18.22399  0.12322     0.06542  4800.19067   3041.57001  1.70149          3532.9085     16.18132    1e-05  54958.43915  2.50488  0.02677   3428742.03976  45.23028  20.00856    55066.165    51.36986       44.33447    66.3829   85.38758   97.5    0.05204  -21.64864  0.99921 
   -19.4564   0.0206  2.16103     13.31625  1.52182  1.36679  28.31902  0.05077     0.01044  5181.78756   7735.50883  1.64947         3439.00127     20.03438  0.06013   54954.8686  4.53591   0.5835  15381344.53875  44.59489  20.02908    55069.166    51.40769       44.34541   65.27763   86.49286  114.5    0.04548  -21.80848  0.98085 
   -15.1321  0.41532  2.56307     13.61152  1.77462  0.76216   7.03877  0.21462     0.01034  5696.69442   7065.41699  0.91543         4197.75846     16.53656    2e-05   54959.1929   1.3626  2.92332   6477369.04982  44.88903  20.00864    55068.197     51.5833       44.34795   65.27763  143.61078   72.5    0.08719  -21.73413  0.90229 
   -9.74033  0.08752   2.1268     14.30902  1.94598  0.39116  21.56209  0.13914     0.07011  5029.35838   6760.06027  1.94113         3484.16803     17.74738  0.00031  54964.58467  3.25344  1.88713    196958.88867  46.60815  20.03355    55068.188    51.52594       44.33298   68.40488   119.2683   92.5    0.04681  -21.66677  0.96324 
  -14.52825  0.12494  2.66947     14.17775  1.66415  0.22183  10.54239  0.11252     0.16456   4884.8662   5836.44786  1.86018         3467.50861     18.28764  0.00108  54959.79675  1.50062  1.31721    485693.67834  45.95083  20.00854  55067.31186    51.33551       44.32946   70.75011   74.49261  131.0    0.05828  -21.64349  0.94641 
  -16.04387  0.12847   2.2298     13.62971  1.68872  0.36917   6.10313  0.13547     0.01735  5954.90699   9611.70429  1.42174         3460.65657     16.67033    3e-05  54958.28113  1.29101   0.7841   4290338.53164  45.16738  20.01703  55072.21258    51.54184       44.36814    72.9668   111.4425   78.5    0.06812  -21.70007   0.9738 
  -12.81596  0.12752  2.35234     13.85893  1.58444  0.59834   8.75781  0.23437     0.46278   5630.3208   9663.24744  1.56625         3428.15474     19.56386  0.02035  54961.50904  1.65611  1.11676   1558954.32297  45.53288  20.03104    55066.157    51.29946       44.33651   65.45093    68.3682   80.0    0.05967  -21.71993  0.96284 
   -15.0234  0.03584   2.7384     14.44815  1.87076  0.11971   8.11014  0.15813     0.02982  5279.22458   4199.73677  1.15506         3682.24981     17.22599    9e-05   54959.3016  1.34833   0.2907    165398.52639  46.44734  20.02426  55069.76222    51.38426       44.35744   69.04025    81.0983  105.0    0.05277  -21.68987  0.98891 
