 log(Bfield)      Mns    Pspin  cutoff_power  cutoff_wavelength  fnickel    kappa  kappagamma   mejecta  log(nhhost)  temperature  texplosion  thetaPB      vejecta      A_V        MJD_0   log(KE)      M_Ni  Peak_mag     Peak_MJD 
    14.06869  1.37509  2.22199       0.21877          3717.8312  0.01656  0.10543     0.18277   5.45456     16.42536   5390.44603    -8.90021   0.8986   9573.19914    1e-05  59101.44744  52.50068   0.95912  19.74727  59144.23047 
    14.18464  1.76353  2.56201        0.1672         2684.62883  0.48324  0.16373     0.15854   3.55884     18.72343   5306.91128    -7.17385   1.3377  10665.63816  0.00294   59103.1738  52.54558    25.012  19.74303  59145.13995 
    13.97519   1.4916  3.24375       4.15139         2729.59472  0.04303  0.09066     0.09623   6.51272     17.37607   7661.62346    -7.17617   1.4099   9293.02261  0.00013  59103.17148  52.49368   2.60321  19.77184  59145.13995 
    14.07713  1.52358  2.55228       1.92863         2741.04297  0.00178  0.06347     0.01281   8.99656     16.21894   7978.74359    -6.23894  1.42895   7901.52888    1e-05  59104.10871   52.3851   0.11597  19.71757  59144.32031 
    14.22424    1.676  0.78185       0.00166          3497.8144  0.10992   0.0592     0.13428  14.22878      20.5815   8710.72794    -7.62329  1.42587  10750.27075  0.21195  59102.72436  52.69459   7.89262  19.70785  59142.43041 
    14.47306   2.0531  3.10278        2.4414         2392.33725  0.00852  0.21579     0.24775   2.42381     20.68547   3627.64836    -7.68484  0.42518  10129.52872  0.26927  59102.66282  52.45148    0.3938  19.71505  59144.23047 
    14.32773  1.32914  1.28982       0.11309         5067.79383   0.0183  0.08301      0.1173   8.11902     17.50225    9730.3785    -5.11868  0.60001   9729.97395  0.00018  59105.22897   52.5559   1.16516  19.75329  59145.13995 
    14.30936   1.7147  2.13323       0.59107         2556.60068  0.23351  0.19097     0.09057   3.54478     17.63724   4717.04438    -6.10229  0.91706   9648.96027  0.00024  59104.24536  52.45809  12.07273  19.75052  59145.13995 
    14.07082  1.78745  3.70402       3.41985         2652.37245  0.00381  0.18379     0.16461   3.28447     17.10813   5135.54055    -7.53496  1.34411  10693.75186    7e-05   59102.8127  52.53802   0.19276  19.72937  59142.43041 
    13.99346  1.63638  3.14797       3.03944         2318.67618  0.14269  0.13501     0.03923   4.61162     19.75137   8424.93855    -9.71123  1.50084   10036.6491  0.03134  59100.63642  52.52315   7.92042  19.71105  59144.31913 
    14.35914  1.80151  2.21327       0.30699         5190.24033   0.0019  0.08279     0.14996   6.87348     17.01791   6398.99308    -8.92712   0.6915   8126.03166    6e-05  59101.42053  52.38269   0.11619  19.69941  59144.32031 
    13.99733  1.39461  2.14261        0.0909         5319.03254  0.03762  0.09098     0.09131    5.7532     17.82172   6547.21848    -8.09265  1.25262   9597.63328  0.00037    59102.255  52.50863   2.20858   19.7524  59142.43041 
    14.33308  1.88067  2.30594       0.00252         5171.70713  0.00278  0.09738      0.0306   5.55681     17.30065   5576.52436   -11.20258  0.71215   8534.81275  0.00011  59099.14508  52.40296   0.16152  19.69228  59145.13995 
    14.27034  2.02096   2.1318       0.02321          4506.9643  0.01604  0.07769     0.37184   7.70581     17.99391   9726.64334    -9.16804  1.44003   8973.26737  0.00055  59101.17961  52.48039   1.00972  19.76498  59144.32031 
    13.80632  1.27954  2.57133       0.45435         2713.55645  0.00427  0.19974     0.11672   1.97861     18.53024   6888.75245    -8.77856  1.31507  10155.77994  0.00188  59101.56909  52.42523   0.18479  19.70181  59144.32031 
    14.04758  1.93211  3.40218       0.35107         2365.05548  0.10203  0.23978     0.06609   1.92067     16.97932   4659.38187   -10.39408  1.48782  10148.94837    5e-05  59099.95357  52.42031   4.37083  19.74114  59142.43041 
    14.69173  1.72464  1.10548       0.07239         3348.34434  0.39749  0.07704     0.03543  12.30424     18.07351   9342.93795    -6.01311  0.51013  11596.88468  0.00066  59104.33454  52.74754  27.70427  19.73557  59141.44614 
    14.18893   1.6175  1.69185       0.05432         3539.11929  0.33046  0.12387     0.11053   6.18681     19.61826   9279.77711    -6.52551  1.42316  10532.75624  0.02307  59103.82215  52.59709   19.7472  19.76882  59144.23047 
    14.18356  1.85432  2.98914       0.04952         2935.38688  0.08138  0.07617      0.0716   8.08228     17.62813    3651.6292    -9.60197  1.09901  10957.09962  0.00024  59100.74569  52.65862   5.17773  19.70629  59144.32031 
    14.35702  1.87459  2.45119       0.64322         2069.96867  0.02099  0.04381     0.03452  13.88889     17.91309   7599.44472    -9.99333  0.69199   8848.83976  0.00045  59100.35433  52.52341   1.49961   19.7448  59142.43041 
    14.28167  1.94258    3.121       0.36144         3163.41863  0.01753  0.18167      0.1571   3.05984     17.25298   6253.08984    -9.04507  0.88493   9920.46218   0.0001  59101.30258  52.46394   0.86902  19.74547  59144.23047 
    14.21062  1.56351  2.03563       1.12457          2024.5807  0.00296  0.17432     0.49195   3.92468     20.77585   9286.10425    -8.24067  0.54979  12694.31423  0.33157  59102.10698  52.70854   0.15726  19.75168  59141.44614 
    14.39184  2.10786  2.90827       0.36437         3415.11353  0.00552  0.07391     0.16557   7.34293     19.65503   9965.12469    -6.95401  0.82508   9525.44564   0.0251  59103.39364  52.52742   0.34324  19.76355  59144.23047 
    13.93006  1.61204  3.08201       0.46429         2518.79881  0.22724  0.10924     0.02131   3.80036     16.70598   4152.38282   -13.31769  1.08447    9267.1172    3e-05  59097.02997  52.43139  11.97747  19.71547  59144.23047 
    14.67561  1.87526   2.1923       0.06926         4051.81214  0.28118  0.16274     0.14014   3.97492     16.58993    3327.6235    -8.10806  0.37275   9657.44026    2e-05  59102.23959  52.47255  15.00327  19.72843  59142.43041 
    14.22327  1.86575  2.53319       0.31805         3017.73619   0.0147  0.19736     0.32516    3.2097     16.70955   7076.45345    -7.34435  1.32411   9695.54553    3e-05  59103.00331  52.45004   0.73875  19.73376  59144.23047 
    14.42226  1.89226   1.9662        0.0469         2780.99606  0.14533  0.14766     0.14646   5.79816     20.47642   4005.52201    -8.28053  0.61802  11725.37609   0.1664  59102.06712  52.68339   8.54786  19.80146  59142.43041 
    14.30266  1.80105  3.11101       0.31756         2126.42401  0.02032  0.24278     0.11412   2.29348     17.87082    7755.1364   -10.49177  0.57504   10570.3594  0.00041  59099.85588  52.48091   0.92255  19.72213  59142.43041 
      14.507  1.83444  2.35877       0.13951         3080.59155  0.00524  0.09327     0.06999   7.45984     16.81692    4023.1912    -8.56158  0.51978  10267.65936    4e-05  59101.78607  52.59419   0.32712   19.7504  59142.43041 
    14.22332  1.63227  1.44861       0.05069         4584.21954  0.48128  0.25882     0.10117    2.9597     18.29671   6949.37471    -6.66667  1.51195  10322.17452   0.0011  59103.68099  52.49419  23.62716  19.72542  59142.43041 
     14.0563  1.48238  2.92965       2.23423         2134.69095  0.03544  0.03244     0.01864  17.75166       18.618   3919.26678    -9.19937  0.87617  10669.60802  0.00231  59101.14828  52.70698   2.65797  19.70718  59142.43041 
    14.18918  1.66306  1.64555       0.14713         4815.08216  0.04656  0.14886     0.16893   4.18827     17.13985   8181.17624    -9.42274  1.17241   8148.72434    8e-05  59100.92491  52.33111   2.51977  19.77023  59142.43041 
    14.43192  1.63687  2.10782       2.17662         2111.67407  0.14557  0.06294     0.05134  13.24758     17.01269   6250.85032    -4.30201  0.66392  10792.72931    6e-05  59106.04564  52.69172  10.30192  19.72048  59141.44614 
    14.16824  1.75863  3.63818       3.00176         2536.74627  0.16362  0.11071     0.32492   4.33444      18.7704   6690.39654    -9.27117  0.79719   8706.27478  0.00327  59101.07648  52.39256   8.93513  19.70407  59144.23047 
     14.5339  1.42947  1.08507       0.04877         2962.23388  0.33408  0.06568     0.05197   11.9764     19.64473   8266.46444    -4.47977  0.51695  12158.35761  0.02452  59105.86789  52.78616  23.15417  19.75963  59144.23047 
    13.93121  1.40019  2.92046       3.19192         2777.49706  0.00111  0.13187     0.04207   4.18491     17.82098    8652.8864    -9.28481  1.46442    8067.3482  0.00037  59101.06284   52.3223   0.05999   19.7418  59142.43041 
    14.39081  1.75016  2.61338       0.60837         2267.60022  0.00628  0.11156     0.03457   5.09287     16.30293   3913.41288    -7.43016  0.53983   9451.56984    1e-05  59102.91749  52.48207   0.35786  19.72797  59142.43041 
    14.13717  1.59095  3.24196       4.96414         2747.73349   0.0249  0.04022     0.03769  15.78439     18.21833   6506.17276     -6.7167  1.12461   8764.27308  0.00092  59103.63096  52.52617   1.82512  19.76145  59142.43041 
    14.03298  1.47679  2.08371       0.09102         3503.72798  0.17565  0.25267     0.15852   2.39368     18.46828    9069.2769    -8.36827  1.55151   9651.86753  0.00163  59101.97939  52.40782   8.08392  19.75399  59144.23047 
    14.39986  1.70472  3.33689       1.30621         2791.61861  0.00292  0.09752     0.06754   4.96802     16.54007   3844.36029     -9.5307  0.40253    9166.8229    2e-05  59100.81695  52.45275   0.16529  19.77028  59144.23047 
     14.1833  1.98536  3.80617       1.02127         2741.56299  0.35976  0.07618     0.01031   6.47563     16.65707   4070.36548   -12.61655   0.7312   9017.61462    3e-05   59097.7311  52.46696  21.73503  19.74937  59144.23047 
    14.15569  1.65718   2.9918        4.8319         2098.40722  0.05083  0.03415     0.04852  21.44777     18.16125   3604.74875     -6.4842  1.07559  10656.74407  0.00081  59103.86345  52.72149    3.9513  19.73837  59144.23177 
    14.07655  1.68623  3.26075       4.19881         2248.27494  0.07573  0.04959     0.29303  13.55783     18.19843   4565.39483    -7.50709  1.55115  10554.59966  0.00088  59102.84057  52.67439   5.38441  19.71243  59142.43041 
    14.14375  1.81655  3.12811       0.39274          3055.9785  0.00596  0.09317     0.03871   5.04962     17.52699     3047.972   -11.29968   0.9098   8684.39744  0.00019  59099.04797   52.4076   0.33871  19.75847  59141.44614 
    14.10859  1.44928  1.82699       0.13216         2307.31541  0.31222  0.11995     0.12788   6.33973     16.52769   8037.53519    -7.21921  1.38704  10652.36842    2e-05  59103.12845  52.60946  18.76736  19.73423  59142.43041 
    14.24042  1.37926   2.7634       1.75832         2792.43614  0.01117  0.10066     0.48223   6.28183     17.75422   4712.20635    -9.04554  0.50477   9619.34548  0.00032  59101.30211   52.5199   0.66999  19.76076  59142.43041 
    14.15678  1.50936  2.50585       0.90187         3060.13254  0.00161  0.06978     0.04972   7.98817      16.9616   4092.87008    -9.41653  0.77672    7965.6598    5e-05  59100.93112  52.38051   0.10198  19.74058  59142.43041 
     14.2137  1.67334  1.24839       0.14522         3131.33923  0.04182  0.08233      0.1271  10.05648     20.59662   7468.95084   -10.29064  0.97632  10280.25993  0.21946  59100.05701  52.62429   2.79294  19.75799  59142.43041 
    14.40824  1.84148   2.4268       0.05813         5073.56807  0.00898  0.16373      0.1083   2.93214     16.88438   6233.36237    -9.05493   0.5853   8840.58654    4e-05  59101.29273  52.35841   0.43954  19.77041  59142.43041 
     14.6175  1.53992  1.91708       0.54353         3122.32695  0.36986  0.05514     0.04324  12.78325     16.18284   6866.05473    -5.44771  0.44328  10661.26498    1e-05  59104.89994   52.6779  25.98314  19.74285  59145.13995 
    14.19075  1.82317   3.0789       0.00646         4035.89045   0.0022  0.16776     0.11389   2.96157     16.12215   8904.94954    -9.50242  0.83786  10532.25952    1e-05  59100.84524  52.51177   0.10813   19.7493  59142.43041 
    14.31865  1.71505  2.18675       0.69731          2489.8361    0.085  0.12093      0.0891   6.19731      17.8668   3815.64308    -7.44475   0.8051   9623.04217  0.00041  59102.90291  52.51881    5.0816  19.71492  59142.43041 
    14.32341  1.67914  3.07544       1.95701         2478.22271   0.0146  0.05729     0.03641  11.56592     16.87972   7726.27419     -7.8206  0.57963  10149.65662    4e-05  59102.52706  52.62614   1.00468  19.74056  59144.23047 
    13.87081  1.41378    2.973       2.38839         2612.23067  0.40136  0.13656     0.01288   3.72357      16.3363    6582.6633   -10.42984  1.42949   8346.70964    1e-05  59099.91782   52.3381  21.03626   19.7302  59144.32031 
    14.58348   1.6711  2.88445       0.78399         2859.22582  0.01218  0.09353     0.02704   5.63904     16.81056   5659.45683    -7.19686  0.31257   9283.31236    4e-05  59103.15079  52.47756    0.7117  19.75747  59144.32031 
    14.06787  1.31317  2.66613        3.4013         2183.52669  0.07519  0.05814     0.10799  10.18645     18.72683   3412.53806    -7.16465   0.7638  10367.92894  0.00296    59103.183  52.63287   5.03493  19.74273  59142.43041 
    14.16526  1.66776  2.53049       2.25425         2607.61622  0.00199   0.1644     0.37593   4.82687      17.4354   8147.67207    -5.51786   1.4719   9551.24376  0.00015  59104.82979  52.48522   0.11203  19.74406  59144.23177 
    14.24947  2.04296  2.72602       0.03681         5602.76075  0.09041  0.09223     0.09317   5.50962     16.90082   6760.30611    -7.11307  1.39087   9910.36415    4e-05  59103.23458  52.53183   5.25124  19.72924  59142.43041 
    14.07329  1.84394  3.01871       0.06874         5731.61432  0.01908   0.1766     0.08443   2.81943     17.19201   7081.41353    -8.78366  1.53485  10157.51809    9e-05  59101.56399  52.47396   0.92323   19.7115  59145.13995 
    14.23691  1.62666  3.18138       0.93224         3254.32872  0.01625  0.05313     0.26196   9.60625     17.82236   4894.38632    -8.98913  0.62653   9648.83953  0.00037  59101.35853   52.5649   1.07425  19.70177  59144.23177 
    14.39528   1.6879  2.57152        0.2647         2651.03232  0.00807  0.22341     0.10883    3.0437     16.54989   9982.50569    -7.87135   0.5379  10606.97825    2e-05   59102.4763  52.52139   0.39966  19.76634  59144.32031 
    14.18188  1.58534  2.70002       1.08586         2938.43441  0.02757  0.11858     0.04461   4.90991     18.45882   4824.45908     -7.0661  0.87139   9107.79985   0.0016  59103.28156  52.44583   1.55538  19.74287  59142.43041 
     14.3345  1.70363  1.22493       0.00847         4407.48285  0.40439  0.14297     0.11467   6.76606     18.23488   8007.67811    -5.50179  1.31229  11953.33817  0.00095  59104.84587  52.71629  24.68789  19.74794  59142.43041 
     14.3926  1.81366   0.9833       0.12646           4278.354  0.21871  0.09905     0.37682   9.47272     16.75719   6990.92122    -5.63444  1.21302  10089.97121    3e-05  59104.71321   52.6024   14.4166  19.74798  59145.13995 
    14.14602  1.86749  2.76669       0.31057         3149.84603  0.00948  0.04531     0.03984  11.37543     16.02274   4190.84919   -10.12908  1.30988   8464.46596    1e-05  59100.21858  52.46692   0.65033  19.76323  59144.23047 
    14.27791  1.59336  1.78936       0.39788         3452.94526  0.00397  0.05086     0.18358    9.6876     17.68087   9516.28215    -7.47655  0.79984    7449.5771  0.00027  59102.87111  52.34102   0.26292  19.76036  59144.32031 
    14.13403  1.42617  2.09298       0.28349          3308.2893  0.01319  0.12546     0.26747   6.07508     16.27365   3148.12422    -7.80917  0.88817  10322.87686    1e-05  59102.53849  52.57769    0.7846  19.75739  59141.44614 
    14.22816  1.55239  2.60129       0.52402         2236.05768  0.00111  0.22789     0.28556   2.02571     19.16413   6213.04646    -8.20359  0.60717    9888.3869  0.00811  59102.14407  52.40545   0.04833  19.78038  59144.23047 
    14.20904  1.60239  2.73436       0.00085         3157.63218  0.13545  0.17666     0.20102   2.91566      16.7704   7202.62425    -9.86478  0.67577   10332.4232    3e-05  59100.48287  52.49312   6.62043  19.75293  59141.44614 
    14.30402  1.93148  2.52327       0.52101         2671.75484  0.14488  0.20522     0.16357   3.52091     19.91951   3028.28956    -5.87096  1.02765  10821.46051  0.04616  59104.47669  52.55688   7.47618  19.74007  59144.23047 
    13.94238   1.4747  2.38168       0.24761         4595.38271  0.00294  0.13135     0.03663    3.4527     19.69717   5543.61336    -9.82919  1.23369   8247.72614  0.02766  59100.51847  52.31859   0.15093  19.72939  59145.13995 
    14.03822   1.4727  1.93087       0.04782          3422.3494  0.01001  0.20557     0.43618   3.43073      18.9166   8361.09193    -9.04911  1.48259  10036.85797  0.00458  59101.29854  52.48833   0.51292  19.74792  59142.43041 
    14.05171  1.74667  3.75501       1.99477         2896.59173  0.00863  0.12541     0.02811   2.95789     17.03397   5466.21622   -11.12664  0.84364   8675.50185    6e-05  59099.22101  52.34315   0.42376  19.69625  59142.43041 
    14.54212  1.70676  1.10112       0.10705         3218.72483  0.18949  0.03519     0.05682  22.08886     16.28862   4581.29479    -7.26451  0.67204   9982.00347    1e-05  59103.08315  52.66705  14.81045  19.76713  59142.43041 
    13.91948  1.44006  2.87187       4.18852         2063.55191  0.00593  0.18497     0.19519   3.34342     19.54254   5864.90555    -8.29002  1.54756   10850.7725  0.01938  59102.05764  52.55289   0.30152  19.73412  59142.43041 
    14.05782  1.65957  2.80236       0.24596         2569.86363  0.02904  0.11604     0.12963   4.08431     16.81842   3147.66656    -9.30692  1.19462   9688.34309    4e-05  59101.04073  52.47851   1.56084  19.75535  59145.13995 
    14.25808  1.74177  2.17526        0.6434         2981.97945  0.01996  0.14018      0.4115   5.20339     16.49193    6134.6228    -7.64555  1.00639   8889.07753    2e-05   59102.7021  52.43113   1.14263  19.74558  59142.43041 
    13.97403  1.50499  3.43642       4.86631         2551.69001  0.03572  0.23818     0.08166   1.94542     18.50226    5621.0077    -8.37384  0.99262   9213.74618  0.00177  59101.97382  52.33821   1.53684  19.68922  59142.43041 
    14.08069  1.59709   2.3797       0.03756         2773.71821  0.31987  0.11054     0.03198   4.82029     16.58887   4001.74462    -8.68186  1.36812   9916.38387    2e-05   59101.6658  52.51766  17.95946  19.72655  59142.43041 
     14.0035  1.63975  3.52224       4.04959         2460.91696  0.03901  0.03262     0.01251  13.72282     18.81425   4764.81093    -8.07666  1.37858   8777.13838  0.00362    59102.271  52.51528   2.78079  19.77004  59142.43041 
    13.95632  1.46212   2.5016       0.08859         4004.14276  0.00803  0.06459     0.17342   7.41747     16.72222   5259.66982    -8.67886  1.54831    9773.7382    3e-05   59101.6688  52.55079   0.50087  19.74563  59145.13995 
    13.94914   1.8016  2.57943        0.1903         4093.92389  0.06364  0.13274     0.01129   3.97993      20.3132   6245.57063   -12.94345  1.52695    8685.9269  0.11427   59097.4042   52.3806   3.39705  19.76241  59144.23047 
    14.23423  1.83657  3.38406       3.54022         2681.64274  0.06105  0.05421     0.04832  13.82582      17.2954    5006.5594    -6.84453   1.0387   9619.90449  0.00011  59103.50312  52.59558   4.35833  19.70861  59145.13995 
    14.08007  1.74269  1.72753       0.03959         4724.01774  0.01705  0.05612     0.09946  13.27353     20.65041   6028.32472   -11.52149   1.2712  10462.60361  0.24839  59098.82617  52.66491   1.20693  19.73172  59144.23047 
    13.93464   1.7255  2.99576       0.17083         3981.12205  0.00364  0.18645     0.03752   1.51387     17.72237   7300.36636   -12.37638  1.14605   7909.78102  0.00029  59097.97128  52.16742   0.14337  19.74248  59144.23047 
