 texplosion  fnickel    Pspin  log(Bfield)      Mns  thetaPB   mejecta    kappa  kappagamma      vejecta  temperature    alpha  cutoff_wavelength  log(nhhost)      A_V         MJD0  kenergy  mnickel             TSD   log(L0)  Peak_mag     Peak_MJD  log(E_rad)  log(Peak_lum)  Rise_Time    E_fold  tau_1  delta_m15     r_peak     frac 
  -31.49361  0.08418  3.49669      13.8529  1.94602  1.14613   5.44502  0.08003     0.05684   8422.74065   8137.26329  0.48913         4222.90568     18.27777  0.00105  56855.90639  2.30427  0.45834   4349851.15311   44.8322  22.24339  56932.94164    51.30255       44.52365   30.02537  48.25506   69.0    0.14284  -21.63311  0.97477 
  -29.48293  0.26462  3.06227     13.62548  1.67134  1.26609   2.71864  0.12627     0.20386   9849.58616   3817.12975  0.32648         5293.35942     16.65777    3e-05  56857.91707  1.57331   0.7194    8165884.7759  44.60782  22.27102  56932.94164    51.30505       44.51685   32.17004  49.80187   82.0    0.11815  -21.75509  0.96142 
  -32.22886  0.03679  3.21678     13.72017  1.76473  1.13921   8.85456   0.0419     0.02014   8171.46079   7689.85633  0.56026         3895.52256     18.05097  0.00062  56855.17114   3.5269   0.3258   6151732.48311  44.71168  22.27034  56932.94164    51.32928       44.50941   31.83789  49.05734   67.0    0.12061  -21.59897  0.98203 
  -35.06634  0.03886  2.74107     13.61006  1.52612  1.46983  10.71192  0.03493     0.01481   7424.56622   8495.39593  0.59168         4573.98155     19.85035  0.03936  56852.33366  3.52238  0.41626    6413965.4408  44.76947  22.26764  56932.94164    51.34618       44.52496    31.0977  48.72954   65.5    0.12827  -21.67749  0.97954 
  -32.48002  0.14575  3.07177      14.0494  1.59084  0.53083  12.98839  0.03717     0.12143    7897.8298   8132.49499  0.56604         4327.79209     19.27224   0.0104  56854.91998  4.83279  1.89307   1110232.04546  45.45028   22.2607  56930.47312    51.27806       44.50867   28.95303  49.32739   76.5    0.14972  -21.62435  0.90057 
  -34.00558  0.01769  2.96581      14.0022  1.75007  0.51211   7.72257  0.06328     0.14942    9179.7469   6369.14236  0.30975         5652.46866     20.05163  0.06257  56853.39442  3.88195  0.13662    1415032.4688  45.41685  22.25415  56932.94164    51.34707       44.51247   33.24237  51.47206   89.5    0.13741  -21.82284  0.99352 
  -37.93383  0.24072  3.11044     13.92888  1.74418  0.63866   2.13696  0.27984     0.19225   9263.59867   4078.87471   0.2694         5490.94893     18.09406  0.00069  56849.46617  1.09391  0.51441   2174196.06224  45.18749  22.25892  56930.47312    51.40381       44.53902    31.0977  55.82272   72.5    0.13589  -21.75705  0.97351 
  -32.50787  0.02059  2.94089     13.63747  1.60036  1.31275   5.92721  0.07027     0.30517   8911.79722   3894.51422  0.39008         5040.82175     17.53553  0.00019  56854.89213  2.80807  0.12207   6824273.60204  44.70205  22.25191  56930.47312    51.32177       44.53966   30.02537  50.39972   90.0    0.12957  -21.71619  0.99343 
  -32.32137  0.11239  3.35826     13.78347  1.83686  1.34252   8.76068   0.0558     0.04255   8830.15098   6464.40849  0.39933         4633.01701     17.76482  0.00032  56855.07863  4.07475  0.98464    5214057.3156  44.76352  22.25747  56930.47312    51.36065       44.51372    31.0977  57.90607   76.5    0.14732  -21.68551  0.94699 
  -31.12083  0.16401  3.03886     13.69825  1.60338  1.45687   9.43129  0.05057     0.38766   8527.89866   6337.45811  0.50623         5547.28751     16.76168    3e-05  56856.27917   4.0915  1.54686   5517835.36765  44.76669   22.2416  56932.94164    51.36415       44.52734   31.83789  51.80421   87.0    0.14811   -21.7826  0.91904 
  -33.73707  0.11638  2.95453     13.89665  1.68591  0.46121   7.30194  0.04694     0.01535   8846.13803   9068.73895  0.43485         4067.49043     16.16881    1e-05  56853.66293  3.40858  0.84977   2199474.48769  45.21238  22.25903  56932.94164    51.32792       44.50125   32.17004  47.18272   52.5    0.13405  -21.65907  0.95762 
  -33.63189   0.0058  2.94341     13.94277  1.57675  0.51633   7.23611  0.05673     0.05208   8233.37916    4638.4372  0.47972         4101.28014     17.46628  0.00016  56853.76811  2.92609  0.04195   1650992.68161  45.31116  22.25508  56932.94164    51.32548       44.51466   30.76555  49.06169   81.0    0.13082  -21.60798  0.99769 
  -36.11042  0.28783  3.66553     14.07075  1.96629  0.79483  13.02791  0.05289     0.04818   8542.94687   7499.85338  0.38903         4604.51141     17.34431  0.00012  56851.28958  5.67176  3.74979   1771039.45581  45.18599  22.26043  56928.00461    51.29922       44.50919   30.02537  52.54439   76.0    0.14122  -21.67523  0.81577 
  -33.86978  0.05731  2.95244     13.69577  1.63846  1.19028   5.85049  0.07103     0.03564   7795.95411   3394.56285   0.5751         5909.40834     18.73849  0.00304  56853.53022  2.12109  0.33528   5383608.22464  44.81185  22.24379  56930.47312     51.2995       44.52917   30.02537  49.32739   71.5    0.14372  -21.79771  0.98276 
  -33.41853   0.0187  3.01156     13.72741  1.62843  1.17797   6.49167  0.07777     0.19845   8669.79032   5780.63176  0.40421         4332.72743     18.34063  0.00122  56853.98147  2.91072   0.1214   4812121.89133   44.8407  22.26362  56932.94164    51.31807       44.53074   31.83789  49.05734   85.0    0.14258   -21.6548  0.99341 
  -34.05405  0.04793  3.18168     13.83181  1.74315  0.76359   8.55357  0.03965     0.01083   7325.12686   8575.50184  0.73534         3798.93655     17.34465  0.00012  56853.34595  2.73782  0.40995   3555032.86406  44.95402    22.264  56932.94164    51.36061        44.5224   31.83789  50.73187   57.0    0.13603  -21.54609  0.97757 
  -30.03383  0.13747  3.09293     13.79703  1.61789   0.7617   7.43545  0.04811      0.0257   8875.35853   6799.82646  0.48188          3817.4881     17.10251    7e-05  56857.36617  3.49387  1.02216   3659724.03123  44.93361  22.24405  56932.94164    51.34502       44.52506    31.0977  51.47206   66.0    0.13011  -21.61717  0.94301 
  -31.88246   0.0327  3.40415     13.89854   1.8786  0.94851   7.46027  0.05868     0.04243   8174.68629   8227.73267  0.56191         3868.08492     16.40159    1e-05  56855.51754  2.97388  0.24393   3225369.02116  44.97008  22.25908  56932.94164    51.32071       44.53499   30.76555  49.06169   68.0    0.15009  -21.59395  0.98647 
  -31.81928  0.01385  3.09617     13.79579  1.81221  0.78273     5.663  0.06473     0.03966   9764.13119   4726.42999  0.28331         4854.52016     19.83472  0.03797  56855.58072  3.22063  0.07843   4131342.25342  44.92931  22.24989  56930.47312    51.33636       44.52893   28.95303  49.32739   66.0    0.12156  -21.76579  0.99606 
  -32.62876  0.00238  3.47184     13.79498  1.99441  1.41857   3.00048  0.15577     0.12621    9241.1915   4667.97775  0.34607         4081.62544     19.38823  0.01358  56854.77124  1.52853  0.00713   5738440.49343  44.72875  22.26149  56932.94164    51.31818       44.52095    31.0977  49.32739   74.0    0.14068  -21.67774  0.99961 
  -37.47544  0.00462  3.04402     13.63481  1.70587  1.50781   5.31789  0.08712     0.04774   9016.52609   7307.76162  0.29082          3872.9997      18.5534  0.00199  56849.92456  2.57896  0.02458   7889243.52121  44.63686  22.26914  56930.47312    51.37174       44.50364   32.17004  52.80361   68.5    0.12308   -21.6504   0.9987 
  -36.11541  0.00313  2.57089     13.64435  1.35108  0.89507   4.23715  0.11932     0.25473   8839.46569   6214.33794  0.34478         4446.10146     17.99923  0.00055  56851.28459  1.97494  0.01328   4265363.58355  44.94941  22.27419  56930.47312    51.29404       44.51882   30.76555  49.65954   90.0    0.13519  -21.67965   0.9993 
  -31.47703   0.0124  2.61393     13.48932  1.44426  1.15694   5.48083  0.06599     0.03971   9902.05004   5983.56328  0.31721         4715.47173     17.05649    6e-05  56855.92297  3.20571  0.06799   9625129.38334   44.6105  22.27204  56932.94164    51.29276       44.51086    31.0977  46.11039   66.0    0.11361  -21.75901  0.99653 
   -33.8382  0.00104  3.34538     13.78055   1.8692  1.33265   4.20781  0.09804      0.1701   8193.36482   6131.45582   0.4876         4039.69459     16.69841    3e-05   56853.5618  1.68503  0.00437   5336638.21757  44.76434  22.26297  56932.94164    51.31215       44.51631   31.83789  50.73187   90.5    0.14169  -21.59998  0.99976 
  -33.73403  0.00739  2.97616     13.72973  1.62392  1.05572   6.76431  0.07259     0.11873   9044.48537   5529.76982  0.33407         4316.36355     17.20514    9e-05  56853.66597  3.30079  0.04998    4636900.2078  44.86587  22.26199  56932.94164    51.35068        44.5208   32.91022  51.80421   85.0    0.14426  -21.67429  0.99732 
   -37.9659  0.14974  2.62115     13.62446  1.48395  0.76484   2.80162  0.17222     0.06102  10088.60252   8320.84033  0.03224         5080.86074     18.30413  0.00112   56849.4341  1.70098  0.41952   5337131.33554  44.87597  22.24729  56932.94164    51.35619       44.52646   31.83789  47.51487   52.5    0.14209  -21.71785   0.9797 
  -33.79997  0.14898  3.25829     13.74562  1.80166  1.39912    4.5956  0.10334      0.2814   8571.99967   5512.17989  0.49007         5181.65334     16.43277    2e-05  56853.60003  2.01434  0.68466   5731045.79662  44.74031  22.26736  56930.47312    51.32046       44.50851    31.0977  49.80187   86.5    0.13983   -21.7501  0.96356 
  -33.16038  0.02702  2.99619      13.8137  1.64362   0.8665   6.52642    0.069     0.21542   8357.02185   8265.21781   0.4844         5096.03586     16.31873    1e-05  56854.23962  2.71897  0.17635   3231135.27157  45.02215  22.26085  56930.47312    51.29664       44.53934   28.95303  48.25506   77.0     0.1469  -21.72385  0.99068 
  -34.33535  0.00159  3.45968     13.79141  1.96241  1.54729   2.77499  0.14631     0.23295   7945.66156   4155.96324  0.58511         4345.22292      17.9719  0.00052  56853.06465  1.04508   0.0044   5699770.30508  44.72771  22.29313  56932.94164    51.33749       44.49605   35.38704  49.32739   87.5    0.13683  -21.63839  0.99976 
  -35.78573  0.13361  3.39719     14.00036  1.88907  0.65067   3.81685  0.10805     0.07029   7523.97295   8048.02198  0.59205         4124.99414     17.58702  0.00021  56851.61427  1.28892  0.50998    2021094.1439  45.17727  22.27468  56930.47312    51.31245       44.50927   32.91022  52.87654   73.5    0.13057  -21.57956  0.97232 
  -36.07358   0.0028  2.67701     13.56884  1.43102  1.24172   3.70029  0.11828     0.08306   8739.87798   6762.11246  0.36503         4246.05079     19.20337  0.00887  56851.32642  1.68606  0.01036   6935516.98135  44.72811  22.26129  56930.47312    51.35438       44.51365   30.02537  52.80361   75.5    0.12339  -21.65997  0.99945 
  -33.37996  0.01608   3.2117     13.76708  1.81328  1.43158   2.62251  0.17456     0.26098   8008.97133   3024.18856  0.56567         4174.13266     19.65612  0.02517  56854.02004  1.00346  0.04217   5076784.77643  44.80825   22.2749  56932.94164    51.29395       44.50347    31.0977  48.72954   84.5    0.14259  -21.64834  0.99778 
  -33.43949  0.01788  3.68436     13.95324  2.09661  0.92206   4.29307  0.08524      0.0669   7516.87602   8501.91522  0.63427         4148.02485     16.85001    4e-05  56853.96051    1.447  0.07678   3277726.54852  44.94207  22.25263  56932.94164    51.35764       44.51015    31.0977  52.54439   73.5    0.13739  -21.57126  0.99571 
  -31.52371  0.00329  2.98249     13.69698  1.81722  0.78662   5.81239  0.04472     0.02136   8914.19024   3404.49398  0.40831         4790.58896     19.57423  0.02084  56855.87629  2.75515  0.01913   6059157.11408  44.79668  22.24748  56930.47312    51.40258       44.55203   32.17004  49.80187   62.5    0.10954  -21.71619  0.99908 
  -37.29421  0.00216  3.44441     13.96444  1.99509  0.79714   5.46498  0.10128     0.09189   8308.03639   3020.10259  0.45715          4787.3013     17.83753  0.00038  56850.10579  2.25015   0.0118   2588993.71942  45.08145  22.27153  56932.94164    51.30578       44.51257   30.02537  50.39972   78.0    0.14357  -21.69627  0.99938 
  -30.79754  0.36819  2.77639     13.61925  1.39143  1.08201   3.33441  0.11349     0.21895   8824.04463   5201.24975  0.45849          4874.4755       16.153    1e-05  56856.60246  1.54875   1.2277   5750824.86888  44.76561  22.25556  56930.47312    51.29465       44.53581   28.95303  47.18272   88.5    0.13522  -21.69093  0.93207 
  -37.74508  0.00987  2.69586     13.65074  1.48156  0.87755     3.917  0.13022     0.09142   9514.60519   6780.68992  0.20015         5449.08617     18.85579  0.00399  56849.65492  2.11525  0.03868   4994012.54814  44.87972  22.23549  56932.94164    51.33763       44.55274   30.02537  49.32739   73.0    0.12681  -21.74576  0.99802 
  -32.00806   0.0921  3.26707     13.85429  1.78056  0.99027   7.21267  0.06074     0.04807   8105.71479   8025.57089  0.58237          4324.6147     16.46132    2e-05  56855.39194  2.82687  0.66428   3452272.09962  44.95298  22.27093  56932.94164    51.33563       44.51448   31.83789  51.80421   72.5    0.15014   -21.6498  0.96408 
  -34.19813  0.01567  3.08279     13.88529  1.68849  0.64259   8.78379  0.04816     0.04856   8664.70355   5063.13465  0.41863         4105.55268     17.89576  0.00044  56853.20187  3.93384  0.13767   2527043.02592  45.11584    22.255  56932.94164    51.34165       44.50911   32.17004  49.32739   82.5    0.13128  -21.63953   0.9925 
   -37.2073  0.02319  3.10171      13.7693  1.70854  1.21907  10.79018  0.05036     0.04178   8149.62974   6180.69303  0.42348         3822.98905      17.3343  0.00012   56850.1927  4.27496  0.25019    4416213.4971  44.87322  22.24492  56930.47312    51.37152       44.53484   30.02537  50.39972   79.0    0.14427   -21.5892  0.98672 
   -34.9134  0.21416  3.58954     13.87125  1.97421  1.42283   7.92094  0.06388     0.08316   8158.57233   8348.01022  0.52629         4737.08405     17.70054  0.00028   56852.4866  3.14508  1.69634   4273605.10252  44.82337  22.25767  56932.94164    51.31711       44.51852   31.83789  52.06342   74.0    0.14914  -21.68183  0.91065 
  -30.89517  0.02458  3.74065     14.26444  2.09475  0.44625   2.71828  0.16622     0.21622   8004.80323   5888.26744  0.60119         3825.17899     16.19108    1e-05  56856.50483  1.03902   0.0668     805311.4061  45.53812  22.25362  56930.47312    51.36091       44.52311   28.95303  49.32739   81.5    0.15715  -21.56125  0.99617 
  -33.96548   0.0177   2.9103     13.82888  1.54611  0.72967   7.98504  0.05265     0.20188   7763.71947   4144.40704  0.59831         3806.35698     18.83318  0.00378  56853.43452  2.87107  0.14136   2674064.34464  45.10304  22.25864  56935.41015    51.31593       44.51545   32.17004   47.6572   92.0    0.13475  -21.57066  0.99225 
  -36.03211  0.16109   3.4442     13.85812  1.92421  1.02534   7.47706  0.06849     0.22739   8823.62087    7952.7912  0.33721         4123.34444     18.80643  0.00356  56851.36789  3.47257  1.20448   4073779.87546  44.86892  22.25149  56932.94164    51.32291       44.52974    31.0977  48.72954   83.5     0.1383  -21.65693  0.93696 
  -35.04373  0.01528  3.35784      13.9229  1.96576    0.751   5.41916  0.08629     0.07259   9020.63445     7750.578  0.33242         5880.03573     19.34352  0.01225  56852.35627  2.63047   0.0828   2935379.70248  45.04259  22.28054  56935.41015    51.31986       44.50678   33.24237  49.32739   74.0     0.1387  -21.77616  0.99573 
   -35.7786  0.00299  2.82979     13.66037  1.58267  1.23238   5.34777  0.09129     0.07259   8448.39348   5088.91197  0.41525          5769.7807     19.59401  0.02181   56851.6214  2.27692  0.01601   5623136.55293  44.81475   22.2778  56930.47312    51.37796       44.52217    31.0977  53.61673   77.0    0.13821  -21.78115  0.99919 
  -35.59816  0.01936  3.26744     13.72107  1.86378  1.38608   5.66507  0.08224      0.0788   9108.54626   5889.87778    0.286         4829.39256     17.95847   0.0005  56851.80184   2.8037  0.10968   6675508.89514  44.68634  22.25659  56932.94164     51.3668       44.51793   33.98256  52.87654   80.5    0.12827  -21.69834  0.99419 
  -34.02417   0.0144  2.96235     13.84341  1.64105  0.71065    7.0833  0.06618     0.16426   8948.64447   5444.09289  0.39722         5118.41341     18.98516  0.00537  56853.37583  3.38359  0.10199   2750353.22478   45.1013  22.24954  56932.94164    51.34261       44.59336   30.02537  43.96572   88.0    0.13933  -21.75192  0.99466 
  -35.60484  0.00141  2.78066     13.70195  1.70169  0.66366   3.14481  0.10011     0.03176   8396.97105   8641.95136  0.43711         5913.80185     16.16228    1e-05  56851.79516  1.32272  0.00442   4820435.42401  44.92834  22.26297  56932.94164    51.35992       44.51158   30.76555  50.73187   55.5     0.1288  -21.77847   0.9998 
  -34.34327  0.02676  2.51976     13.47401  1.41039  1.05777   5.61665  0.06085     0.02004    8818.2014    8054.6174  0.36865         4205.97671     18.60495  0.00224  56853.05673  2.60534  0.15031   9372327.47021  44.64362  22.24816  56932.94164    51.32302       44.50733   33.24237  50.39972   56.0    0.12989  -21.65917   0.9926 
  -30.85929  0.02282  2.84284     13.58728  1.51891  1.43185   6.61782  0.05461     0.10362   8920.01606   5167.39113  0.42741         4890.90721     17.05012    6e-05  56856.54071  3.14104  0.15102   7625778.66103  44.66059  22.28565  56930.47312    51.37233        44.5124   30.76555  53.94888   87.5    0.13091  -21.70504  0.99178 
  -38.25481  0.00612  3.34345     13.71657  1.97943   1.4636   4.35689  0.11879     0.06351   9858.03417   5548.15787  0.07243         5909.93088     18.65009  0.00248  56849.14519  2.52572  0.02667   7578745.97414   44.6374  22.23217  56930.47312    51.30234       44.54275   26.80836  50.39972   66.0    0.12288  -21.71815  0.99863 
  -34.29221  0.01396  2.87591     13.66808  1.61279  1.01188   1.68105  0.27249     0.17541  10025.82484   3355.10525  0.24307         3963.10128     19.63831  0.02416  56853.10779  1.00797  0.02346   5711935.86347  44.80209  22.24388  56930.47312    51.34195        44.5276   31.83789  52.87654   67.5    0.13256  -21.74098  0.99879 
  -33.74134  0.07783  3.29079     13.69743  1.87932  1.32238  10.37966  0.03569     0.01706   8793.86039   5342.78075   0.3961         5748.23347      18.0592  0.00064  56853.65866  4.78817  0.80786   7612936.17803  44.62669  22.25442  56930.47312    51.30213       44.52706   28.95303  50.39972   66.5    0.12812  -21.76045  0.95829 
  -34.18991  0.14373   3.0991     13.71131  1.65878  1.43124   3.83869  0.11711     0.45581   8248.47645   3768.31008  0.52898          4038.4555     18.55316  0.00199  56853.21009  1.55796  0.55175   5590666.29973   44.7587  22.25289  56930.47312    51.30582       44.50399    31.0977  54.68906   89.0    0.14023  -21.62054  0.96983 
  -33.16293  0.07713  3.31714      13.7695  1.87625  1.09707   5.80369  0.07001     0.06034   9101.64759   5541.81205  0.35711         4799.76822     18.61607   0.0023  56854.23707  2.86795  0.44764     5541629.379  44.75697  22.25877  56932.94164    51.31119       44.52732   30.02537  48.25506   78.0    0.12705  -21.70949  0.97623 
   -33.5683   0.0328  3.44089     13.86074  1.94552  1.11047  10.81692  0.04719     0.06153    8267.2773   6104.96371  0.51221         4630.24776     17.87493  0.00042   56853.8317  4.41018  0.35483   4061728.70612  44.87583  22.25884  56932.94164    51.33538       44.52379   31.83789  44.29787   83.5    0.14268  -21.68605  0.98099 
  -33.53933  0.01925  3.04006     13.76477  1.72833  1.23568  11.62513  0.04318      0.0859   8402.52844   4625.62897   0.4386         4381.09513     19.88139  0.04228  56853.86067  4.89604  0.22376   4381882.10631  44.89905  22.24359  56930.47312    51.30164       44.51837   30.02537  49.32739   84.0    0.14793  -21.69055  0.98877 
