 texplosion  fnickel    Pspin  log(Bfield)      Mns  thetaPB   mejecta    kappa  kappagamma     vejecta  temperature    alpha  cutoff_wavelength  log(nhhost)      A_V         MJD0  kenergy  mnickel             TSD   log(L0)  Peak_mag     Peak_MJD  log(E_rad)  log(Peak_lum)  Rise_Time    E_fold  tau_1  delta_m15     r_peak     frac 
  -22.74959  0.00101  2.91089      14.1325  1.55775  0.35189   2.89468  0.15007     0.04426  4495.85989   8742.00421  2.70796         3234.28549     17.38427  0.00013  55499.25041  0.34902  0.00292    665827.06131  45.70993  16.69326  55552.38621    51.28243       44.42857   39.23281  53.07969   81.0    0.12648  -21.49176  0.99984 
  -24.51796  0.00195  3.04767     13.60191  1.84519  1.26928   2.58633  0.10946     0.01221  3670.97003   8460.43764  2.69916         3396.24754     18.27985  0.00106  55497.48204  0.20791  0.00504   9953565.15396  44.56897  16.63987  55553.04841    51.29264       44.44422    39.3556  55.26471   82.0    0.10423  -21.50331  0.99976 
  -25.37478   0.0025   2.8922     13.65024  1.65178  1.52397   5.46417  0.07683     0.01208  4095.62275   9213.81279   2.4973         3307.13947     19.05517  0.00631  55496.62522  0.54675  0.01364   6423142.32052  44.75659  16.65615  55555.58932    51.29919       44.44001   41.54062   55.3875   76.5    0.10996   -21.5042  0.99932 
   -28.6827  0.35842  2.97602     13.74126  1.68853  0.92265   5.52761  0.08392      0.0115  4235.27261   9046.81523  2.07919         3462.67875     18.57793   0.0021   55493.3173  0.59146   1.9812   4571598.25861  44.88902  16.67599  55552.38621    51.33671       44.49221   39.23281  53.07969   77.0    0.09664  -21.52848  0.90788 
  -28.84936  0.00202  2.13762     13.70999  1.16844  0.62131   11.5132  0.06573     0.01002  4734.47881    8935.9293  2.45291         3116.32162     17.29856  0.00011  55493.15064  1.53946  0.02321   1884989.81222  45.40128  16.65955  55553.04841    51.29686       44.45089     36.925   55.3875   72.0    0.09741  -21.51479  0.99895 
  -26.56713  0.00321  2.92446     13.86508  1.73639  0.93118   9.15027  0.07427     0.01423  4534.67917   8380.82266  2.47425         3244.21096     18.71862  0.00291  55495.43287  1.12242   0.0294   2566866.03878    45.167  16.65609  55553.04841    51.29507        44.4445    39.3556  57.57252   76.0    0.10758  -21.51327  0.99864 
  -21.89503  0.00271  2.87292     13.56385  1.75744  1.36895   3.55136    0.069     0.01024  3912.01217   9329.74435  2.58448         3376.29153     20.12412  0.07393  55500.10497  0.32421  0.00963  10037960.01946  44.59543  16.63912  55553.04841    51.29656       44.44367   39.23281   55.3875   79.0    0.10575  -21.56971  0.99956 
  -24.31021  0.04704   3.1056     13.82647   1.8216  1.03238   7.50698  0.06011     0.01051  3888.98463   8137.35266  2.59724         3341.40678     19.64123  0.02432  55497.68979  0.67727  0.35314   3627634.59736  44.98538  16.67536  55555.81981    51.31127        44.4296   43.97123  59.88033   84.0    0.10728    -21.511  0.98299 
  -24.54899  0.00159  2.86793     13.71224  1.68403   1.5518   6.44424  0.08106     0.01402  4268.46996   8423.56513  2.37622         3320.38882     19.76817  0.03258  55497.45101   0.7004  0.01027   4839841.00364  44.89523  16.70866  55555.81981    51.31147       44.42513   43.97123  59.88033   78.5    0.11021  -21.52926  0.99952 
  -24.28648  0.01358  3.02208     13.78361  1.80762  1.13295   8.34156  0.06144     0.01214  4605.75829     8716.259  2.50387         3252.94524     19.90086  0.04422  55497.71352  1.05554  0.11325   4152651.47706  44.94701  16.63479  55553.04841    51.29234       44.44429    39.3556  55.26471   77.5    0.11336  -21.58702  0.99471 
   -27.2794  0.00509  3.40093     14.13788  2.11359  0.57459  10.24263  0.05841     0.01021   4310.6553    8607.6943  2.31409         3294.48588     18.37663  0.00132   55494.7206  1.13534  0.05212   1203016.82706   45.4504  16.67187  55553.04841    51.29374       44.44536   39.23281   55.3875   76.5    0.10468  -21.49217  0.99757 
  -26.42492  0.00208  3.09523     13.81342  1.84428  0.97467   5.61745  0.08239      0.0106  3833.07262   8861.67828  2.47214           3426.596     17.37518  0.00013  55495.57508  0.49233  0.01166   3874245.61971   44.9651  16.65833  55555.58932     51.3163       44.45262   41.66341  55.26471   77.5    0.10441  -21.51602  0.99944 
  -28.11996  0.00485  2.43356     13.60243  1.41245  1.31147  10.22283  0.06526     0.01041  4512.16783   8455.02613  2.72939         2968.21919     17.92045  0.00046  55493.88004  1.24156  0.04956   4846344.46759  44.96092  16.67725  55555.58932    51.29372       44.44128    39.3556  55.26471   77.0    0.09877  -21.50146  0.99783 
  -25.54627  0.00153  3.07268      13.7413  1.75606  1.45676   3.64604  0.12965      0.0233  4030.48585   8466.60737   2.5934         3280.32746     16.14522    1e-05  55496.45373  0.35332  0.00558   5067364.60782  44.83357  16.64102  55553.04841    51.29682       44.44318    39.3556  57.57252   80.5    0.10965  -21.46495  0.99972 
  -20.70786  0.00136  2.98138     13.73214  1.62682   0.9681   1.75445  0.15832     0.02557  3432.45373   8791.86899  2.86985         3456.84438     16.03763    1e-05  55501.29214   0.1233  0.00239    4610126.2198  44.86764  16.66559  55553.04841     51.2907       44.44333    39.3556  55.26471   82.0    0.12192  -21.50223  0.99987 
  -26.30224  0.00736  2.93202     13.73955  1.71302  1.25506   8.65103  0.06229     0.01073  4276.38587   8344.50181  2.49109         3227.36041     18.63219  0.00238  55495.69776  0.94373   0.0637   4537415.77916  44.91146  16.67168  55552.38621    51.31125       44.47145   39.23281   55.3875   79.0    0.10315  -21.49775  0.99696 
  -22.21288   0.4501   2.9122     13.92038  1.67583  1.52468  10.61215  0.06752     0.01204  4501.21858   7704.70834  2.61615         3232.69996     17.16458    8e-05  55499.78712   1.2826  4.77649   1904238.05935  45.28491  16.69147  55555.58932    51.29688       44.44171    39.3556  55.26471   82.0     0.1046  -21.49989  0.81471 
  -25.32088  0.00205  2.94064     13.67047  1.74393  1.36495   3.05855  0.11692     0.01778  3700.54953    8223.7091  2.53709         3367.25599     19.99626  0.05508  55496.67912  0.24985  0.00628   6386803.22154  44.76821  16.65633  55552.39595    51.29533       44.45999   37.04779   52.9569   85.5    0.10802  -21.52144   0.9997 
  -26.23881  0.00394  2.99808     13.88997  1.73648  0.63934   7.35592  0.06684     0.01064  4390.61723   8245.03788  2.38381         3345.31373     16.15006    1e-05  55495.76119  0.84589  0.02896   2405666.82028  45.17359  16.68421  55552.38621    51.32773       44.46928   41.54062   55.3875   80.0    0.10318  -21.52869  0.99856 
  -28.23946  0.00143  2.86402     13.70808  1.71449  1.29602   5.45737  0.12457     0.01849   4699.4428   8889.44748  2.82421         2990.13654     16.89733    4e-05  55493.76054  0.71896  0.00781   5008982.08422  44.88928  16.68777  55553.04841     51.3132       44.43893   43.84844  57.69531   74.5    0.09409   -21.5244  0.99964 
  -25.51869  0.00144  3.10645      13.7818  1.84136   0.9937   2.81672  0.13668     0.01516  3514.70699   8879.43849  2.73898          3391.1338     18.60317  0.00223  55496.48131  0.20756  0.00407   4506856.60609  44.89558  16.67399  55555.58932    51.28564       44.42109    39.3556  57.57252   78.0    0.10386  -21.50559   0.9998 
  -26.08532  0.00109  3.13704       13.693  1.90377  1.07906   4.26065  0.08497     0.01015  4068.88884   8701.00496  2.34669         3387.51965      17.5198  0.00018  55495.91468  0.42078  0.00465   7152509.55632  44.70096  16.64996  55553.04841     51.2794        44.4456   37.04779   52.9569   77.0    0.10239  -21.50664  0.99978 
  -26.01686  0.00457  2.87687      13.7766    1.668  0.73971   5.11123   0.0748     0.01055  4035.40543   8584.89257  2.35233         3416.57363     19.43331  0.01507  55495.98314  0.49651  0.02334   3586419.21925  45.01854  16.66654  55553.04841    51.31374       44.45677   39.23281  57.69531   80.0    0.10253  -21.52193  0.99886 
  -26.87508  0.00525  2.66542     13.64476  1.48602  1.07491   5.74654  0.08465     0.01249  4077.50704    8169.6809  2.52311         3241.92841     16.29731    1e-05  55495.12492  0.56993  0.03016   5033369.47953  44.88748  16.66608  55553.04841    51.30692       44.45744   39.23281   55.3875   81.0    0.10194  -21.46927  0.99851 
  -24.26973   0.3082  3.17545     13.93099  1.86945  1.32448  10.25443  0.07037     0.01107   4558.0429   8439.87818  2.29551         3357.26939     16.74027    3e-05  55497.73027  1.27085  3.16045   2405196.37996   45.1558  16.69279  55553.04841    51.29091       44.42935   41.54062  57.69531   75.0    0.10422  -21.51825  0.86744 
  -22.07174  0.13247  3.29811     13.93151  1.82933   0.8599   9.92312  0.04884     0.01116  4612.53522   8300.64871  2.80114         3152.25754     16.23512    1e-05  55499.92826  1.25937  1.31449   2532854.17883    45.091  16.65535  55553.04841    51.28617       44.43973     36.925   55.3875   80.0    0.11859  -21.51158  0.93293 
  -24.02017  0.02645  2.95115     13.69018  1.65765  1.30835   9.27437  0.05477      0.0115  4909.59386   8441.74143  2.50681         3234.07723     19.51629  0.01824  55497.97983  1.33353  0.24534   5583915.90663  44.80142  16.63448  55553.04841     51.3016        44.4353   41.54062  57.69531   77.0     0.1136  -21.56228  0.98758 
  -27.60378  0.00235  2.64363     13.82686  1.81097  1.06099   3.47384  0.15014     0.01763  3201.96043   8165.62361  2.64665         3357.07978     20.34746  0.12365  55494.39622  0.21246  0.00815   2608560.97938  45.26595  16.66201  55553.04841    51.29292       44.44707   39.23281  53.07969   84.0    0.09556  -21.57788  0.99971 
  -25.35644  0.00284  3.15824     13.76104  1.83743  1.48937   9.52383  0.05447     0.01061   4602.0554   8329.97164  2.49749         3232.79763     18.29655   0.0011  55496.64356  1.20321  0.02702   5114945.18007  44.82532   16.6749  55555.58932    51.28856        44.4317    39.3556  55.26471   78.0    0.11325  -21.52285  0.99865 
  -23.64442  0.49538  3.13235     13.78572  1.60054  1.15533   9.50403  0.05972     0.01001  4930.44559   8000.81501  2.61075         3105.70765     17.00297    6e-05  55498.35558  1.37818  4.70806   3911912.22418  44.88898  16.66777  55550.50751    51.28641       44.44726     36.925  53.07969   80.0    0.10763  -21.53513    0.779 
  -23.66858   0.0017  2.61755     13.68333  1.44019  0.84607   5.15004  0.07755     0.01135  3917.36455   8735.18538  2.47782         3430.79452     19.68858  0.02712  55498.33142  0.47144  0.00876   3938834.90621  44.99611  16.67723  55552.39595    51.31389       44.47894     36.925  53.07969   79.0    0.11053  -21.51934  0.99956 
  -28.64108  0.00418  2.73115     13.75874  1.58025  0.86827   3.20554   0.1261     0.01289  3018.41743    8188.0355  2.57446         3513.71054     17.06915    7e-05  55493.35892  0.17422  0.01339    3324681.5309  45.07313  16.69843  55550.50751    51.32062       44.47234   39.23281   55.3875   84.5    0.09635  -21.44229  0.99937 
  -26.06694  0.00221  3.02575     13.58227  1.82481   1.4979   3.13786  0.09852      0.0128  4035.93613   8605.53018  2.21853         3503.95925     16.36408    1e-05  55495.93306  0.30489  0.00694  10620674.09589  44.54224  16.64601  55555.58932    51.29595        44.4397    39.3556  55.26471   80.0    0.10263  -21.50739  0.99966 
  -24.75575  0.00573    2.918     13.58444  1.67348  1.32626   1.04234  0.25233     0.02432  3059.81958   8070.38515  2.72283         3539.47825     18.35126  0.00125  55497.24425  0.05821  0.00598   8968611.93949  44.60957  16.68375  55552.38621    51.35621       44.51705   39.23281  53.07969   83.0    0.10861  -21.46425   0.9997 
  -22.48081  0.26054  3.44754     14.02628   1.9098  0.73226  10.44787  0.04968     0.01118  4723.75221   8767.14217  2.54672         3185.04552     18.40986  0.00143  55499.51919  1.39069  2.72211   1867552.54151  45.20354  16.68166  55553.04841    51.29954       44.44083   41.54062   55.3875   79.0    0.11338  -21.52236  0.86782 
  -26.94355  0.00104   2.4537     13.94708  1.35696  0.30227   3.00073  0.12476     0.01422   3918.9728   8697.89007  2.63697         3313.29899     16.34761    1e-05  55495.05645  0.27491  0.00311    967972.53749  45.63591  16.66316  55552.38621    51.29336       44.44038     36.925  57.69531   79.0    0.10142  -21.48995  0.99985 
  -25.47578  0.00137  2.77963     13.65252  1.55878  1.14965   7.79815  0.05996     0.01104  4555.34528   8249.89796  2.41987         3217.65391     18.68676   0.0027  55496.52422   0.9653  0.01072    5540230.6897  44.83013   16.6869  55553.04841    51.30129        44.4473   39.23281   55.3875   79.5    0.10595  -21.51254  0.99947 
  -20.99608  0.00945  3.36921     13.94966  1.94139  0.90384   8.56229  0.05324     0.01442  4494.27906   8580.33644    2.415         3382.20965     17.65099  0.00025  55501.00392  1.03166  0.08092   2580228.66578  45.09025  16.66224  55552.38621    51.28256       44.44194   37.04779  55.26471   78.0    0.12681  -21.52625   0.9958 
  -22.09469  0.03713  2.94624     13.98547  1.71725  0.71947  11.44172   0.0484     0.01041  4212.29305   8683.19901  2.40637         3472.96486     16.12979    1e-05  55499.90531  1.21103  0.42486   1479965.89906  45.39489  16.69219  55553.04841    51.37042       44.52063   41.54062   55.3875   75.0    0.11899  -21.53997   0.9802 
  -22.99226  0.01041  2.75675     13.84208  1.67549  0.70768   2.05183  0.17961     0.02666  3688.27005   8283.96216  2.44654         3488.71129     20.29178  0.10877  55499.00774   0.1665  0.02137   2446753.93215   45.2236  16.70137  55552.38621    51.29804       44.44228   39.23281  53.07969   82.5     0.1164  -21.61286  0.99906 
  -23.90463  0.45491  3.61947     13.94723  2.00674  1.53192   9.17986  0.06827     0.01148  4632.94304   8706.20514  2.56346         3309.85978      18.4591   0.0016  55498.09537  1.17538  4.17597    3112755.9286   44.9609  16.67703  55553.04841    51.29597       44.42693   41.54062   55.3875   76.5    0.10784  -21.53811  0.80828 
  -23.08078  0.20585  2.53692      13.8752  1.26148  0.49463   9.43183  0.05037     0.01156  4651.44886   8858.93153   2.3588         3306.02055     18.90182  0.00443  55498.91922  1.21731  1.94159   1339385.25753  45.43421  16.71905  55552.38621    51.28605       44.42852   39.23281  57.69531   79.5     0.1152  -21.50965  0.90076 
   -26.8789   0.0038  2.79123     13.96361  1.61044  0.53898   7.81375  0.07415     0.01102  4304.74903   8678.33724  2.54242         3310.13533     17.44698  0.00016   55495.1211  0.86374  0.02969   1377650.08492  45.44506  16.67346  55555.58932    51.31214       44.43284   46.15625  57.69531   74.5    0.10429  -21.53369  0.99859 
  -23.87064  0.00294  3.05559     13.72564  1.75356  1.51566   5.67671   0.0735     0.01122  3731.80148   8314.65908  2.67707         3351.56544     17.78784  0.00034  55498.12936  0.47159  0.01669   5378383.31301  44.81192  16.69413  55555.58932    51.31279       44.42943   46.15625  57.69531   82.0    0.11211  -21.48206  0.99916 
  -23.19984  0.00124  2.66648     13.70663  1.43268  0.69626   5.41657  0.06017     0.01199  4320.26587   8444.02735  2.43693         3337.82222     16.96143    5e-05  55498.80016  0.60308   0.0067   3652359.42052  45.01054  16.63057  55553.04841    51.29116       44.44889   37.04779  55.26471   83.0    0.10804  -21.49481  0.99964 
  -26.08912  0.00412  3.19049     13.74804  1.88789  1.05436   3.43807  0.11373     0.01439  3898.68921   8404.39333  2.40236         3426.60409     18.71632  0.00289  55495.91088  0.31173  0.01418   5694099.40611  44.78168  16.70717  55553.04841    51.29432       44.43274   39.23281  57.69531   81.0    0.10203  -21.49262  0.99929 
  -24.96907  0.00208  2.73137     13.58756  1.49592  1.13157   2.16495  0.15377      0.0215  3673.55906   8329.57325  2.56406         3409.90772     16.42672    1e-05  55497.03093  0.17428  0.00451   6924233.70847  44.73062  16.67458  55553.04841     51.3038       44.45207   39.23281   55.3875   84.5    0.10618  -21.46251  0.99977 
  -33.23382  0.00254  2.58484     13.44516  1.63568  1.55793   1.67732  0.23983     0.01428  3356.87719   7735.22651  2.53474         3409.62343     16.79942    4e-05  55488.76618  0.11275  0.00427  13063617.33682  44.54161  16.69142  55553.04841    51.29049       44.43209   41.54062  57.69531   81.5    0.10335  -21.47791  0.99982 
  -22.63357  0.00263   2.5507     13.60895  1.48427  1.34323   5.47923  0.07415     0.01437  4206.32198   8135.81864  2.44059         3370.10544     20.17407  0.08295  55499.36643   0.5783  0.01439   5429452.38056  44.89228  16.64402  55552.38621    51.32907       44.50317     36.925  50.77187   81.0    0.11934  -21.61941  0.99935 
  -22.45521  0.02537  2.42058     13.58863  1.29276  1.39005   9.25487  0.05761     0.01381  4588.01556   8717.01082   2.3819         3322.45296     17.85312   0.0004  55499.54479  1.16211  0.23483   4676379.88592  44.94261  16.67487  55553.04841    51.29373       44.44251   39.23281   55.3875   75.0    0.11714  -21.53394  0.98852 
  -26.03375  0.00231   2.8598     13.91445  1.65439  0.56665   4.23868   0.1006     0.01118  3575.30966   8518.30611  2.39433         3490.88002     17.93768  0.00048  55495.96625  0.32321  0.00978   1863050.84019  45.30459  16.66274  55555.58932    51.29302       44.43835    39.3556  55.26471   80.5     0.1002  -21.48332  0.99953 
  -22.96063   0.0022  2.59675     13.73056  1.38504  0.70671   5.60165  0.06745     0.01157  4067.76939   8751.87153  2.40713         3479.82812     17.74573  0.00031  55499.03937  0.55291  0.01231   2999300.01674  45.10443  16.68926  55553.04841     51.2937       44.43997   41.54062  57.69531   78.0    0.11607   -21.5204  0.99936 
  -25.79985  0.00259  2.97119     13.83797  1.87369  1.01533   4.79868  0.08979     0.01022  3316.26452   8632.63532  2.64363         3392.79923     20.00803  0.05659  55496.20015  0.31481  0.01241   3239128.14851  45.08525   16.6502  55553.04841    51.28823       44.43432   39.23281  57.69531   80.5    0.10513  -21.53366  0.99947 
  -28.59441  0.00295  2.83884     13.70307  1.68608  1.49378  10.02959  0.06599     0.01098  4527.73603   8516.90801  2.25248         3257.54058     18.22631  0.00094  55493.40559  1.22651  0.02956   4952515.12562  44.89462  16.64452  55553.04841    51.28517       44.45025     36.925  53.07969   77.0    0.09966  -21.51242  0.99864 
  -19.53902  0.00126  2.43675     13.87535  1.45077  0.56571   7.28014  0.05075     0.01219  4167.00324   9212.43554  2.40666          3421.1119     20.39764  0.13879  55502.46098  0.75407  0.00917   1420172.28222  45.50448  16.68218  55553.04841    51.28819       44.43801   39.23281   55.3875   77.0    0.13497  -21.68549  0.99961 
   -21.5592  0.20344  3.31665      13.8227  1.77968  1.08488  10.09063  0.04302     0.01029  4887.35832   8198.57845  2.27175         3367.45894     19.38198  0.01339   55500.4408  1.43778   2.0528   4113028.88579  44.86363  16.67824  55552.39595    51.28642       44.43853   39.23281  53.07969   80.0     0.1208  -21.54789  0.89361 
   -22.1753  0.00187  2.75775     13.70055  1.63818  1.08882   5.15815   0.0693     0.01253   3969.4443   9089.46578  2.49281         3391.32984      20.2089  0.08987   55499.8247  0.48482  0.00965   4593942.87489  44.93991  16.67458  55552.39595    51.29223       44.45597     36.925  53.07969   79.5    0.12231  -21.60614  0.99956 
  -29.22693  0.00106   2.9901     14.18033  1.80196  0.37024   5.45242  0.10587     0.01455  4017.24624   8484.65171  2.41113         3359.77518     18.98207  0.00533  55492.77307   0.5249  0.00577    652037.16438  45.75895  16.70107  55552.38621    51.32618       44.48227   39.23281  53.07969   79.0    0.10055  -21.50136  0.99973 
