 log(Bfield)      Mns    Pspin  cutoff_power  cutoff_wavelength  fnickel    kappa  kappagamma  mejecta  log(nhhost)  temperature  texplosion  thetaPB     vejecta      A_V        MJD_0   log(KE)     M_Ni  Peak_mag     Peak_MJD 
    13.94319  1.70936  2.76012       2.47803          3407.9452  0.00191  0.27931     0.03966  1.15684     20.10394   9444.47095   -23.05854  0.67448  2553.86458  0.07058  55498.94146  51.14034   0.0678  16.68816   55551.8396 
    14.11233  1.75903  3.27081       2.82603         3523.60141  0.00157  0.32516     0.06923  0.63372      17.9225   9967.46501   -16.42903  0.47802  2637.57089  0.00046  55505.57097  51.04622  0.04201  16.66629   55551.8396 
    13.75568   1.4769  2.69731       2.70096         3428.84207  0.00178  0.27286     0.03164  1.00423     16.33433    6912.9583   -24.03721  0.79868  2445.92325    1e-05  55497.96279  51.07705  0.05956   16.6953   55551.8396 
    13.80392  1.96746  3.29189       2.65177         3546.58356  0.00165  0.11325     0.01164  1.87224     19.94503   5902.25517   -21.75616  1.18494  2270.16318  0.04895  55500.24384  51.11582  0.07023  16.70902   55551.8396 
    13.66746  1.39128   2.4841       2.46379         3547.17009  0.00168  0.20485     0.03805  1.63507     16.85785   9431.31536   -22.04708  1.35638  2481.49929    4e-05  55499.95292  51.17263  0.06788  16.65206  55549.06261 
    13.85742  1.61426  2.83257       2.54614         3556.74871  0.00113  0.06269     0.01001  5.23787     18.69072    3188.1116   -20.59596  0.89714  2531.78158  0.00273  55501.40404    51.341  0.06465  16.72968   55551.8396 
    13.85491  1.81892  3.00308       2.57619          3444.2703   0.0035    0.309     0.04231  1.15634      19.1285   5326.16521   -25.31781  1.11403  2432.50026  0.00747  55496.68219  51.09797  0.12425  16.65442   55551.8396 
     13.5467  1.24327  2.37299        3.0075         3351.89795  0.00108  0.11551     0.01243  2.23399     16.64521   8434.12997   -21.60314   1.3834  2217.74074    2e-05  55500.39686   51.1209  0.04862  16.70356   55551.8396 
    13.87226  1.64808  2.83016       2.50314         3483.52603  0.00175  0.09389     0.02306  3.86947     17.61354   3083.93049   -22.25914  0.91961  2607.77956  0.00023  55499.74086  51.33219  0.09251  16.71535   55551.8396 
    13.80874  1.57054  2.66872        2.5206         3462.54153  0.00102  0.23385     0.04015  1.69429     16.84766   7340.53952   -21.88339  1.02217  2639.01506    4e-05  55500.11661  51.23156  0.04181  16.68342   55551.8396 
    13.97907  1.68277  2.73368       2.50293         3524.98147  0.00183  0.18309      0.0242  1.82947     19.67909   9653.78289   -23.16929  0.69415  2263.75804  0.02653  55498.83071  51.10993  0.07728  16.70284   55551.8396 
    13.78543  1.84505   2.9813       2.67108         3470.48677  0.00181  0.21217     0.01861  1.31526     20.04771   6187.81864   -22.65827  1.33431  2236.71007  0.06201  55499.34173  51.04729  0.06773  16.71145   55551.8396 
    13.82452  1.71219  3.04348       2.74876         3555.86762  0.00291  0.30423     0.04094  0.75281      19.5302   7103.73496   -20.03218  1.00352  2323.92886  0.01883  55501.96782  50.97485  0.08532  16.70296  55554.90226 
    13.99163   1.9718  3.09571       2.70609         3396.66454   0.0019  0.20987     0.02217  1.42746     19.97321   3545.32603    -21.8119  0.77815  2357.96975  0.05223   55500.1881  51.10669  0.07328  16.69127   55551.8396 
    13.79204  1.68281  3.05888       2.77576         3388.89647  0.00611  0.10501     0.03123  2.71436     16.96488    9481.7003   -18.10397  1.32317  2833.90788    5e-05  55503.89603   51.3602  0.29225  16.68944   55551.8396 
    13.77805  1.89116  3.22799       2.83512         3401.13098  0.00106  0.27007     0.02878  1.03033     19.35356   5213.70935   -24.66088  1.37185   2350.2887  0.01254  55497.33912   51.0472  0.03596  16.69624   55551.8396 
    13.79784  1.68453  2.63946       2.53189         3538.45945  0.00598  0.18972     0.02136  2.36679      16.0935   9572.19897   -24.25586  1.56062  2334.50124    1e-05  55497.74414  51.17344  0.27418  16.70806  55549.06261 
    13.72943  1.45429  2.51588       2.76649         3428.88468  0.00633  0.13078     0.03115  2.97239     17.88316    3527.0384   -21.48495  1.31776  2483.68982  0.00042  55500.51505  51.25738  0.31134  16.68212   55551.8396 
     13.7894  1.71923  2.89124        2.5718         3541.77191  0.00105  0.30146     0.04415   1.1274     18.08345   4501.51869   -24.70479  1.46786  2301.39036  0.00067  55497.29521  51.04534  0.03672  16.70214   55551.8396 
    13.83403  1.73429  2.85009       2.67565         3487.43089  0.00372  0.18147     0.02557  1.84053     16.71397   9323.58163    -22.3971  1.28741  2179.73965    3e-05   55499.6029  51.07798  0.15698  16.68826   55551.8396 
    13.97683  1.95305  3.30819       2.56849         3615.57146  0.00459  0.12564     0.01938  2.13473     17.37782   3573.47453   -19.82677  0.86634  2395.98872  0.00013  55502.17323  51.18166  0.20359  16.70087  55549.06261 
    13.81329  1.87843  3.32041       2.84269         3370.34822  0.00385  0.33506     0.05515  0.68838     19.34761   6512.21838   -19.71841  1.36923  2510.80138  0.01237  55502.28159   51.0224  0.10788  16.68406   55551.8396 
    13.84821  1.86572  3.21571        2.5505         3536.34823  0.00258  0.07123     0.01179  3.79383     16.27048   3289.74435   -21.04946  1.30058  2493.31981    1e-05  55500.95054  51.29086   0.1357  16.69012  55552.38621 
    13.79289  1.69807   2.8709       2.72133         3451.48044  0.00113  0.11871     0.01861  3.12713      17.3949   9525.97191   -22.69262  1.40957  2510.39153  0.00014  55499.30738  51.27311  0.05631   16.6965   55551.8396 
    13.78244  1.65527  2.90152       2.50141         3414.07295  0.00179   0.3035     0.05476  1.00941     18.81177   8995.66365   -20.42423  1.18705  2727.62907   0.0036  55501.57577   51.1727  0.05989  16.68528   55551.8396 
    13.92543   1.8169  2.77384       2.78064         3357.58638  0.00124  0.15813     0.01545  1.76447      20.3311   3257.81467    -22.9369   0.7688  2134.43005  0.11908   55499.0631  51.05341   0.0514  16.71474   55551.8396 
    13.88945  2.04569  3.28855       2.67432         3270.54628  0.00742  0.28362     0.05445   1.1941     19.77006   3619.22712   -22.98244   1.3642  2699.13258  0.03272  55499.01756  51.19396   0.2667  16.64829   55551.8396 
    13.79639  1.91862  3.39499        2.9552         3471.52396  0.00457   0.1648     0.02404   1.1801     19.48903    3432.7016   -18.71759  1.35837   2392.9176  0.01713  55503.28241   51.0873   0.1636  16.68909   55551.8396 
    13.81652  2.07679  3.58342       2.56227         3576.24857  0.02436   0.3008     0.03972  0.66428     18.62635   9621.99766   -20.27028  1.55923  2414.15305  0.00235  55501.72972  50.98024  0.66962  16.71644   55551.8396 
     13.8752  1.63796  2.87777       2.74418         3510.70385  0.00166  0.17954     0.01387    1.404     16.70964   4156.89606   -24.70198  0.65244   2153.0037    3e-05  55497.29802    51.025  0.06358   16.6721  55546.31163 
    13.99755   1.7842  3.26124       2.64321         3633.06191  0.00171  0.33903     0.05214  0.62639     16.11324   8977.52238   -19.84541  0.61986  2334.74751    1e-05  55502.15459  50.93756  0.04551  16.70108   55551.8396 
    13.67345  1.31887  2.30627       2.70417         3432.88664  0.00503  0.27113     0.03394  1.34832     17.54288   8694.27976    -24.5611  1.11148    2216.574  0.00019   55497.4389  51.04359  0.18968  16.68923   55551.8396 
    13.75301  1.56841  2.76252       2.57195         3613.25801  0.00139  0.27135      0.0312  1.05857     18.41379   5876.99608   -24.66746  1.07187  2175.42471  0.00144  55497.33254  50.98504  0.04758  16.69476   55551.8396 
    13.69981  1.68034  3.02033       2.68726         3538.83813  0.00846  0.26892      0.0325  0.78203     16.59099   5166.80282   -21.32995  1.44503  2226.74528    2e-05  55500.67005  50.94583  0.25244  16.69642   55551.8396 
    13.78572  1.68587  2.96012       2.74205         3552.01195  0.00152  0.30453     0.04303  0.86926     19.36129    7891.8877    -19.4156  1.36143  2289.81532  0.01276   55502.5844  50.99179  0.04777  16.69489  55549.06261 
    13.83941  1.93027  3.33398       2.51305         3528.69908  0.00209   0.1229     0.01833  2.01608     16.13386   6840.34422    -21.5145  1.14308  2542.49638    1e-05   55500.4855  51.22504  0.09096  16.65353  55549.06261 
     13.7829  1.41377  2.52279       2.59354         3439.95144  0.01283  0.28346     0.05408  1.25425     18.76584   8300.11941   -21.81873   0.8685  2624.95913  0.00324  55500.18127  51.17826  0.47038  16.69922   55551.8396 
    13.97751  1.91143   3.1377       2.43296         3705.71668  0.00126  0.15181     0.02239  1.94349     19.15041   4972.09776   -21.58722  0.86496  2196.78222  0.00785  55500.41278  51.09277  0.05413   16.7082   55551.8396 
    13.73402  1.36921  2.61091        2.6119         3626.16156  0.00437  0.17245     0.02454  1.43788     16.01728   9233.91005   -20.46167  0.79319  2524.56539    1e-05  55501.53833  51.16717   0.1691  16.68644   55551.8396 
     13.7666  1.56686  2.76138       2.66207         3482.58196  0.00447  0.32866     0.03974  0.90935      19.4328   4504.07875   -24.76034  0.94493  2445.69151  0.01505  55497.23966  51.05793  0.14318  16.69623   55551.8396 
    13.77583  1.55786  2.81135       2.68713         3549.38037   0.0041   0.2742     0.04108  1.05311     16.39478   3975.91847   -22.16508  1.04322   2379.7325    1e-05  55499.83492  51.06205  0.14014  16.65572   55551.8396 
    13.59561   1.3518  2.54698        2.6676         3449.82042  0.00242  0.10693     0.01703  2.53146     18.85854   3711.38712   -19.90735  1.49528  2695.27465  0.00401  55502.09265  51.30738  0.11348  16.68182   55551.8396 
    13.74354  1.60722   2.8198        2.6853         3482.11894  0.01349  0.30468     0.02798  0.96317     18.19985   8057.70962   -26.35505  0.97794  2275.20797  0.00088  55495.64495   51.0063  0.44335  16.68313   55551.8396 
    13.83669  1.86776  3.25637       2.63523         3455.13261  0.00185  0.10992     0.01786   2.6393     16.18977   8458.61367   -21.70575  1.14362  2679.66786    1e-05  55500.29425  51.30789  0.08793  16.69467   55551.8396 
    13.69661  1.65086  3.02061       2.47717         3612.70876  0.00654  0.12846      0.0164  1.77789      16.9324   4965.27713   -22.47346  1.32603  2481.08912    5e-05  55499.52654  51.18528  0.27291  16.70508  55552.39595 
    13.86386  1.97304  3.09376        2.5269         3565.76839   0.0015  0.16956      0.0208  1.66107     20.10242   8079.82703   -22.32157  1.25071  2214.56752  0.07033  55499.67843  51.07621  0.06091  16.68935   55551.8396 
    14.10043  1.87705  3.28842       2.53671         3645.52613  0.00156  0.28434     0.04344   0.8106     18.09633   8790.40114   -19.08893  0.56715  2348.34694  0.00069  55502.91107   50.9995  0.04732  16.66761   55551.8396 
    13.79378  1.76889  3.12717       2.75187          3424.2348  0.00479  0.10507     0.01563  2.50864     17.89029   8280.74594   -20.84596  1.18257  2512.34957  0.00043  55501.15404  51.24512  0.22375  16.64662   55551.8396 
    14.07096  1.85157   3.2631       2.63326         3557.47636  0.00171  0.27358     0.03963  0.74693      19.3368     3314.798   -19.64366  0.52352  2421.29656  0.01206  55502.35634  51.00881  0.04993  16.70276   55551.8396 
    13.72239  1.82406  2.82442       2.69247         3461.97767  0.00448  0.14597     0.01099  1.50403     20.35648   8538.76183   -22.91003  1.21165  2069.14555  0.12624  55499.08997  51.00163  0.17616  16.68295   55551.8396 
    13.68926  1.66739  2.58705       2.42944         3422.79731  0.00363  0.18762     0.02389  1.22517     20.52457   7840.60748   -21.35273  1.10202  2555.71065  0.18591  55500.64727    51.151  0.13195  16.67996  55549.06261 
    13.77345  1.89908  3.23865       2.90991         3491.60284  0.00529  0.23367     0.01717    0.914     17.19111   7148.42893   -23.99089  1.43154  1850.55511    9e-05  55498.00911  50.81673  0.16982  16.69749  55549.06261 
    13.92197  1.85657  3.26367       2.38948          3581.2222  0.02317  0.32462     0.04117  0.67163     16.88601   3783.08664   -20.28513   0.7167  2606.93941    4e-05  55501.71487  51.04948  0.64039  16.66275  55549.04649 
    13.66259  1.52502   2.5015       2.53729         3490.70387  0.00923  0.27701     0.01533  1.12437     19.91569   5226.71589   -28.25013  1.01411  2070.11555  0.04575  55493.74987  50.95287  0.32402   16.6777  55549.06261 
    13.76193  1.82273  3.18061       2.67938         3548.49857  0.00196  0.08885     0.01179  1.90638     19.88172    5219.5769   -18.79684   1.1089  2370.28725  0.04231  55503.20316  51.15597  0.08363  16.70302  55552.38621 
    13.93658  1.70374  3.07903       2.56487         3620.82188  0.00366  0.28324     0.04495  0.83953      18.8232   6426.09631   -19.26233  0.71015  2433.73969   0.0037  55502.73767  51.03772  0.11307  16.67281   55551.8396 
    13.87966  1.82869  3.29441       2.77646         3573.63111  0.01035  0.29153     0.03896   0.6998     17.56664   3768.89628   -20.00209  0.90293  2273.37408   0.0002  55501.99791   50.9398  0.29238   16.6551  55549.04649 
    13.78319  1.57093  2.88653       2.45884         3733.12557  0.01367   0.1608     0.02931  1.43859     16.24927   4542.37773   -17.56141  1.13167  2384.62735    1e-05  55504.43859  51.11772  0.52855  16.70856  55552.38621 
    13.63197  1.35527  2.44884       2.55828         3574.37632  0.00171  0.32172     0.04265  0.89897       19.884   9708.83171   -20.88201  1.25762  2469.60727  0.04253  55501.11799  51.06412  0.05464   16.7265   55551.8396 
    13.96758  1.67477  3.04454       2.85859           3431.578  0.00144  0.13946     0.01643  1.60723     16.07864    5937.1148   -22.33473  0.52821  2459.03606    1e-05  55499.66527  51.16206  0.05795  16.72484   55551.8396 
    14.04535  1.81171  3.19998       2.86528          3451.1395  0.00222  0.30612     0.05058   0.9014     16.04132    5714.5422   -22.04028  0.59719  2412.24476    1e-05  55499.95972  51.04424  0.07081  16.72161   55551.8396 
    13.76057  1.60876  2.79161       2.56572         3518.06831  0.00336  0.30533     0.04827  1.12475     18.00448    3226.6399   -24.18369  1.27573  2448.40988  0.00056  55497.81631   51.0987  0.11786  16.64471   55551.8396 
    13.70747  1.78474  3.23331       2.51719         3582.15791   0.0015  0.19965     0.03202  0.92054     18.94858   3574.07126   -20.22541  1.39067  2623.51558  0.00494  55501.77459  51.12129  0.04827  16.70719   55551.8396 
    13.65425  1.44713  2.71265       2.88352         3422.92664   0.0064  0.17645     0.02664  1.44356     18.12479   5425.26901   -21.22269  1.28132  2410.43033  0.00074  55500.77731  51.12763  0.24786  16.68969   55551.8396 
    13.76947  1.61608  2.88841        2.5932         3433.21232  0.00114  0.25022     0.03092    1.048     17.04658   7482.49302   -23.26147   0.8988  2476.80328    6e-05  55498.73853  51.09588  0.03883  16.70523  55552.39595 
    13.97095  1.58835   2.9549       2.82028         3454.53132    0.002  0.17259     0.03163  1.41248     19.48177   8429.42708   -19.85208  0.56578  2670.69124  0.01685  55502.14792  51.21314  0.07681  16.64641   55551.8396 
    13.56253  1.60496  2.49772       2.48963         3565.82208  0.00151  0.18161     0.01355  0.98757     20.49943   7222.86609   -23.60083   1.2189  2108.21531  0.17545  55498.39917  50.94485  0.05001   16.6833  55549.06261 
    13.51355  1.46706   2.6488       2.63225         3423.21177  0.00238  0.11697     0.01602  1.41845     19.92374   6164.21197   -19.44847  1.37317  2690.69365  0.04661  55502.55153  51.22031  0.09145  16.67659   55551.8396 
    13.72406  1.45622  2.72168       2.70546         3632.69771  0.00165  0.26547     0.02857  0.71582     19.19422   3075.26018   -19.59671  0.81111  2226.46318  0.00869  55502.40329  50.92669  0.04708  16.69178   55551.8396 
    13.72367  1.71742  3.08095       2.61262         3658.93906  0.03605  0.31184     0.03546  0.68151      16.9109   4419.38274   -22.02593    1.302  2240.41281    5e-05  55499.97407  50.92118  1.00418  16.71244  55552.39595 
    13.80338  1.66804   2.8785       2.64829         3564.41914  0.00221  0.10594     0.01285  2.70892      18.8679   8756.08397   -21.20211   1.0668  2284.12078   0.0041  55500.79789   51.1726   0.1055  16.67992  55552.39595 
    13.82334  1.76317   3.1352       2.65184         3602.35369  0.00476  0.22414     0.05191  1.22265     16.74587   5200.83702   -18.62868  1.53069  2614.73397    3e-05  55503.37132  51.17047   0.1729  16.70587   55551.8396 
    13.81664   1.6344  2.92978       2.54018         3505.56136  0.00377  0.18155     0.02316  1.55509     18.25143   8089.00082   -21.86166  0.89314   2529.0417  0.00099  55500.13834  51.18126  0.14986  16.70011  55548.77694 
    13.82666  1.63384  2.97927       2.65561         3554.37399   0.0011  0.30996     0.06252  0.84297     18.65865   6914.94819   -19.05604  0.94038   2614.5851  0.00253  55502.94396  51.10081  0.03417  16.72616  55549.06261 
     13.9831  1.64338  2.99486       2.80493         3588.64073  0.00237   0.2386     0.04239  0.96998     17.41434   5557.82351   -19.40851   0.6112  2353.16726  0.00014  55502.59149  51.03691  0.07797  16.63318  55549.06261 
    13.61781  1.62581   2.9167       2.46332         3553.14019  0.00111  0.21547     0.02628  0.78284     17.09515   4519.92165   -22.03847  1.08365  2517.59327    7e-05  55499.96153  51.05268  0.03307  16.64762   55551.8396 
    13.85519  1.69153  2.91108       2.66187         3440.68491  0.00256  0.26476     0.03516  1.20426     16.21256   3200.86734   -22.11021  0.97034  2410.06189    1e-05  55499.88979  51.09705  0.09251  16.64642   55551.8396 
    13.68681  1.51358  2.73607       2.56564         3551.01327  0.00217  0.16745     0.01811  1.63054     18.75098   5304.24979   -23.81168  1.03858  2408.53939  0.00313  55498.18832  51.14627  0.08786  16.71176  55549.06261 
    13.73192  1.79034   3.2439       2.57832          3547.5797  0.00986  0.10455     0.01566  1.73273     16.04768    7000.9327   -19.57648  1.29122  2487.15187    1e-05  55502.42352   51.1835  0.40783  16.67289  55549.06261 
     13.7142  1.56951  2.78425       2.78954         3505.58384  0.00218   0.2662     0.02656  0.97401     16.57286   3629.77612    -22.5702  1.20963   2160.2044    2e-05   55499.4298  50.96338  0.07187   16.6735  55552.39595 
    13.72457  1.55969   2.8145       2.64871         3497.54554   0.0108  0.14161     0.01836  2.26169     17.05146    7554.9403   -23.93224  1.07789  2547.08045    6e-05  55498.06776  51.24288  0.48838  16.68697   55551.8396 
    13.63986  1.31313  2.55822       2.74575         3380.66994  0.00216  0.20616     0.03301  1.09144     19.33516   4627.75998   -19.77193  0.82548  2872.33815  0.01202  55502.22807  51.23199   0.0749  16.70394   55551.8396 
    13.90249  1.54761  2.56823       2.54992          3576.3041  0.00306  0.16427     0.02098  1.65095     20.16306   3251.63901    -21.2155  0.68065  2161.72503  0.08087   55500.7845  51.05429  0.12439  16.71269   55551.8396 
    13.86511  2.18084  3.53214       2.55395         3515.97685  0.00151  0.27742     0.02948  0.85439     19.68625   4238.97563   -22.84189  1.39146  2243.28754  0.02698  55499.15811   50.9705  0.04704   16.6661  55549.06261 
    13.82837   1.3769   2.3225       2.40374         3577.34314  0.00369  0.23109     0.03236  1.19473     20.28156   4000.66377   -20.51647  0.61655  2447.51008  0.10624  55501.48353  51.10905  0.13274  16.69681  55549.06261 
    13.77142  1.77529  3.08349       2.58644         3467.39518  0.00114  0.15153     0.01991  1.74633      17.7433   5526.95938   -21.61574   1.4469  2469.84827  0.00031  55500.38426  51.17863  0.04727  16.70134   55551.8396 
    13.82261   1.7375  3.06787        2.5578         3548.09747  0.00263  0.18853      0.0313  1.40015     17.16704   4268.79181   -21.01967  1.17573  2319.41639    8e-05  55500.98033  51.08922  0.10053  16.69323  55549.06261 
