 texplosion  fnickel    Pspin  log(Bfield)      Mns  thetaPB   mejecta    kappa  kappagamma      vejecta  temperature    alpha  cutoff_wavelength  log(nhhost)      A_V         MJD0   kenergy  mnickel           TSD   log(L0)  Peak_mag     Peak_MJD  log(E_rad)  log(Peak_lum)  Rise_Time    E_fold  tau_1  delta_m15     r_peak     frac 
   -1.25066  0.29761  1.30626     15.01616  1.79755  0.97599   9.34803  0.06402     0.02083   9696.62769   6124.01441  3.97298         2786.05129     16.22309    1e-05  59462.18873   5.24311  2.78205    2643.82591  48.86924  19.31303  59489.49073    50.66005       43.96654   14.82309  36.79175   55.0    0.28041  -20.50084  0.99763 
   -3.76637  0.44073  0.70605     14.83733   1.2082  0.97954   6.83415  0.08379     0.05239  12093.48992   5965.19548  2.07819         2662.22391     18.61331  0.00228  59459.67302   5.96231  3.01198    1182.91099  49.58036  19.28991  59489.49073    50.65378       43.89612   16.66732  44.69222   58.5    0.37026  -20.52763   0.9995 
   -6.40462   0.3474  0.71637     14.87503  1.32835  1.27221  11.60677  0.03129     0.01919  11614.11119   5818.65911  0.03892         3827.55286     18.86121  0.00404  59457.03476   9.33922  4.03223    1125.48275  49.63054  19.25974  59489.49073    50.69017       43.99872   14.73735   36.0877   60.5    0.31137  -20.52733  0.99955 
   -7.77936  0.42037   3.2534     14.85186  1.47631   0.7302   6.62266  0.05027     0.02702   7585.30886   6603.95727  0.71628         5369.55995      16.8205    4e-05  59455.66002   2.27304  2.78397   28703.81055  46.95541   19.2499  59489.20844    50.65705        43.9461   16.44193  34.76029   67.0     0.3034  -20.44927  0.86188 
   -4.38667  0.43568  2.28901     14.74165  1.48527  1.13466   5.55875  0.08941     0.05131   9413.28584   6683.05064  0.82526         4613.49665     18.71922  0.00291  59459.05271   2.93824  2.42183   23747.66011  47.34573  19.35981   59487.4251    50.66692       43.97046   14.73735   36.0877   45.5    0.37749  -20.73714   0.9559 
   -5.35903  0.29921  0.76436     14.83793  1.40189  1.32204   11.0353  0.05752     0.03532  12331.13151   6251.83052  0.28513         5237.42279     16.93095    5e-05  59458.08035  10.00961   3.3019    1604.26841  49.44368  19.32137   59487.4251    50.75105       44.15187   11.77399  27.45761   60.5    0.33859  -20.56805  0.99945 
    -1.7513   0.3551  0.93589     14.93593   1.1589  1.06182   9.36393  0.05479     0.04785  13082.31201   5666.28391  3.70343         3001.05867     16.39685    1e-05  59461.68808   9.55992   3.3251    1266.04067  49.28799  19.38843  59485.50512    50.92373        44.3896   14.67008  20.31464   62.0    0.37827  -20.61224  0.99902 
   -6.57545   0.3079  1.51017      14.8645  1.68984  1.27716  12.79361  0.03127     0.01669  10213.91952   5418.34385  0.48773           2353.326      19.7122  0.02864  59456.86394   7.96168  3.93919    6679.15462  48.31392   19.2706  59489.20844    50.63968       43.91586   18.09623  36.79175   64.0    0.27764  -20.52116   0.9912 
    -3.4791  0.37982  0.71849     14.81688  1.09358  1.09278   8.01886  0.06449     0.06349  12565.69695   5914.13046  0.99259         3909.44823     17.75144  0.00031  59459.96029   7.55289  3.04571    1218.27818   49.5091  19.38139  59486.73006    50.66751       43.98463   14.63586  36.04738   55.0    0.46971  -20.72588  0.99948 
   -5.20245  0.41223  1.11321     14.87789  1.17556  0.80998   8.04865  0.07319      0.0389  12293.11083   6011.44168  0.66806         3988.38771     18.34185  0.00122  59458.23693    7.2556  3.31792    2373.79634  48.87049  19.25939  59485.50512    50.73596       44.14326   11.48991  25.49206   57.0    0.33002  -20.57015  0.99632 
   -5.06169  0.38698  1.26764     14.98245   1.1585  1.48436  10.83604  0.02847     0.02159   11883.0102   6047.68194  0.96052         3548.60953      18.8249  0.00371  59458.37769   9.12748  4.19331     1874.1108  48.85396  19.32273  59489.20844    50.73813       44.04368   14.22025  32.50343   62.5    0.34911  -20.63088  0.99743 
   -4.44637   0.4879  1.94899     15.01073  1.81417  1.07747   6.53704   0.0372     0.03157   9323.95897   6841.23799  0.48976         4645.77022     16.37637    1e-05  59458.99302   3.39007   3.1894    6090.40029  48.16326  19.28736  59489.20844    50.78796        44.1473   13.14421  30.22323   61.5    0.49492   -20.6348  0.98819 
   -6.28825  0.44637  1.32175     14.92507   1.3039  0.51323   6.96379  0.07795     0.04103  10604.24989    5252.0574  0.22745         2922.61448     19.36404  0.01285  59457.15114   4.67125  3.10843    2986.89387  48.66657  19.34988  59487.39903    50.59215       43.82436   18.07707  49.35754   58.0    0.32239  -20.49382  0.98862 
   -2.72915  0.32831  0.80491     14.88578  1.16559  1.17392   9.86325  0.03769     0.02431  11486.97118   6682.73712  1.10088         3892.96707      17.7074  0.00028  59460.71023   7.76351  3.23821    1186.59768  49.44959  19.30384  59491.48124    50.62559       43.85388   16.66732  46.72368   57.0    0.40694  -20.56949  0.99941 
   -2.87536  0.17097  0.75699     14.74326  1.12943  1.48087  17.06096   0.0203     0.03748   7017.10605   3082.62373  1.69463         4320.76761     17.45725  0.00016  59460.56402   5.01126  2.91689    1960.37463  49.27119    19.356  59489.49073    50.59185        43.7621   20.73025   60.1758   26.5     0.5293  -21.87474  0.99931 
   -3.12762  0.48884  1.15878     14.95808  1.29864  0.84489   8.78024  0.04185     0.03274  11037.73353   5563.45536  1.66541         3469.85411      20.6314  0.23775  59460.31177   6.38107  4.29212     1963.9791   48.9612  19.33954  59486.73006    50.76674       44.15713   10.57293  25.42614   65.5    0.36606  -20.81273  0.99637 
   -4.44607  0.38909  1.73112     14.90655  1.53184  1.25473    7.4545  0.08837     0.04683   11469.8989    6475.1994  1.09838         4090.47588     19.33784  0.01209  59458.99332   5.85012  2.90045    6555.16531  48.16082  19.35174   59487.4251    50.66182       43.97185   14.63586  36.15807   50.0    0.34852  -20.74834  0.99063 
   -2.57241  0.38638  1.98112     14.93696  1.26043  0.43535   5.07762  0.05121     0.04653   4542.45402   4587.05841  1.79388         4614.58158     17.83789  0.00038  59460.86698   0.62498   1.9619     6140.9995   47.9873  19.32364  59486.73006    50.77119       44.20812   12.22723  22.34611   51.5    0.31587  -20.56649  0.96332 
   -4.87225  0.38173  1.45643     14.54705  1.19323  1.32417   6.29233  0.13946     0.11565  13317.21406    5619.0247  0.72963         2729.66388      16.3841    1e-05  59458.56714    6.6568  2.40195   18923.89297  47.74198  19.35473  59486.73006    50.69686       44.00432   14.67008  35.37988   44.5    0.37658  -20.67808  0.98223 
   -5.16948  0.43945  2.91846     14.86665  1.71515   1.2331   6.04434  0.08942     0.05296  10002.39514   6561.03584   0.9476         4563.72815     19.17818  0.00837   59458.2699   3.60732  2.65617   25068.64537  47.17371  19.26309   59487.4251    50.77912       44.17723   13.35566  27.52026   56.5    0.33441  -20.58123  0.93608 
   -4.82132  0.36002  1.33147     14.74681  1.33406    1.411   8.33822  0.03801     0.02876   9517.97723   6526.03479    0.475         4720.99647     18.90953  0.00451  59458.61806   4.50599  3.00196    7047.52402  48.29732  19.34165   59487.4251    50.63615        43.8524   16.66732  42.66075   64.0    0.39174  -20.50106   0.9934 
   -5.35536  0.49618  0.82679       14.897  1.24385  1.20476   6.89437  0.09066     0.06616  14202.73352   6072.99264  1.32695         2680.78672      17.6833  0.00027  59458.08402   8.29593  3.42087     1268.7031  49.42546  19.24722  59485.50512    50.66451       44.06637   14.73735  25.93038   59.5    0.35995  -20.55437  0.99936 
   -1.41322   0.3498  0.78719     15.14514  1.43142  1.52474   9.82851  0.06488     0.14469   16964.4039   5080.62434  4.27154         3200.34358      17.8709  0.00041  59462.02617  16.87298  3.43799     422.13639    50.007  19.33662  59489.49073    50.63665       43.91722   18.09623  42.88614   39.5    0.53682  -21.06693  0.99985 
   -3.69937   0.4468  1.24717     14.81512  1.11228  0.97954   7.80117  0.07041      0.0469  13237.70791   6335.61105  3.11607          2367.1657     19.86535  0.04074  59459.74002   8.15479  3.48554    3763.96102  48.54756  19.27756  59489.49073    50.74758       44.07503   12.22723   33.6773   57.5    0.37518  -20.63413  0.99385 
   -3.94348  0.45635  1.22682     14.84446  1.38041  1.42638   6.99606  0.07112     0.06065  15168.43235   6410.23369  0.63664         2186.33337     18.60439  0.00223  59459.49591     9.602  3.19266    3948.73249  48.63483  19.38076  59489.49073    50.61935       43.84525   19.75069  51.38901   42.0    0.60133  -20.87253  0.99674 
   -3.49143  0.46744  0.88942       15.001   1.5559  1.17279   6.65932  0.15465     0.07574  14858.84919   5904.14767   1.9708         3748.74931     17.49595  0.00017  59459.94795   8.77056  3.11283    1137.66409   49.5066  19.30829  59489.20844    50.71437       44.00589   14.72244  37.55883   48.5    0.31627  -20.79147   0.9995 
   -3.90356  0.28707   0.9829     14.89554  1.51178  1.25717  10.89428  0.05662     0.03297  12828.52978   7062.63996  3.62749         2238.16402     20.00856  0.05666  59459.53582  10.69497  3.12737    2194.01598  49.12207  19.33587  59489.20844    50.66025       43.93234   16.42384     46.59   33.5    0.45797  -21.15245  0.99887 
    -5.4734  0.49978  1.81726      14.9118  1.25429  1.12808   7.33818  0.03526     0.02704   8514.96795   5081.43119  1.36196         3234.40359     19.09015  0.00684  59457.96599   3.17382   3.6675    5773.50022  48.08697  19.27287  59489.20844    50.67014       43.85459   18.09638  53.42047   76.0     0.2935  -20.37127  0.98449 
   -1.71674   0.2931  2.61556     14.80732  1.00981  1.23736  10.94344  0.02005     0.02333   7004.19074   3685.79232   3.0742         3855.10569     19.76081  0.03203  59461.72265   3.20256  3.20748   15579.11356  47.24541  19.35312  59489.20844    50.62244       43.91645   14.76953  37.57118   74.5     0.3749  -20.56296  0.92365 
   -2.82813  0.48672  1.54046     14.93499  1.43279  1.50895   7.43892  0.05988     0.04574   12670.6971   5543.85774   4.7276         2218.52395     17.09912    7e-05  59460.61126   7.12423  3.62068    4259.12433  48.42041  19.36096  59489.20844    50.67956       43.98884   14.73735  35.96569   61.5    0.36936  -20.59734  0.99406 
   -1.63454  0.41667    2.441     14.80588  1.09687  1.34306   6.50943   0.0427      0.0247   6877.58892   6153.78437  3.66111         3971.93234     18.05562  0.00063  59461.80485   1.83672  2.71231   14837.09441  47.36251  19.35016  59489.20844    50.64258        43.9182   14.76953  38.46415   65.5    0.33126  -20.55178   0.9518 
  -10.31796  0.38179  0.89279     14.60033  1.17912  1.40715   8.18623  0.11347     0.03122  10660.29979   6373.17029  0.62456         2620.77945     17.34728  0.00012  59453.12143   5.54945  3.12541    5497.93962  48.69871   19.3894  59485.50512    50.76056       44.12656   10.19577  26.40904   57.5    0.21728  -20.31366  0.99724 
   -4.70705   0.4488   1.4011     14.88706  1.76831   1.3702   6.31799  0.09296     0.10327  12528.54148   5864.99914  0.58351          2746.5442     19.43553  0.01514  59458.73233   5.91571  2.83551    5422.44826  48.48927  19.34149   59487.4251    50.74285       44.01145   14.76953  38.46415   56.5    0.41334  -20.63815  0.99591 
   -4.13949  0.45167  1.42377     14.89112  1.24413   1.1819   7.46518  0.05557     0.03726  11670.34833   6952.89414  1.20281         3269.39799     18.23032  0.00094   59459.2999   6.06506  3.37183     3866.5364  48.46951  19.27164  59489.20844    50.90582       44.36247   10.15732  24.37757   59.0    0.38992  -20.56576  0.99425 
   -5.98351  0.36856  2.01743     14.89232  1.74878  1.18838    6.8723  0.07888     0.11219  11963.94062   6144.80409  0.26668         3239.71947     17.44265  0.00015  59457.45588   5.86784  2.53283   10851.79071  47.86648   19.2559  59486.73006    50.73917       44.12633   12.22723  26.40904   62.0    0.39021  -20.44937  0.98396 
   -2.52644   0.3857  1.41648       14.841  1.29196  1.15134   7.17446  0.10555     0.06791  12879.69146   5669.46506  3.14376         3189.24823     17.34093  0.00012  59460.91294   7.09949  2.76719    5006.00929  48.37818  19.31987   59487.4251    50.69071       43.96519   14.63586  37.70486   51.0    0.37494  -20.67162  0.99406 
   -3.85659  0.48273  1.08296     14.99408  1.23787   1.2405   9.56829  0.03299      0.0149  11092.72619   7460.23053  3.90492         2384.11468     20.03976  0.06088   59459.5828   7.02325  4.61887    1385.31641  49.15075  19.33081   59487.4251    50.84552       44.30244   15.58706   22.9341   53.5    0.31466  -20.63408  0.99841 
   -4.97776  0.32585     3.18     14.88864   1.7118   0.9435   8.42881  0.02874     0.01749   6929.12713   6803.42087  1.00672         4602.14944     19.05555  0.00631  59458.46163   2.41407   2.7465   26844.21586  47.06859  19.32359  59485.50512    50.80014       44.16081   12.22723  25.48879   66.0    0.38772   -20.5132  0.90593 
   -4.25672  0.49535  0.79126     14.86778   1.1802  0.84018   6.72687  0.09332     0.09877  15296.67462   6727.56191  0.21023          2214.4588     17.50399  0.00018  59459.18267   9.38932  3.33216    1261.36895  49.44332  19.32498  59487.39903    50.66674        43.9491   14.76953  44.55854   56.0    0.44749  -20.68682  0.99906 
   -5.15725  0.44104  2.24428     14.77978  1.53028  1.18781    5.5957  0.07876     0.05932   7964.71622   7103.99323  1.11885         4797.82765     18.22633  0.00094  59458.28214   2.11749  2.46792   19732.04779  47.45629  19.26139  59489.20844    50.72229       44.08287   13.14421  31.17804   61.0    0.31301  -20.53482  0.96422 
   -4.29052  0.49996  2.65869     14.79229  1.37162  0.86017   5.56933  0.04468       0.248   8969.28096   6028.91909  0.89245         3087.66764     19.56469  0.02039  59459.14886   2.67267  2.78446   23432.05551  47.18693  19.34513   59487.4251    50.69908       44.00765   14.72244  35.64938   78.5    0.43353  -20.45969  0.91176 
   -4.38657  0.48081  0.77463      14.9402   1.2487  1.21747   7.57119  0.05658     0.03719    12986.857   6541.50523  1.85655          2593.3495     18.69113  0.00273  59459.05281   7.61727  3.64032     916.34646  49.62505  19.28811  59489.20844    50.74499       44.08881   14.67008  31.14021   31.5    0.56147  -21.33767  0.99957 
   -6.31116  0.33757  4.54776      14.8922  2.04593  1.11386   7.52285  0.06097     0.02349   8379.79126   7045.62152   0.8139           5340.041     17.15459    8e-05  59457.12822    3.1512  2.53949   64550.04045  46.45424  19.24147  59489.49073    50.73478       44.02082    14.2587  34.53489   53.0    0.32079   -20.5867  0.83835 
   -4.26712  0.38768  1.16383     14.94015  1.24342  1.03058   9.42516  0.05645     0.05209  12485.11962    5201.5528  2.74101         2755.59062     19.83785  0.03825  59459.17226   8.76397  3.65398    2060.24125  48.91777  19.23481  59489.20844    50.69115       44.00388   13.08305  34.05624   66.5    0.34849  -20.60597   0.9974 
   -1.31107  0.49419  1.09526     14.80835  1.02427  0.99107   8.11676   0.0427     0.03062  12155.80685   6336.74456  4.35834         2610.64487      20.4165  0.14495  59462.12831   7.15447  4.01121    2757.86528  48.75965  19.37465  59486.73006    50.63548       43.89888   16.29016  40.62929   60.0    0.37318  -20.71813  0.99569 
   -7.91027  0.40755  1.28466     14.67815  1.46579  1.49398   6.89709  0.08142     0.06793  10425.90099   5842.83654  0.12411         3745.54343     19.44517  0.01548  59455.52912   4.47219  2.81092    9889.17086  48.22218   19.2191  59489.20844    50.75325       44.15034   11.48991  29.52872   67.5    0.32035  -20.41001  0.99293 
   -3.16274  0.38992  1.60372     14.76346  1.17157  1.20155   8.90334  0.04961     0.02887  10333.65607   7920.56057  2.20785         2878.63379     19.49223  0.01726  59460.27664   5.67137  3.47161    8316.21358  48.00743  19.32321  59489.49073    50.62234       43.85843   19.75069  49.35754   59.5    0.31378  -20.56405  0.98365 
    -5.2328  0.29242  0.85968     14.89949  1.28091  1.39277  12.57678  0.04561     0.03968  15648.83018   8032.50419  0.33204         2279.22158     18.30392  0.00112  59458.20659  18.37217   3.6777    1396.46563  49.36266  19.30134  59489.49073    50.65825       43.90169   18.09623  40.85468   50.0    0.36114  -20.65114  0.99928 
   -4.99299  0.40473  1.42973     14.80708  1.62773  1.33057   5.73151  0.14554     0.07974  10209.18498   6765.67794  1.23785         3755.57406      16.2101    1e-05  59458.44639   3.56351  2.31969    7511.75967  48.29418  19.27362  59493.55389    50.67111       43.86701   20.35309  48.75514   55.5    0.28162  -20.46001  0.99473 
   -2.88911  0.24666  1.22707     15.02332   1.6605  0.95106  11.64561  0.05709     0.03964  12176.20583   5865.96647  1.57862         3180.42722     18.38769  0.00136  59460.55027  10.29943  2.87254    2085.20908  48.99219  19.43007  59485.50512     50.6426       43.97328   13.08305  36.92051   31.5    0.42953  -21.30199  0.99809 
   -6.00811  0.39653  2.01488     14.91762  1.60644  0.94903   7.72758  0.05242     0.03471  10205.40366    6575.1894  0.38309         4182.09072     18.44312  0.00154  59457.43127   4.80099  3.06424    8849.70209  47.91928  19.28976  59489.20844    50.76327       44.08252    14.2587  33.34841   63.0    0.34362  -20.46061   0.9778 
   -4.61976  0.48038  1.30178      14.9531  1.25713  1.07709   8.23453  0.03204     0.03946  12998.22445   7036.10764  0.17771         3261.05772     18.67904  0.00265  59458.81963   8.29916  3.95567    2455.13583  48.74908  19.35183  59489.49073    50.68133       43.95632   17.89724  39.25767   63.5    0.40675  -20.60281  0.99607 
   -4.38561  0.41926  0.89281     15.02114  1.28417   1.3545   8.69692  0.04722      0.0615  15836.18449    6165.8028  0.82059         2734.42393     16.60187    2e-05  59459.05378  13.01049  3.64631     862.33683  49.54027  19.22754  59489.49073    50.65457       43.96225   13.08305  36.92051   32.0    0.69543  -21.27012  0.99952 
   -3.96724  0.47037  0.99596     14.98547  1.52108  1.51771   7.16003  0.06519     0.04906  13444.40996    6184.7318  2.01358         2393.41505     18.80953  0.00358  59459.47214   7.72015  3.36784    1498.01751    49.279  19.34612  59489.20844    50.65377       43.94693   14.76953  40.49561   53.0    0.46861  -20.72027  0.99923 
   -3.00562   0.4046  1.53645     14.88869  1.27995  0.75623    6.5704  0.08012     0.03106   9956.62556   7041.84137  1.94591         3412.59767     17.83097  0.00038  59460.43377   3.88547  2.65839    4684.61282  48.33233  19.33399  59491.68683    50.66444       43.92561   16.29016  40.62929   47.5    0.36973  -20.64396  0.98905 
      -2.44  0.24899  0.75034     14.93588  1.47644  0.99455  13.55492  0.09503      0.0463  18506.08596   5850.62576  2.36709         2371.89665     18.78487  0.00339  59460.99939  27.69193  3.37497    1037.00341  49.67176  19.32608   59487.4251    50.68862       43.99527   16.31558  32.02477   37.0    0.31465  -21.09303  0.99955 
   -1.16697  0.45435  0.76109     14.98511   1.2926  1.20233   7.58705  0.06648     0.05143  14909.55067   7170.87017  2.57648         2944.07361     16.23555    1e-05  59462.27241  10.06072  3.44716     744.63827  49.74549  19.40431  59489.49073    50.67532       43.96906   18.00206  42.52708   52.0    0.42611  -20.69483  0.99969 
   -4.38113  0.40202  1.22877     14.79092  1.40437  1.32583   6.75087  0.09543     0.07038  12245.23306   6662.59732  0.82385         3631.56528     17.00739    6e-05  59459.05825   6.03839  2.71401    5156.97357  48.52499  19.35307  59486.73006    50.80785       44.16308   10.19577  26.40904   28.5    0.51679  -21.25942   0.9963 
