 log(Bfield)      Mns     Pspin  cutoff_power  cutoff_wavelength  fnickel    kappa  kappagamma   mejecta  log(nhhost)  temperature  texplosion  thetaPB      vejecta      A_V        MJD_0   log(KE)      M_Ni  Peak_mag     Peak_MJD 
    14.35977  1.27087   7.89671        2.8335         2693.33264  0.16208  0.02358     0.07103  18.05867     19.90153   3086.61027    -7.41975  1.24971  10822.52105  0.04429  59456.01964  52.72078   12.1965  19.26215  59487.39903 
    14.84154   1.5837  11.44901        3.3235          3017.1093  0.23557  0.02946     0.24776  11.40766     17.88698   5680.81994    -8.53756  0.33368  10090.18805  0.00043  59454.90182  52.61978  16.16145  19.23262  59487.39903 
    14.17783   1.8358   7.40664       0.19937         4205.31821  0.05427   0.0244     0.07746  12.04001     19.81125    8099.2044   -10.85924  1.39381   9428.18643  0.03597  59452.58014  52.56575   3.76566  19.34698  59483.51674 
    14.98872  1.90296  15.03092         3.204          3264.2765  0.17319  0.02401     0.15252  17.23056     17.40168   7369.63146     -8.1638  0.48354   10468.8139  0.00014  59455.27558  52.68798  12.91476  19.30241  59486.73817 
    14.58245  1.39378  11.36821       1.20839         3637.89514  0.47941  0.04745     0.06336   6.75934     17.13252   7166.22986    -8.05442  1.07979   9769.48975    8e-05  59455.38496  52.54096  29.26143  19.44644  59484.40078 
    15.10973  1.55532   7.23132       3.35966         2379.16661  0.32794  0.04518     0.05144   9.16147     17.43239   5640.88637    -6.47654  0.32648   9151.25699  0.00015  59456.96285  52.51439  21.45811  19.27711   59487.4251 
    15.17609  1.48927   5.46052       2.51527         3383.28577  0.29872  0.02713     0.02909   12.1477      19.4695   5891.96489    -4.19239  0.89561   9831.60597  0.01638  59459.24699  52.60295  20.76484  19.42996  59486.73817 
    14.98886  1.53243  13.66272       4.87582         3408.51419  0.31072  0.02876     0.03553  10.53041     17.48406   4525.92064    -5.78034  1.21983   8896.84186  0.00017  59457.65904  52.50306   20.9572  19.32991  59486.73817 
    14.46242  1.89077   9.72355       0.15161         4002.42388  0.14007  0.02497     0.05078  14.24285     17.51187   6753.10343    -8.60643  1.01464  11792.11501  0.00018  59454.83296  52.77502  10.05907  19.33298   59487.4251 
    14.80978  1.74581  11.62459       1.18887         2042.36183  0.20359  0.02665     0.04737  17.92921     16.29571   5338.71706    -7.62744  1.43351  14265.70818    1e-05  59455.81194  52.96011  15.29829  19.26655  59484.40078 
    15.12219  1.71262   0.92608       0.38988         2421.97449  0.13257  0.01166     0.01395  28.60014     18.82202   5632.89316    -3.35462   1.5518  11819.89412  0.00369  59460.08477  52.83412  10.85742  19.26284  59489.70697 
    14.88753  1.97799  20.47606       4.32156          2339.4078  0.38372  0.01712     0.01607   9.96014     16.80363   4468.21291    -4.93169  0.73729  10145.89025    4e-05  59458.50769  52.61196  25.57182  19.29411  59485.50512 
    14.04416   1.4927   6.22534        4.2315         2836.94059   0.1156  0.03064     0.06006   7.23642     20.64865   7366.37459    -7.59475  0.88981  10557.84834  0.24739  59455.84463  52.61532   7.16976  19.37301  59486.73817 
    14.99355  1.80177   7.55696       3.35985         3285.39326  0.17068   0.0241     0.05067  18.92198     19.38934   5470.88369    -3.38531  1.17599  10759.92659  0.01362  59460.05407  52.71962  12.95855  19.38142  59483.51674 
    15.08185  1.75849   2.15371       1.00747         4183.43749  0.33111  0.03568     0.03396   9.14339     16.15767   6052.43566    -2.31322  1.24724   9446.97532    1e-05  59461.12616  52.54182  21.65632  19.34478  59485.50512 
    14.09635  1.33635   7.99301        1.2391         2014.57736  0.06299   0.0108     0.03898  35.68949     19.41207   7476.37129    -7.60176  1.55394  15481.90137  0.01435  59455.83763   53.0852   5.36042   19.3045  59485.50512 
     14.7465  1.55484   9.75822       1.47626         2986.60622  0.10233  0.01178     0.02238  20.83125     16.80117   6254.90989    -8.06716  0.24491  12431.11724    4e-05  59455.37222   52.8529   7.91143   19.2891  59485.50512 
    15.11399  1.90799  14.55544       3.45743         3125.58879  0.31545  0.02761      0.0254   9.88144     19.65286   6610.37299    -9.58806  0.31547   7272.88663  0.02498  59453.85133  52.32204  20.98587  19.24695  59486.73817 
    14.24579   1.7094   7.35407       0.03043         5288.06322  0.10923  0.02033      0.0956  12.00492     19.73152   5978.27341   -11.72425  1.39915   8549.78748  0.02994  59451.71514  52.48054   7.57426  19.30816  59484.40078 
    14.86303  1.55702   8.24699       2.62436         2756.90366  0.42926  0.05247     0.08692   8.31921     16.32587   7065.34838    -4.84698  1.42381  12261.33519    1e-05   59458.5924  52.75915  27.48897  19.26318  59486.73817 
    14.67525  1.65768   10.9877       1.96549         3326.80481  0.11378  0.01175       0.013  26.33637     19.34849   5226.33574    -5.78598  1.37028   9605.67238  0.01239  59457.65341  52.64758   9.18224  19.27716  59484.40078 
    15.09679  1.42887   5.01953       0.49838         3287.47531  0.48912  0.04937     0.05612   6.94439     17.03193   8233.36017    -4.57702  0.54071  11126.72881    6e-05  59458.86237  52.65672   30.0448  19.34776  59486.73817 
    14.95163  1.56534  13.25435       3.76816         2467.85446  0.10324  0.01196     0.02283  30.44161     16.90783   5810.77523     -7.3679  0.23024  14283.31659    4e-05  59456.07149  53.00331    8.5484  19.27017  59483.51674 
     14.4743  1.49713   9.27754        0.8513         2342.45437  0.38113  0.02919     0.02476   7.65765     17.19368   6603.74858    -8.78463  0.86424   8473.60825    9e-05  59454.65475     52.43  23.95053  19.35734   59487.4251 
    15.14706  1.62503   8.85979       4.97399         2570.78958  0.08909  0.01094     0.01388  28.87957      20.3118   5613.28245    -9.02666  0.13343   9988.65435   0.1139  59454.41272  52.68865   7.30873   19.3524  59486.73817 
    14.71368  1.23631   9.70012       0.00933         4708.44776  0.27448  0.02893     0.02977  14.65239     18.90842   6498.06614    -8.83583  0.73004  11834.59529   0.0045  59454.60356  52.78062  19.82396  19.28241  59486.73817 
    15.11075  1.76785  19.49763       0.96386         3150.11046  0.28111  0.01447     0.01139  14.80409     16.37632   4193.15991    -6.04263  0.87506   9860.08374    1e-05  59457.39676  52.62297  20.34518  19.41608  59485.50512 
    14.97806  1.74752  16.42924       3.88783         3443.42241  0.33323  0.03716     0.07279  10.16517     17.36595   4221.19382    -6.84619   1.2451   10053.9641  0.00013   59456.5932  52.60597  22.30567  19.33851  59486.73817 
    14.83409  1.97819  17.37016       0.69562         3325.66377  0.37818  0.03223     0.05544  10.09381     20.03135   8287.24294    -5.84975  1.43221  13926.70973  0.05971  59457.58963  52.88833  25.27584  19.32866  59486.73817 
     14.4894  1.54321   7.24119       0.14939         2172.30998   0.0809  0.01689     0.34935  15.86038     17.60843   5917.36922    -8.88087  0.46375  10025.89924  0.00023  59454.55851  52.64339   5.93577  19.35482  59485.50512 
    14.81976  1.91012  15.19216        3.7643          2302.2771  0.14071  0.01517     0.01607  23.18534     18.73227   7228.40859    -7.96527  0.60613  11490.83631    0.003  59455.47412   52.7932  11.09642  19.31477  59489.37483 
    14.91227  1.68854   5.62305       1.56012         3486.42401  0.20285   0.0238      0.3454  16.68636     18.40983   4187.50904    -4.14208  1.51197   9424.08262  0.00143  59459.29731  52.59395   15.0324  19.28414  59486.73817 
    15.11878  1.66299  20.18351       4.10564         3530.97335  0.14811  0.01494     0.46182  22.75863     18.09616   4245.43877    -7.48421  0.51424   8697.11738  0.00069  59455.95518  52.54976  11.64015  19.29278  59485.50512 
    14.47689  1.43796   9.27203       0.09094         4479.08024  0.31197  0.02954      0.0473   9.48138     17.02891   6362.33442    -6.27367  0.98454  11547.50999    6e-05  59457.16572  52.71969  20.56784  19.37233   59487.4251 
    14.74865  1.72646  10.40119       1.78001          3883.9371  0.12085  0.01333     0.28846   19.4032     19.36245    6974.1413    -6.75481  0.63835   7480.25863   0.0128  59456.68458  52.40591   9.21931  19.38224   59487.4251 
      14.988  1.52735   9.35774       0.60595         3685.86853  0.44793  0.03823      0.0343   9.14126     17.27171   5858.04221    -6.38548    1.444  12251.12871   0.0001  59457.05391  52.76757  29.29543  19.26514   59487.4251 
     14.7586  1.45038   8.16752       0.00075          3449.8709  0.18123  0.02084     0.16109  17.17924     17.50406   8783.85457    -7.34306  0.70795  11141.06857  0.00018  59456.09633  52.74179  13.50636  19.30971  59486.73817 
    14.39873  1.73179   9.72146       0.47541         2485.80494  0.42784  0.03702     0.05214   6.65763     20.05156   7289.21173    -6.51006  1.48359  11757.49946  0.06256  59456.92933  52.70028  26.02005  19.38555  59487.39903 
    14.61376  1.54828  20.98882       4.36888         2034.90887  0.43897  0.02939     0.02553    9.8503     16.93962   3865.36046    -7.20964  0.92497  12106.11652    5e-05  59456.22974  52.76434  29.18341  19.35666   59487.4251 
    15.08122  1.85822  16.17214       0.43208         2841.39439  0.15666  0.01248     0.02027  22.97808     17.15441   7066.42832      -5.528  0.47378  14441.28546    8e-05  59457.91138  52.99099  12.33411  19.23904  59485.50512 
    14.55065  1.66451   11.3507       0.10284         3529.69202  0.22075  0.01656     0.02368    14.939     19.73929    6102.2755    -6.89011  1.22417  11257.69024  0.03048  59456.54927  52.73889  16.00515  19.26648  59485.50512 
     14.8579  1.81031  22.13223       0.71301         2261.95366  0.41229  0.02812     0.04403   9.64344     16.18658   3667.58144    -7.39314  1.55455  12086.87941    1e-05  59456.04625  52.76095  27.28337  19.34343  59484.33476 
    14.35897   1.6214  11.05324       1.69462         2872.71096  0.13792  0.02048      0.0331  18.64446     19.16215   7483.10096    -8.44782  1.21729    12215.749  0.00807  59454.99157  52.82862  10.44152   19.3491  59485.50512 
    14.41229  1.58106   8.52688       2.54172         2215.21008  0.22986  0.03156     0.21137  10.20195     17.42349   3138.90997   -11.30301  0.94264   8258.92781  0.00015  59452.13637  52.43548  15.39792  19.35696  59485.50512 
    14.95772   1.9946   9.04749       1.30245         3586.16312  0.27896  0.02874     0.34497   10.8186     18.11611   5654.03362    -5.30445  0.82357   8070.14924  0.00073  59458.13494  52.42086  18.92377  19.27987  59486.73817 
    15.17453  1.92305   4.32675        1.8825         3962.30432   0.4672   0.0484     0.33453   7.46423      19.6602   3785.58977    -2.66615  1.41899   9514.91832  0.02541  59460.77324  52.52811  29.18589  19.34304  59485.50512 
    14.62787  1.62127  26.84609        2.7901         2883.24306  0.34515  0.03569     0.05308  12.61047     18.26115   5357.27156    -5.47999  0.01526  17251.84717  0.00101  59457.95939  53.09473  24.17899  19.30888  59484.40078 
    14.98053  1.56939   6.28502       3.33588         3232.80496  0.22478  0.03173     0.03884  14.98697     18.09085   6292.04222    -5.26109  0.78216    9277.8561  0.00068  59458.17829  52.57117  16.30779  19.35095   59487.4251 
    15.00104  1.58966   2.43921       0.25981         2792.22099  0.36993  0.02655     0.01931  10.05936     18.65673   5658.67383     -3.9216   1.1898  10273.23054  0.00252  59459.51779  52.62372  24.70586  19.34883  59485.50512 
    14.98746  2.06092    8.5187       0.19898         5694.75896  0.08633  0.01545     0.23951  18.51911     18.37757   5914.58634   -10.84627  0.27061   7471.24027  0.00133  59452.59312    52.401   6.52733  19.37176  59485.50512 
    15.12724  1.87262   10.4283        3.0333         3559.19254  0.17708  0.02113     0.03827  19.27277     19.24924   6742.98266    -6.22076  1.17391   9664.74722  0.00986  59457.21863   52.6279  13.49152  19.37728   59487.4251 
    14.98607  1.64022   6.88698       2.09067         2389.54865  0.37491  0.06333     0.45853   9.24747     17.20515   7090.25074    -5.03535  0.64779  13054.51975    9e-05  59458.40403  52.82384  24.58219  19.20519  59486.73817 
    14.50803  2.09095  14.07129       3.28853          2901.4377  0.35052  0.03754      0.0624   8.01621     18.11375   6922.00456    -6.02644  1.07952  12199.56191  0.00072  59457.41295   52.7511  22.25872  19.31947  59486.73817 
    14.11295  1.60474   8.47149       2.41747          3375.9943  0.46362  0.09396     0.17373   3.07424     18.46377   8153.26095    -9.54793  1.42478     9478.119  0.00162  59453.89146  52.42492  23.01476  19.26411  59486.73817 
    15.16261  1.84961  24.22726       0.67132         3006.56134  0.34064  0.02519     0.02584  12.10352     18.76689   5186.76831    -7.57927  0.42181  12412.34334  0.00325  59455.86012  52.80508  23.66114  19.27241  59486.73817 
    14.94511  1.55271   8.55887       0.29903         3156.09556  0.33666  0.01783     0.01918   10.3002     16.58753   6545.91508    -4.84531   0.5099  10596.53785    2e-05  59458.59407  52.65286  22.59898  19.29903   59487.4251 
     15.1086  1.56332   5.99311       3.38428         3715.34592  0.48059  0.06264      0.1056   6.44261     18.69522   7361.57358    -3.12631   0.6902   8442.81249  0.00275  59460.31307  52.40922  28.99941  19.16627  59485.50512 
    14.70188  1.42603  14.03692       2.20732         3350.14317  0.38611  0.03978     0.05572   8.24031     16.46216   4587.39809    -6.95961  0.99159  10491.27029    2e-05  59456.47977  52.62279  24.67309  19.25911  59486.73817 
    15.17217  1.59244   6.30691       2.44105         2942.85108   0.3634  0.03468      0.0436  10.46829     17.22975   5853.82481    -3.73198  1.49353  12684.09426    9e-05  59459.70741  52.81056  24.47924  19.30268   59487.4251 
    15.08996  1.63028   3.14386       1.72549         2899.97826  0.17665  0.02367     0.03385   20.6424     17.25982   5359.33043     -3.3363  0.93816  12745.19313   0.0001  59460.10309  52.87383  13.63411  19.29605  59486.73817 
    14.68134  1.70571   7.78675       0.18064         3693.05575  0.44979  0.06922     0.34599   7.33101     19.09994   3820.37964    -9.30453   0.9338   9654.39742  0.00699  59454.13485  52.53894  27.98136  19.27935   59487.4251 
    15.06134  1.64595   4.27139       0.27174         5569.96912   0.4071  0.04664     0.02274   7.63937      17.0358   5564.55943    -7.28733  0.42194   7278.38972    6e-05  59456.15206   52.2977   25.5684   19.3661  59487.39903 
    14.83841  2.14312  20.22213        2.5788         3257.55863  0.17746  0.01726     0.02065  19.73996     18.64889   4909.19973    -8.12876   0.7938  10528.97294  0.00248  59455.31063  52.70426  13.58199   19.3353  59489.37483 
      15.131  1.73149   9.31317       2.39151         2099.75182   0.4456   0.0558     0.06348   9.66591     18.82524   4314.18092    -6.90313  0.80407  13793.46109  0.00372  59456.53625  52.87589  29.50249  19.27438  59485.50512 
    14.37275  1.29432    10.271       3.42795         3550.81808  0.29925  0.04115     0.20826   8.93326     18.66638   4242.43696    -8.12444  1.20907   8928.05519  0.00258  59455.31494  52.49051  19.47198   19.3877  59485.50512 
    14.75813  1.50972   4.68272       0.89913         3896.99463  0.44291  0.05204     0.05434   6.44823     19.32914   6773.18848    -5.16465  1.01237   7350.42836  0.01185  59458.27473  52.28896  26.73139  19.37618  59489.37483 
    14.62227  1.28429   1.86663        0.3525         3822.72867  0.08008  0.01011     0.21547  49.68292     20.61142   6014.03627    -4.53754  1.43021  10935.26294  0.22706  59458.90184  52.80697    7.1983  19.26505  59485.50512 
    14.53249  1.71318   8.80053       1.01553         3142.50498  0.13177  0.01725     0.05082  15.86582     18.32846   7147.10821    -8.21473   0.8337   8579.22544  0.00118  59455.22466  52.50807   9.66865   19.3455   59487.4251 
    15.06939  1.75319   7.93501       4.12609         3148.50304  0.33466  0.03747     0.30832  10.40919     20.18221   3399.36867    -3.69888  0.88942  10118.61439  0.08452   59459.7405  52.61376   22.5156   19.4127   59487.4251 
    14.59314  1.59661   7.37029       1.52286         2177.02079  0.07138    0.022     0.08696  12.65371     16.03336   5883.15875    -9.02562  0.28113  13938.00857    1e-05  59454.41376  52.90977   5.00391   19.2931  59486.73817 
    15.14936  1.24878  24.83914       0.67939         2631.78132  0.25753  0.01424      0.0144  16.82742     19.64493   6460.69922    -7.61194  0.20482  11746.72131  0.02453  59455.82745  52.78602  19.11535  19.33371  59487.39903 
    14.23888   1.2992   7.69438        3.6349         2483.69976  0.15757  0.01875     0.02434  17.79375     20.28865   6250.81221    -8.46553  1.11391   9997.30266  0.10799  59454.97386  52.65065  11.82282  19.37001  59485.50512 
    14.18845  1.68478   7.42289       0.01597          4977.8443  0.10429   0.0224     0.48233  10.94923     17.29327   6382.68612    -9.12287  1.46063   9723.71424  0.00011  59454.31651  52.58387   7.09294  19.26702  59484.40078 
    14.27821   1.6808   6.57453       2.99259         2470.33498  0.11681  0.01256     0.35402  14.73123     20.65662   4677.71585    -6.62761  1.31663   7078.86967  0.25197  59456.81178  52.33471   8.44554  19.28875  59486.73817 
    14.51057  1.70426  11.65545       4.41073         3453.04361  0.39224  0.05611     0.15447   6.10383     19.30098   8251.99218    -8.26025  0.94146   8216.43752  0.01111  59455.17914  52.37995  23.36178  19.29062   59487.4251 
    14.19778  1.79287   7.14147       0.05337         3925.05389  0.12296  0.08976     0.15555   3.70366     19.49905   6345.53047   -11.11357  0.68497  14022.08793  0.01753  59452.32581  52.78805   6.43502  19.37252  59485.50512 
     15.1557   2.1311  12.54405       2.86536         2460.36403   0.4673  0.04972     0.04626   7.63541     19.51117    4406.0245    -6.30446   0.5592  11082.65075  0.01803  59457.13492  52.66286  29.34589  19.27208  59485.50512 
    14.91493  1.64365  11.04949       0.79334         3570.50739  0.15901  0.02176     0.05429  22.70862      18.0277   4884.70571    -6.92184  0.86511  12715.43631  0.00059  59456.51754   52.8795  12.49164  19.31369  59486.73817 
    14.87403  1.93007   9.69007       3.00258          2867.5834   0.1543  0.02954     0.06675    8.9981     16.97155    5442.1646    -7.29519  0.20613  13133.49053    5e-05   59456.1442  52.82646  10.05645  19.27861  59485.50512 
    14.92928  1.88848  13.87315       3.14914         2038.93128  0.17121  0.01512     0.02042  21.62179     19.63752   5964.62881    -7.65328  0.76938  10877.60772  0.02411  59455.78611  52.73996  13.32875  19.41285  59486.73817 
    14.90298  1.85598  12.40788       2.64232         2876.21615  0.36403  0.02539     0.07277   6.44316     16.38598   7813.59782    -4.67514  0.37456  10206.78097    1e-05  59458.76425  52.57403   21.9668  19.26574  59485.50512 
    14.36827  1.38922   7.08654       3.96292         2181.09083  0.40624  0.06601     0.46372   5.95052     16.34897   5005.30935    -8.87634  1.55902   8560.71918    1e-05  59454.56305  52.41292  24.04638  19.29955   59487.4251 
    14.35698  1.69043   9.52298        2.1909         2915.54749  0.24045  0.01818      0.0159   9.54953     19.14008   7910.31395    -7.42927  0.92241   7353.86479  0.00767  59456.01012  52.32842  15.87756  19.34093  59485.50512 
    14.69619  1.46723  27.55057       4.47916         3031.38518  0.43937  0.03245     0.02042   9.24107     18.71444   8883.87017    -6.55838  1.05359   9822.21033  0.00288  59456.88101  52.57667  28.80446  19.29239  59485.50512 
    14.78704  1.25283   4.51691       3.81444          3498.2947  0.22952  0.02701     0.18537  12.57987     18.45778   6021.68929    -6.19113  1.55371   6761.11478  0.00159  59457.24826  52.28088  16.07105   19.2405  59485.50512 
