 texplosion  fnickel    Pspin  log(Bfield)      Mns  thetaPB   mejecta    kappa  kappagamma     vejecta  temperature    alpha  cutoff_wavelength  log(nhhost)      A_V         MJD0  kenergy  mnickel            TSD   log(L0)  Peak_mag     Peak_MJD  log(E_rad)  log(Peak_lum)  Rise_Time    E_fold  tau_1  delta_m15     r_peak     frac 
   -2.61202  0.28261   1.1659     14.70704  1.43025  0.52622  10.39869  0.01298     0.49762  6233.84584   5448.46043  3.74872         2361.84494     21.46729  1.62936  55911.45261  2.41056  2.93874     6957.65333  48.44847  22.84008  55930.39654    51.20292       44.82904    7.06528  17.34892   26.5    0.66383  -21.34019  0.98551 
   -1.79322  0.48836  1.06561      14.8875  2.00521  0.73854   8.67642  0.01068     0.45721  4362.27704   5352.21015  4.04669         2550.12873     21.46683  1.62763  55912.27141   0.9849   4.2372     3549.56962  48.96563  22.85636  55930.39654    51.11476       44.78945   10.85076  16.27614   18.0    0.84823  -22.25045  0.99575 
   -3.44438  0.00485  2.21018     14.79419  1.45997  0.30673   4.53595  0.02969     0.35477  7209.43208   8287.78282  4.21901         2211.06895     21.43697  1.51949  55910.62025  1.40636  0.02199    17086.19853  47.51169  22.78924  55930.39654    51.04808       44.73695    8.26821  16.14599   24.0    0.74462  -21.35767  0.99929 
   -6.05483  0.04981  2.57062     14.53025   1.8286  0.66234   6.47644  0.01553     0.09195  5521.52295   7626.83249  3.51347         2186.78865      21.4883  1.71012   55908.0098  1.17783   0.3226    97613.84656  46.72138  22.87341  55930.39654    50.97731       44.64559    9.43738  15.24225   33.5    0.64429  -21.18557  0.98988 
   -3.76622  0.36144  2.30325     14.70325  1.34136  0.29635   5.28383  0.01884     0.11362  7303.32848   5747.79534  4.95254         2085.22657     21.47248  1.64893  55910.29841  1.68119  1.90977    25915.08304  47.25816  22.72082  55930.39654    51.18797       44.88807    8.13807  16.27614   30.5    0.77335  -21.49872  0.92819 
   -3.67721   0.2922  3.82147     14.48654  1.90564  1.02938   3.16843   0.0228     0.35284  5645.66468   8309.58236  4.29646         2403.30142     21.43159  1.50078  55910.38742  0.60242  0.92582   274944.32756  45.94518  22.79383  55930.39654    51.12574       44.86972    7.06528  13.73304   23.5    0.82469  -21.32139  0.94208 
   -3.04454  0.02514  2.35056     14.47342   1.6919  0.74686   6.60423  0.01306     0.38233  5287.16821   9958.51608  4.27549         2351.03118     21.51152  1.80405  55911.02009  1.10127  0.16601    98106.81419  46.76318  22.80446  55928.12195    51.16834       44.90922    7.02608  14.41863   19.5    0.85631  -21.59936  0.99512 
   -4.15016  0.04347  1.45981     14.09575  1.11162  1.05882   8.44695  0.01233     0.06092  5119.38534   3272.23332  2.71026         2593.52251     21.47233  1.64839  55909.91447  1.32057  0.36717   141538.23111  46.83533  22.77331  55930.39654    51.11622       44.73729    8.26821  16.41141   23.5    0.71125  -21.42517  0.99237 
   -2.84533  0.10193  1.34997     14.39057  1.32744  0.94859   2.79582  0.04175     0.42633   6742.9241   5178.99999  2.54957         2350.31489     21.44278  1.53996   55911.2193  0.75829  0.28498    37181.74999  47.56088  22.75647  55930.39654       51.26       45.01203    6.78172  14.91979   21.0    0.80975  -21.25906  0.99692 
   -3.64212  0.06745  1.40533     14.37363  1.35925   0.8096   8.74581  0.01316     0.09976  5066.32622   7240.31487  3.17846          2488.9889     21.48169  1.68431   55910.4225   1.3391  0.58988    44607.67521  47.45718  22.81748  55930.39654    51.32351       45.05459    8.13807  14.41863   22.5    0.70417  -21.42018   0.9924 
    -2.8807  0.09907  1.26223     14.18528   1.1142  1.55983   6.83705  0.01595     0.40552  7018.19328   6693.31703   2.3015         2464.51643     21.43358  1.50769  55911.18393  2.00885  0.67736    70225.12581  47.26704  22.72988  55930.39654    51.29175       44.95393    9.62456  14.78964   21.5    0.88799    -21.285  0.99129 
   -1.57294  0.00216   0.7739     14.51565  1.58333  1.15752   8.39593  0.01989     0.29493  6117.71552   8088.13253  4.44464         2259.72602     21.48599  1.70107  55912.49169  1.87445  0.01816     8193.13432   48.7776  22.77044  55928.12195    51.28484       44.85776    10.9809  17.50233   21.5    0.62788   -21.3224  0.99998 
   -4.59974  0.00325  2.58599     14.50796  1.32976   0.5974   2.32803  0.04815     0.39556  8199.17228   9615.20047  3.19262         2245.92058     21.38424  1.34575  55909.46489  0.93359  0.00757    79601.48883  46.66644  22.74911  55930.39654    51.25919       44.88252    9.62456  16.14599   25.0    0.83409  -21.10884  0.99961 
   -6.17294  0.02362   3.5649      14.6174  1.98977  0.59568   4.95772  0.01138     0.07229  3824.13688   7442.23547  3.40387         2753.46991     21.46718  1.62896  55907.89169  0.43249   0.1171   136743.42059  46.32765   22.7892  55928.12195    51.37098       45.09096    7.06528  13.73304   23.0    0.76027  -21.31795  0.99368 
   -4.51901  0.02093  4.17954      14.4105   1.8914  1.19633   3.94671   0.0232     0.27772  7027.68599   7996.08087  3.13427         2502.53441     21.39893  1.39205  55909.54562  1.16275   0.0826   463302.13935  45.63751  22.72775  55930.39654    51.37779       45.11921    6.78172   14.0166   31.5    0.72831  -21.18445  0.99338 
    -3.2706  0.01049  1.72796     14.32617  1.50026  1.49886   6.49225  0.02681     0.04877  7310.93781   8064.68462  4.19605         2416.45417     21.48544   1.6989  55910.79403  2.06999  0.06808    92621.23039  47.00323  22.73138  55930.39654    51.07536        44.6119    12.2071  17.63248   23.0    0.71634  -21.56121  0.99881 
   -5.05533   0.0101  2.27956      14.4247  1.45342  0.67652   5.90101   0.0182     0.45433  5535.09671   7483.24635  3.85674         2320.99506     21.45705  1.59138   55909.0093  1.07846  0.05963    99199.92463  46.71902  22.81819  55932.09309    51.31624       45.07546    5.42538  14.91979   25.5    0.71463  -21.25175  0.99792 
   -3.35361  0.00146  2.06029      14.4231  1.40159  0.94919   4.44497  0.04793     0.18794  7794.37629   4109.68751   4.9254         2460.89079     21.44275  1.53984  55910.71102  1.61086  0.00649    78720.24366  46.89152  22.86196  55930.39654    51.10263       44.77215    8.13807  17.63248   24.0    0.67543  -21.34124  0.99982 
   -4.84497  0.04224  3.93326     14.61239  2.00084  0.78652   5.72566  0.02324     0.37356  7640.57584   7555.67149  4.30181         2438.75398     21.43855  1.52501  55909.21966  1.99391  0.24184   171296.41241   46.1468   22.7778  55930.39654    51.27925       45.01733    7.06528  14.63623   27.0    0.73535  -21.29368  0.98445 
   -3.15253  0.00301  3.29816      14.6343  1.81585   0.7057    3.7256  0.02158     0.42761  6261.71898   7341.46052  3.14531         2485.52582     21.39931  1.39329   55910.9121  0.87139  0.01121    98817.79599  46.49655  22.68186  55930.39654    51.22485       44.92784    9.62456   13.4333   21.0    0.92166  -21.20602  0.99941 
   -6.67465  0.02868  2.68745     14.43044  2.19532  1.03456   6.20341  0.01145     0.24605   6990.1826   6888.76243  1.27331         2542.26836     21.44363  1.54296  55907.38998  1.80815  0.17789   202824.30821  46.44454   22.7707  55928.12195    51.08021       44.69558   10.79372  15.24225   51.5    0.54098  -21.16877  0.99532 
   -3.79772  0.00102  2.02171     14.40817  2.12242  1.01469   5.94346  0.01198     0.11087  6954.97318   3476.13779  2.22028         2092.48651      21.5181  1.83157  55910.26691  1.71497  0.00609   122957.43691  46.89448  22.79152  55928.12195    51.25051       44.97584    8.26821  12.50411   30.5    0.81773  -21.62593  0.99991 
   -2.21337  0.25657  0.97233     14.75608   2.0887  0.75155   5.77585  0.01908     0.47551  6435.89265   8653.39028  2.38949         2307.31794     21.45807  1.59512  55911.85126  1.42712  1.48193     5638.36298  48.86194   22.8148  55928.12195    51.05178       44.75576    8.13807  14.91979   22.5    0.83736  -21.31594  0.99823 
   -3.51558  0.00143  2.38665     14.47231  1.59777  0.63053   7.60132  0.01361     0.46958    8290.626   9026.09307  3.66006         2011.20151     21.47432  1.65597  55910.54905  3.11667  0.01087    96002.88492   46.7345  22.74272  55930.39654    51.28452       44.99679    8.26821  16.14599   29.0     0.8066  -21.48539  0.99964 
   -1.85776  0.14318  1.31831     14.28832  1.19178  1.07946   4.47371  0.02849     0.48812  4937.57219   3474.22833  4.44685         2326.86682     21.45388  1.57984  55912.20687  0.65061  0.64054    50979.67464  47.39761  22.73001  55930.39654    51.39218       45.17294    7.06528  12.50787   22.5    0.63305  -21.26397  0.99197 
   -2.79011  0.00138  1.51183     14.56248  1.49834  0.50539   4.72264  0.01724      0.1318  6594.89154   3574.75571   3.0246          2037.6383     21.47437  1.65613  55911.27452  1.22526  0.00653    23848.80605  47.70798  22.73458  55930.39654    51.13529       44.83391    9.62456  14.28848   19.5    0.98322  -21.51409  0.99991 
   -4.42668  0.00571    2.989     14.54761  1.67354  0.94594   6.19505  0.01721     0.35559  6158.07012   3930.91493  2.22192         2984.63708     21.33787  1.20946  55909.63795   1.4014  0.03535   111501.10763  46.49415  22.76611  55930.39654    51.21191       44.88109   10.79372  14.97683   22.5    0.81067  -21.02063  0.99831 
    -5.4178   0.1925  3.72363     14.39081   1.9951   1.5483   2.29715   0.0524     0.18141  8277.00888   4958.68922  2.88829         2178.59244     21.42644  1.48307  55908.64682  0.93878  0.44219   424709.95168  45.79879   22.6956  55930.39654    51.46676       45.24888    7.06528  11.92354   40.5    0.60612  -21.17134  0.97458 
   -2.18632   0.0059  1.08064     14.49536  1.74876  1.42061   7.15926  0.02251     0.01807  6010.79755   3100.67835  4.13354         2342.71596     21.47491   1.6582  55911.87831  1.54298  0.04227    19372.71411  48.15702  22.72709  55930.39654    50.97647       44.67275    7.02608  16.54156   22.5    0.67056  -21.38766  0.99989 
   -3.50061  0.00173  2.80699      14.3655  1.83313   1.5623   5.96791  0.01395     0.49705  5434.24753   7688.69134  3.75916         2194.08577     21.42983  1.49471  55910.56402   1.0513   0.0103   249165.87043  46.23907  22.72258  55930.39654    51.08338       44.80627    7.15622  14.78964   23.5    0.80966  -21.26924  0.99961 
   -3.40057  0.01877    1.913     14.29724  1.38316  1.27948    4.5102  0.02958     0.49761  7419.16079   8428.84704  3.51729         2201.49683     21.43239  1.50355  55910.66406  1.48092  0.08464   119575.37007  46.76865  22.97124  55930.39654    51.00262       44.60861    9.62456  19.68108   23.0    0.74805  -21.28126  0.99786 
   -3.71017  0.00205  2.02159      14.1027  1.30834  1.49364   7.71927   0.0137     0.04194  5332.19045   5716.53123  3.68231         2337.12595     21.47065    1.642  55910.35446  1.30923  0.01583   309408.86504  46.28365  22.92426  55932.09309     51.0768       44.67814   10.79372  19.04586   25.0    0.69215  -21.41641  0.99949 
   -3.83788  0.08875  1.92814     14.56519  2.04334  1.11967   5.00617   0.0286     0.04187  5752.97101   6607.18979  3.81807         2206.93687     21.45696  1.59107  55910.22675  0.98836  0.44432    52245.50148  47.29086  22.89597  55930.39654     50.9392       44.54771   10.79372  17.68952   25.0    0.64392  -21.30355  0.99425 
     -3.678  0.12061   2.3224      14.4936  1.91234   1.0539   8.60157  0.01207     0.26157  5481.90565   6227.67642  3.72386         2300.14405     21.45659  1.58972  55910.38663  1.54194  1.03744    98641.45381  46.82448  22.95178  55930.39654    51.05245       44.74802    8.26821  16.41141   23.5    0.72896  -21.39913  0.97637 
   -1.38643  0.00853  1.26398     14.44041  1.42811  1.36839    4.1445  0.03764      0.2716    6040.079   3597.07305  4.24546         2593.85671     21.45437  1.58161   55912.6782  0.90195  0.03536     27877.0333  47.77488   22.7124  55930.39654    51.21559       44.84821   10.85076  16.27614   20.0    0.74044   -21.4609  0.99978 
   -6.03096  0.01933  4.40416      14.4462  2.01782  1.30706   7.36769  0.01121     0.08281  6147.31807   5381.45727   3.2344         2628.12488      21.4242  1.47545  55908.03367  1.66085   0.1424   465614.50398  45.61797  22.82278  55930.39654    51.27769       44.95779    8.26821  16.14599   29.5    0.73478  -21.13822  0.98856 
   -2.38151   0.0639  1.25269     14.57802  1.85556  0.72833   3.77132  0.03167     0.08671  8443.93562   5856.47153  2.03553         2449.86607      21.5094  1.79526  55911.68312  1.60402  0.24097    18876.87519  48.06571  22.83595  55930.39654    51.30171       45.00543    8.13807  16.27614   19.5    0.94724  -21.79174   0.9987 
   -3.35006  0.19591  1.46954      14.4645  1.29503  0.58194   4.60471  0.02918     0.49198  5604.20469   4954.19748  4.22838         2220.82804      21.4656  1.62304  55910.71457   0.8627   0.9021    30581.88615   47.5613  22.79051  55930.39654      51.345       45.04202    7.06528  15.99257   24.5    0.67182  -21.38973  0.98598 
   -6.22895  0.00242  2.39012     14.24681  1.71002  1.52749   8.81922  0.01074     0.26786  4540.63229    5592.3997  3.74484         2330.62247     21.48927  1.71396  55907.83568  1.08465  0.02133   291103.32992  46.28096  22.85551  55930.39654    51.15749       44.85589    7.06528  15.99257   28.0    0.62353  -21.26698  0.99935 
   -2.37144  0.00189  1.06967      14.3522  1.26833  0.77477   7.69179  0.01354     0.09156  5745.95666    8236.4187  3.56026         2015.39072     21.46114  1.60644  55911.69319  1.51488  0.01451    26616.25043  47.88843  22.73853  55930.39654    51.03094       44.73157    8.32538  15.24225   20.0    0.82438  -21.40976   0.9999 
   -3.41547  0.00295  2.41339     14.57824  1.76601  0.72329   6.97132  0.01121     0.47351  4342.21559   8987.27716  4.01942          2533.7046     21.46852  1.63398  55910.64916  0.78409  0.02058    66617.75941  46.92699  22.76637  55930.39654    51.19156       44.85262    9.62456  14.78964   18.5    0.88109  -21.47573  0.99941 
   -6.17526  0.00187  3.70868     14.33219  1.83303  1.25419   7.05509   0.0102     0.49867   5190.4327   6244.39326  3.87521         2457.40693     21.45602  1.58763  55907.88937   1.1338  0.01323   507051.04836  45.68853  22.81219  55928.12195    51.10495       44.80795    9.49441  14.41863   29.0    0.73315  -21.21946  0.99912 
   -3.13256  0.03895  1.86045     14.91325  1.98376  0.30743   7.10762  0.01315     0.37649  5648.56662   7065.31062  3.53347         2157.99526     21.49933  1.75411  55910.93207  1.35278  0.27684     9506.82478  48.04906  22.80301  55930.39654    51.12464         44.759   12.15006  15.24225   20.0    0.85195   -21.6172  0.99618 
    -1.7223  0.02376  1.45505     14.72039   1.9978  0.74452  11.52727  0.01326     0.21484  4584.78158   3624.71049  4.85058         2378.45893     21.47744  1.66791  55912.34233  1.44541   0.2739    14234.44507   48.0903  22.73652  55930.39654    51.26746       45.00054    7.06528  14.63623   23.5    0.53854  -21.29824  0.99846 
   -4.54795  0.02724  2.99454     14.74208  1.46259  0.29062   5.44176  0.01776     0.20728  6605.74408   6358.14709  3.21996         2620.53204     21.44264  1.53947  55909.51668  1.41648  0.14826    39943.11723  46.87987  22.82716  55930.39654    51.18707       44.87193    9.62456  16.14599   26.5    0.77106  -21.39001  0.99107 
   -4.45691  0.06316  2.30521     14.32398  1.45733  1.55789    8.7788  0.01335         0.5  6075.79112   4720.80601  3.27758         2518.35153     21.43496  1.51246  55909.60772  1.93316  0.55449   161746.93661  46.49815  22.85284  55930.39654    50.90639       44.60453    8.42163  15.99257   24.0    0.72572  -21.18361  0.98108 
   -3.96159  0.00292  1.66039     14.52288  1.36647  0.49439   3.06331   0.0522     0.28274  6632.58325   6382.62674   4.6848         2215.05336     21.49391  1.73237  55910.10304  0.80386  0.00895     31483.0207  47.46595  22.73461  55930.39654    51.09272       44.82597    8.26821  14.28848   24.0    0.65921  -21.51109  0.99983 
   -1.86159  0.00107  1.67105     14.57639  1.87403  1.50846   3.86992   0.0289     0.42578  5436.95328   4165.05435  4.95663         2408.89718      21.4747  1.65741  55912.20304   0.6824  0.00416    34180.95543  47.56186  22.77312  55930.39654    51.37163       45.10543    8.42163  14.63623   18.0    0.88796  -21.54159  0.99996 
    -1.6377  0.39368  1.57134     14.98087  1.98871  0.39568   5.57383  0.02637     0.45806  7506.30036   6681.19034  4.88029         2111.27069     21.49705  1.74494  55912.42693  1.87341   2.1943     4979.51964  48.47769   22.9111  55930.39654    51.08363       44.67255    10.9809  17.50233   24.5    0.74603  -21.50987  0.98505 
   -4.34987  0.22118  2.85058     14.64483  1.54244  0.41235   6.18596  0.01227     0.18964  5512.65841   5627.43813  2.98661         2458.10915     21.44559  1.54994  55909.71475  1.12139  1.36821    59736.21098  46.77095  22.69978  55930.39654    51.32203       45.12689    6.78172   12.2071   31.5    0.71843   -21.2615   0.9352 
    -5.2831   0.0024  2.60441     14.68609  1.45738  0.29439   4.61135  0.01749     0.47566  5330.54511    4637.0341  3.36036         2387.99721     21.45717  1.59182  55908.78153  0.78163  0.01106     38961.1323  47.01037  22.82695  55928.12195    51.11384       44.81013    9.49441  14.41863   28.0    0.71139  -21.30434  0.99949 
   -4.59591  0.00792  2.99511     14.45406  1.95321  1.44278   4.30908  0.02402     0.01494  5006.82917   7758.63282  3.47177         2668.81319     21.45153  1.57128  55909.46872  0.64437  0.03411   201030.10761  46.30351  22.78003  55930.39654    51.10103       44.81358    8.26821  14.78964   22.5    0.73654  -21.30535  0.99868 
    -4.3367  0.00238  1.00156     14.11236  1.15818  1.07932   8.69975  0.01124     0.24089  7108.49764   8237.63907  1.60814         2642.77861     21.49752  1.74682  55909.72793  2.62234  0.02073    64302.35178  47.52304  22.75163   55928.0263    51.22211       44.97216    8.42163  13.27989   24.0    0.82254  -21.49481  0.99983 
   -2.95558   0.4276  2.05259     14.43706  1.58316  1.04268   5.99277  0.01514     0.37144  5785.49339   3253.90678  3.46154          2117.0324      21.4183  1.45555  55911.10905  1.19656  2.56249    82758.84427  46.92595  22.67584  55930.39654    51.07182       44.70241   12.15006  16.33317   35.0    0.74238  -21.18986  0.94325 
   -2.83672  0.38698  2.72965     14.69719  2.02675  0.54289   7.27976  0.01206     0.35494  5700.23015   9938.01705  4.69247         2415.88636     21.53973  1.92514  55911.22791  1.41101  2.81715    56553.17088  46.95097  22.86179  55930.39654    51.27277       45.00154    7.06528  15.99257   21.0    0.82289  -21.84752  0.92093 
   -5.63779  0.05306   2.5147     14.72104  1.57111  0.27549   7.55402  0.01094     0.02577  4929.75674   7038.85725  3.11071          2303.4754     21.45236  1.57431  55908.42683  1.09511  0.40079    33335.95439  47.14117  22.87439  55928.12195    50.94046       44.55094    10.9809  17.50233   36.0    0.63206  -21.25748  0.98482 
    -3.4455  0.22928  2.19641     14.79763  1.78209  0.45889   8.11066  0.01813     0.45835  6797.82268   3406.16065  4.60739         2283.98814     21.48709  1.70538  55910.61913  2.23575  1.85961    20272.98832  47.52943  22.76655  55930.39654     51.2336       44.88238   10.79372  14.97683   26.0    0.67548  -21.45667  0.95989 
   -1.98742  0.15597  1.25704     14.83549  1.95396   0.6642   5.36802  0.02114      0.3557  7310.63795    9806.7197    2.268         2568.82601     21.42879  1.49113  55912.07721   1.7114  0.83725     6115.72038  48.57461  22.76061  55932.09309    51.12966       44.85444    7.06528  15.49141   18.0    0.88305  -21.37378  0.99772 
   -4.01124  0.20971  1.79016     14.14134  1.23572   1.2059   5.45786   0.0211     0.46771  5993.56216   7874.49991  2.88241         2424.49222     21.46194  1.60942  55910.05339  1.16955  1.14458   191791.89529  46.57215  22.71593  55928.12195    51.60621       45.37227    6.02259  12.96624   28.5    0.65786  -21.38132  0.96973 
