 log(Bfield)      Mns     Pspin  cutoff_power  cutoff_wavelength  fnickel    kappa  kappagamma  mejecta  log(nhhost)  temperature  texplosion  thetaPB     vejecta      A_V        MJD_0   log(KE)      M_Ni  Peak_mag     Peak_MJD 
    14.30216  1.81258   7.30293       1.57609         3626.91307  0.00427  0.32603     0.01417  1.56722     20.97504   8355.43241   -10.45417  0.47231   4321.7379  0.52453  59392.97028  51.64789   0.17054  18.55934  59447.58912 
    13.89846  1.35139   6.84231       0.13071         4966.81292  0.00145   0.2916     0.02112  1.34982     20.67193   7216.07791    -9.43092  1.37574  4087.73064  0.26101  59393.99352  51.57537   0.05471    18.591  59449.25919 
    14.34586  2.02909   9.16664       0.92631         2219.57662  0.01586  0.33085     0.01232  2.00427     20.57624   4123.85224    -8.35089  1.29653  3837.95401  0.20939  59395.07356  51.58187   0.68922  18.58463  59449.25919 
    14.25615  1.77808   9.69644       3.17348         2375.86454  0.01383  0.08183      0.0237  6.67422     20.54004   7025.55598    -7.85893  1.33067  4321.98594  0.19265  59395.56552  51.83127   0.84142  18.58539  59449.25919 
    14.13371  1.78292   7.95191       1.56763         2176.38712  0.00141   0.2894     0.01166   1.8685     20.64226   8528.30426   -11.34087  1.12846  3642.74589  0.24377  59392.08358  51.52627   0.05989  18.58847  59449.25919 
     14.1369  1.72548   9.24652       1.01929         4562.28364  0.00278  0.16084     0.01856  2.42429     20.51056   3583.75981   -11.14809  0.99273  3469.69935  0.18001  59392.27636  51.52092   0.12834  18.60866  59452.77619 
    14.12919   1.6297   6.24985        0.2114         3353.42814  0.00164  0.33373     0.01484  2.59027     20.99189   9930.85856    -9.21158  1.54897   4699.9769  0.54528  59394.21287  51.79343   0.07751  18.59124  59452.77619 
    14.05276  1.67721   7.53349       0.37471         3603.20579   0.0034  0.32425     0.01156  2.12514     20.69474   4374.00035   -10.42301  1.43357  4160.80455  0.27509  59393.00143  51.66041   0.15062  18.58009  59449.25919 
    14.25987  1.65167   7.93228       0.04311         4062.11351  0.00256  0.27949     0.01655  2.23159     20.57783   7006.49913    -7.64224  1.18408  4207.04878  0.21017   59395.7822  51.67688   0.11544  18.63986  59449.25919 
    14.58436  2.13704   9.38727       0.29994         3670.11588  0.00375  0.30891     0.01104  1.76263     20.62066   3653.49743    -7.55562  0.55679  3857.49092  0.23195  59395.86882   51.5673   0.15617  18.60242  59447.58912 
    13.81759  1.48652   5.06489       0.02457         2088.16551  0.00639  0.33607     0.01691  1.24649     21.12325    7826.6632    -9.44351  1.21043  4506.92541  0.73787  59393.98093  51.64671   0.23374  18.62222  59449.25919 
    14.45763  1.94165   7.55524       0.37843         3535.21259  0.00435  0.31384     0.01082  2.14054     20.95627   7359.49979    -8.18805   0.4694   4823.1422  0.50233   59395.2364  51.78973   0.19339  18.61149  59449.25919 
    14.04476  1.69415   8.96072       0.71074         2740.32329  0.04955  0.16844     0.02479  3.49632      20.5511   7849.27342    -8.50972  1.46719  5751.97876  0.19762  59394.91472  52.00709    2.5521  18.56337  59449.25919 
    14.74422  2.01153   8.34099       0.03809         3817.67544  0.00926  0.32384     0.01244  1.71858     20.72407   8098.79921    -9.21286  0.37933  3396.35056  0.29431  59394.21158  51.45288   0.38167  18.56015  59449.25919 
    14.19513  1.55562   6.71671       1.22622           2309.874   0.0021  0.28762     0.01108  1.65891     20.77471   5463.63093    -9.22754  0.96608   3321.6573   0.3307   59394.1969  51.42815   0.08556  18.62552  59447.58912 
    14.27271  1.81793   8.69028       0.31054         3647.05704  0.00214  0.21432     0.01572  2.25439     20.70746   6628.50949    -8.77315  0.97006   4127.2939  0.28326  59394.65129  51.66167   0.09674  18.57975  59452.77619 
    14.23098  1.74059   8.33548       0.80148         3072.46979   0.0077  0.28267     0.01209   2.5645     20.64769   9747.15367   -10.47398  0.96732  4062.63951  0.24684  59392.95046  51.66552   0.36194  18.58368  59449.25919 
    14.53759  1.28403   5.95082       1.27035         2071.40385  0.00898   0.3389     0.27632  2.61278      20.7303   9830.43057    -8.00312  0.33908   4011.9913  0.29856  59395.42132  51.65711   0.42446  18.66107  59452.77619 
    14.70573  1.98971   9.81063       2.58039         2444.99205  0.00219   0.3169     0.04647  2.03532     20.50505   3723.59571     -7.7281  0.47086  4171.12595  0.17774  59395.69634  51.65639   0.09578  18.56634  59447.58912 
    13.98865  1.95766   7.43133       1.02835         2793.55996  0.00471  0.25241     0.01203  1.29055     20.92237    5924.7961   -11.76131  1.55735  3337.02793  0.46462  59391.66313  51.39159   0.17451  18.64781  59452.77619 
    14.33051  2.01808   6.80689        0.8353          3700.6058  0.00263  0.23569     0.01046  2.40433     21.12638    5834.3601   -12.12892  0.46774  4106.51899   0.7432  59391.29553  51.66615   0.12117  18.62051  59452.77619 
    14.57736  2.06274   8.39199       1.09218         2259.85349  0.00576  0.31107     0.01023  1.94013     20.78874   5392.03723    -8.28604  0.36984  4479.28707  0.34156   59395.1384  51.71136   0.24772  18.56977  59452.77619 
    14.22784  1.99533   7.62084       0.03065         4737.79914  0.00136  0.31965     0.01394  1.67164     20.91836   7838.67581    -9.64764  1.23937  3850.80018  0.46035  59393.77681  51.55772   0.05541  18.55912  59452.77619 
    14.04077  1.87829    7.1495       1.83891         2314.52702  0.00326   0.2351     0.01201  2.20506     21.02632   5204.67641   -12.21302  1.54767  3949.25263  0.59026  59391.21143  51.62028   0.14623   18.5637  59449.25919 
    14.22288  1.95389  11.41755       1.42233         2950.08367  0.30699  0.22536     0.01139  3.83491     20.44041    6378.3404   -10.94695   1.0327  5229.46164  0.15316  59392.47749   51.9355  16.22102  18.56802  59449.25919 
    14.48222  1.99775   7.76233       0.23081         4562.95403   0.0034  0.27513     0.01364  1.67824     20.98302   7369.32231    -9.92954  0.51774  3935.73981  0.53426   59393.4949  51.57727   0.13882  18.62751  59452.77619 
    14.32627  1.61648   6.00255        1.5478         2326.38279  0.00639  0.20954     0.01048  3.17833      21.0084   7824.83063    -6.97174  0.76468  3973.91451  0.56641  59396.45271   51.6741   0.32031   18.5601  59449.25919 
    14.11548  1.77186   8.23863       0.24433         5716.08691  0.01074  0.25084     0.01011  2.13846     20.67482   6944.07934   -10.06567   1.4027   4012.6457  0.26275  59393.35878   51.6298   0.47692  18.58703  59449.25919 
    14.23067  1.48761   7.24667       1.17303         3453.47966  0.00339  0.19413     0.01109  2.68871     20.65369   8464.98877   -11.83124  0.49104  3922.56709  0.25027   59391.5932  51.64132    0.1618  18.60551  59449.25919 
    14.07605  1.83775   6.26686        1.1633         2304.61443  0.00815  0.27586     0.01189  1.95525     21.09581   5395.51907   -12.61778  0.84717  4109.76547  0.69269  59390.80666  51.63771   0.35119  18.54476  59449.05461 
    14.00088  1.73542   8.25093        0.0281         4082.31879  0.01573  0.21617     0.01174  3.35528     20.42051   8861.80917   -12.07797  1.29893   4805.5277   0.1463  59391.34647  51.84588   0.80088  18.57153  59449.25919 
     14.2283  1.73679   7.30979       0.95442         2920.59572  0.00222  0.31783     0.01451  1.78582      20.8837    7562.1024   -11.50307  0.66135  4102.34698  0.42504  59391.92138  51.62273   0.09259  18.60331  59448.46057 
    14.67402  1.76598   7.48436       0.03031         2993.66919  0.00232  0.27148     0.01064  2.92347     20.62316    5031.3772    -7.20055  0.47964  4172.47973  0.23328  59396.22389  51.70585   0.11325  18.61403  59449.25919 
    14.27004  1.90693   7.62046       0.46668         2038.76984  0.00369  0.30678     0.01981  1.99944     20.99405   3942.44949    -9.70345  0.81887  4747.24571  0.54799  59393.72099   51.7662   0.16009   18.5608  59452.77619 
    14.45133  1.81422   5.68346       0.08751         4344.79929   0.0013  0.23571     0.02791  2.92736     21.05198   9662.27621    -8.70943  0.81897  4034.04909  0.62619  59394.71501  51.67672   0.06373  18.62556  59449.25919 
    14.24075  1.91933   8.38432       1.60965         2419.26742  0.00212  0.21122     0.01126  3.02912     20.70982   7513.42196   -12.23229  0.66443  4677.71354  0.28481  59391.19216  51.80967     0.105  18.58228  59449.25919 
    14.44744  1.55572   5.29876       0.18165         2676.55792  0.00382  0.21238      0.0168  2.19937     21.19663    8934.6422     -9.4925  0.28944  4420.74571   0.8737  59393.93194  51.71788   0.17101   18.5428  59449.25919 
    14.89178  1.92177   8.48541       0.84618         3601.23911  0.00557  0.30962     0.01129  3.04467     20.45808   6829.05947    -7.71846  0.31454  4194.45567  0.15952  59395.70598   51.7156   0.27572  18.57455  59449.25919 
    14.62722   1.9385   7.54218       0.62582         2582.61807  0.00626  0.31475     0.01544  2.03902     20.89359   9305.99629    -7.53534  0.50313   3994.9231  0.43483  59395.88911  51.61916    0.2735  18.57276  59452.77619 
    13.90187  1.76662   7.17932       0.11592         3671.46468  0.00332  0.31549     0.01867  1.77562     20.83912   3559.40298   -10.34809  1.25646  5265.53054  0.38357  59393.07635  51.83868   0.13847  18.60253  59449.25919 
    14.55903  1.90227   7.95991        0.0204         5158.02708  0.00261   0.2812     0.02425  2.31783     20.83395   7013.62899   -10.66922  0.53462  3989.26896  0.37903  59392.75522  51.63597   0.11904  18.57551  59449.25919 
    14.49052  1.86231   7.87956       2.79185         2109.76356  0.00702  0.33192     0.02664  1.18246     20.89917   4815.81667    -7.11764    0.433  4050.21106  0.44045  59396.30681  51.54475   0.25131  18.57115  59452.77619 
    14.09452  1.70253   7.62467       1.37678         2669.34209  0.00185  0.25601     0.01466  1.72702     20.82785   9311.61732    -9.91537  1.15275  3963.57235  0.37375  59393.50907  51.58777   0.07658  18.56769  59452.77619 
    14.93945  1.94434   9.44658       0.05446         2847.69359   0.0758  0.17721     0.02024  4.38706     20.74658   5005.28604    -9.34304  0.22684   5024.7185  0.30996  59394.08141  51.91651   4.15268  18.53986  59449.25919 
    14.15938  1.63378   8.11488       3.79374         2821.03565  0.00239  0.31207     0.01066   3.6985       20.319   9033.64062   -10.83261  1.13116  4847.70924  0.11581  59392.59183  51.86533   0.12506  18.57628  59449.25919 
     14.2248  1.98933   9.62368        1.6337         3929.65507  0.00191  0.28744     0.01203  1.68202      20.4379   4115.24018   -10.65507   0.8229  4010.04663  0.15227  59392.76938  51.59386   0.07819  18.52964  59449.25919 
    14.84501  1.84541   8.53641       0.59054         3766.30351  0.00361   0.3371      0.0183  1.58499     20.81295   5074.89355    -6.64858  0.25572  3975.29414  0.36114  59396.77586  51.57709   0.14479  18.57171  59449.05461 
    14.27902  1.78801   7.67525       0.67824         3402.13996  0.00367  0.32224     0.01062  2.07286     20.76203   6582.70893   -11.52448  0.91148  3859.99317  0.32118  59391.89996  51.59168   0.16136  18.57025  59453.46794 
    14.06051   1.5445   7.02174        0.0917         4737.84979  0.00263  0.33438     0.01335  1.89359     20.75692   7053.23268    -8.86152  1.55027  4171.88617  0.31743  59394.56293  51.64604   0.11219  18.57611  59449.25919 
    13.98845  1.23772   5.67271       0.06504         3622.12868  0.00313  0.27857     0.01162    1.947     20.86571   9587.84356    -8.46362  1.04847  4104.30274  0.40779  59394.96083  51.63594   0.13462  18.55256  59452.77619 
    13.93622  1.60274   7.13138       0.31892         3043.42699   0.0036  0.29262     0.01052  2.02864     20.68008   9322.70168   -10.39601  1.41808  4323.63887  0.26595  59393.02844  51.68711   0.15713  18.63298  59452.77619 
    13.99467  1.15953   5.68331       0.91389         2220.37916  0.00131   0.1343     0.01225  3.61965     20.86108   7445.63958    -8.32329  1.01518  3964.29243  0.40347  59395.10116  51.68799   0.06798  18.61635  59449.05461 
    14.19108  1.53745   6.50065       0.32778         2049.50938  0.00153  0.30306     0.01091  2.11767     20.84208   4308.73224   -12.09439  0.71262  3821.18703   0.3862  59391.33006  51.58595   0.06756  18.54436  59448.46057 
    14.15217   1.2861   7.75189       2.27246         4736.80122  0.00674   0.2711     0.01155  1.80688     20.39336   3628.19791    -8.84842   0.8413  2788.72298  0.13743  59394.57602  51.28923   0.28288  18.56094  59449.25919 
    14.50799   1.6845   7.10018       0.25656         3395.89758  0.00394  0.28721     0.01232  2.34604      20.8804    6288.4153   -10.18619  0.38484  4335.57133  0.42182  59393.23826  51.70994   0.18002  18.60663  59452.77619 
    14.11162  1.73437   7.97158       0.14876         3624.33529  0.00317  0.20155     0.02498  2.80173     20.83733   4648.72537   -11.08402  1.52244  4428.96411  0.38199  59392.34042  51.75217   0.15328  18.59854  59453.46794 
     14.0613  1.70226    8.8604       2.50834         3982.09662  0.00965  0.29836     0.01375  1.55285     20.57253   3154.39782    -8.12916  1.56994  3775.74658  0.20761  59395.29528  51.52913   0.38377  18.57248  59452.77619 
    14.16791  1.82707   6.99081       0.08244         4953.86192  0.00122  0.33787     0.01091  1.51558     20.91341   8901.73194    -10.8033   0.7856  3885.42733  0.45513  59392.62114  51.55015   0.04796  18.57642  59449.25919 
    14.03163  1.72895   7.88661       0.14298          2744.6507  0.00173  0.13697     0.01087  3.47853     20.77058   5854.33957    -8.75377  1.44423  4710.83229  0.32758  59394.67067  51.83303   0.08904  18.57253  59449.25919 
    14.56599  1.98488   7.86911       0.71589         4089.62427  0.00159  0.32126     0.01107  1.89036     20.90503   9158.42328    -9.13649  0.34058  4299.37412  0.44643  59394.28795  51.67194   0.06784  18.56756  59449.25919 
    14.40086  1.63989   9.19484       1.37655         3640.66483  0.00185  0.17611     0.01559  3.39289     20.29449   5338.56962    -6.79549   0.6429  4431.05731  0.10945  59396.62896  51.77679   0.09457  18.55912  59452.77619 
    14.13831  1.80193   8.01125       0.21307         4514.81709  0.00207  0.31349     0.01617  0.90003     20.51451   5072.14731    -12.4417  0.74321  3285.82014  0.18165  59390.98275  51.31239   0.06609  18.58087  59449.25919 
    15.16958  1.91161   8.00501       0.04192         3189.42066  0.01511  0.12184     0.02214  5.48477     20.78766   6683.74501    -7.92578  0.16118  3996.67395  0.34071  59395.49866  51.74256   0.87653  18.54506  59449.05461 
    14.29208  1.80933   8.13542       1.96438         2982.83933  0.00994  0.21266     0.01121  2.96121     20.77354   8048.88195   -10.66844  0.56695  4689.97806  0.32981  59392.75601  51.80905    0.4881  18.57987  59452.77619 
    14.22142  1.80216   8.35401       0.28065          2836.9603  0.00368  0.28101      0.0102  2.20241      20.6134   5560.30322    -9.27251  1.05786  3860.47645   0.2281  59394.15193  51.60037   0.16502  18.53743  59452.77619 
    14.04234  1.60988   7.94558        1.5929         3417.87983  0.00103  0.30791     0.01382  1.93916     20.62213   3651.02259    -8.91837  1.32158  4290.37283  0.23273  59394.50607  51.67386   0.04436  18.55781  59452.77619 
    14.28781  1.68646   5.93132       1.35013         3176.07465  0.00242  0.27032     0.01461   1.6183     21.09771    9896.9109    -12.5636  0.33195  3862.13169  0.69573  59390.86085  51.55525   0.09763  18.58384  59452.77619 
    13.98625  1.67356   7.64689       0.69766         2159.23871  0.00143   0.3257     0.01657  1.63545     20.68349   3456.88102   -12.07189  1.35403  4302.63523  0.26805  59391.35255   51.6507   0.05779  18.56128  59449.25919 
    14.09386   1.5982   7.48106       0.33758         3123.05914  0.00101  0.18835      0.0105  2.68579     20.73673   3085.12747    -8.65485  1.29176  3996.28553  0.30301  59394.76959  51.65735   0.04794  18.58579  59449.25919 
    13.99745  1.67289   7.33055         0.329         4548.73011  0.00726  0.27545     0.01594  1.15439     20.82511   3755.28616   -10.46215  1.33658  3433.57371   0.3714   59392.9623  51.39706   0.25746    18.607  59449.25919 
     14.2534  1.76155   8.71115       2.01237         2773.66251   0.0012  0.33934     0.01527  1.25591     20.56093   8765.60757    -8.43335  0.86792  3681.87422  0.20214  59394.99109  51.47238   0.04389  18.58246  59448.46057 
    14.58266  1.98007   9.46761       0.86887         2825.24429  0.15945  0.25109     0.01106  3.57631     20.70654   7150.32485     -9.5751  0.44938  5403.39503  0.28266  59393.84935  51.95554   8.26433  18.63863  59449.05461 
     14.1297  1.79424   8.10149       1.46785         2452.97583  0.00782  0.23021     0.01468   2.2247     20.75553   8819.91289   -11.25078  0.97094  4486.93649  0.31642  59392.17366  51.73239   0.35154  18.53864  59448.46057 
     14.0619  2.07799   7.71054       0.01422         4522.50098  0.00147  0.25175     0.01115  2.37224     20.92444     5985.947   -11.66131  1.29747  4536.03433  0.46684  59391.76314  51.75072    0.0673  18.56188  59452.77619 
    14.53047  1.98641   8.49447       3.04522          2286.4507  0.00125  0.30616      0.0125  1.97135     20.76267   4293.08798    -8.74693  0.58516  3812.24547  0.32166  59394.67751  51.57363   0.05388  18.59012  59449.25919 
    14.02075   1.4917   7.20437        0.5765         3056.71423  0.00316  0.32062     0.01281  2.16769     20.57803    6623.8163   -11.73435  1.48001   4053.5905  0.21026  59391.69009  51.64053   0.14068  18.54766  59452.77619 
    14.23456  1.66228   7.84272       0.06793          2565.6178  0.00482  0.26558     0.02193  2.03016      20.7482   6967.95764   -10.27512  0.58966  4865.33593  0.31112  59393.14933  51.78975   0.21017  18.57927  59452.77619 
    14.05577  1.60048   8.05503       1.01573         2061.17576  0.00186   0.1408     0.14808  3.40076     20.62459   5898.10473   -11.89634  1.18851  4096.53024  0.23406   59391.5281  51.70889   0.09524  18.55643  59449.25919 
    14.15813  1.49922   8.41326       0.26474         3866.95797  0.00711  0.20076     0.01119  3.50207      20.1386   8745.97378    -9.51273  0.98222  4497.73399  0.07644  59393.91171  51.79364   0.36611  18.57172  59452.77619 
    14.39068  1.70875   8.12458       1.31162         2837.23588  0.00109   0.3076     0.01251  3.13445     20.43431   4425.45407    -8.62963  0.82584   4447.3655  0.15102  59394.79481  51.77013   0.05455  18.63079  59449.25919 
    14.02532  1.37345   6.67308       0.27237         2279.37056  0.00123  0.29321     0.01172  2.45302     20.60576   8321.05607   -10.34216  1.22282  4188.39639  0.22412  59393.08229  51.68603   0.05693   18.5559  59452.77619 
    13.90073  1.65696   5.81949       0.01758         3160.49426  0.01078  0.27815     0.01037  1.87565     21.01101   8425.65933   -11.62933  0.95834   4342.8522  0.56982  59391.79512  51.67952   0.45825  18.58333  59448.46057 
    13.99057  1.89702   6.46155        1.0164         2518.07902  0.00114  0.30011     0.01972  1.32027     21.03304   9829.42064   -10.03754  0.79022  4525.02076  0.59948   59393.3869  51.65995    0.0428  18.58069  59452.77619 
    14.02902  1.66647   7.26829       1.41589          2295.7976  0.00114  0.29483     0.01717  1.77542     20.87006     8981.718   -11.63174  1.28667  3927.39369  0.41189   59391.7927  51.58399   0.04749  18.55362  59449.05461 
      14.054  1.38815   6.84835       0.02222         3109.72507  0.01297  0.28638     0.01277  2.15613     20.67258   6667.07178    -8.43669   1.0733  4479.02594   0.2614  59394.98775  51.72647   0.57745  18.58531  59452.77619 
    14.28392  1.88228   7.81117       0.36042         3529.88568  0.00254  0.31393      0.0143  1.60177     20.84259   5887.19321    -10.6854  0.57405  4287.14853  0.38665  59392.73904  51.64433   0.10232  18.58007  59449.25919 
