 texplosion  fnickel    Pspin  log(Bfield)      Mns  thetaPB  mejecta    kappa  kappagamma     vejecta  temperature    alpha  cutoff_wavelength  log(nhhost)      A_V         MJD0  kenergy  mnickel             TSD   log(L0)  Peak_mag     Peak_MJD  log(E_rad)  log(Peak_lum)  Rise_Time    E_fold  tau_1  delta_m15     r_peak     frac 
  -12.35243  0.00117  7.17551     14.58538  2.14514  0.32459  3.15911  0.17895     0.01109  4749.73932   9996.05427  1.30899         2424.76551     21.08518  0.67593  59391.07202  0.42514  0.00368    692173.17472  45.04838  18.59726  59453.39081     50.5889       43.78273   43.73258  47.32453   38.5    0.17709  -20.16911  0.99923 
  -11.98281  0.00102  6.56086     14.00186  2.10478   1.1595  1.62773  0.26436     0.01425  4752.20625   9808.76286  0.23784         2483.16445     21.02225  0.58476  59391.44163  0.21928  0.00166   8341196.06906   44.0369   18.5147   59452.5451    50.59459       43.85966   35.82741  40.81939   38.5    0.18168  -20.14113  0.99969 
   -9.56234  0.00484  6.73596     14.61385  1.95384  0.39411  3.70427  0.23051     0.01044  5186.63616   9994.12699  0.20946         2243.18265     20.96538  0.51299  59393.86211  0.59443  0.01791    487304.15594  45.21514  18.54323   59452.5451    50.59547       43.82549    41.9277  43.68682   31.5    0.22401  -20.11816  0.99634 
  -12.70322  0.02449  5.69282     14.14785  1.65985  0.93634  2.65775  0.29555     0.01861  5254.93292   9579.00097  0.02232         2182.63069     21.09808  0.69632  59390.72123   0.4378  0.06509   2528387.11014  44.57542  18.51589   59452.5451    50.53125       43.74355   39.70294  47.37843   35.0    0.19086  -20.23689  0.98795 
  -10.23517  0.00116  7.34444     14.41643  1.96755   0.6477  2.54126  0.30997     0.01047  4706.98793   9645.64124  1.08463         2043.30485     20.81259  0.36084  59393.18927  0.33586  0.00294   1448107.79888  44.67005   18.5219  59453.39081     50.4047        43.6091     44.721  44.61969   34.0     0.2026  -19.92595  0.99929 
   -9.79447  0.01417   6.3187     14.34558  1.60187  0.49803   4.5467  0.14339     0.01054  5313.50421   9673.38068  0.51407         2636.97373     20.97656  0.52637  59393.62998  0.76575  0.06445   1209334.55602  44.78967  18.48664  59453.46794    50.61871       43.83872   40.81939  46.26198   35.0    0.20413  -20.12362   0.9844 
   -9.47035  0.00713   7.6499     14.17157  1.73097  1.42343  2.32366  0.27219     0.01898  4651.36967   9437.58797  0.58746         5077.15255     20.91296  0.45466  59393.95409  0.29989  0.01658   4268449.47257  44.10955  18.51451   59452.5451     50.5735       43.73378   49.00446  51.68337   38.5    0.18093  -19.98178  0.99474 
  -11.84877  0.00376  5.72039     14.18113  1.76447  0.52526   2.5601  0.30005     0.01373   6008.9918    9292.8066  0.35657         2005.48242     21.09428  0.69025  59391.57567  0.55143  0.00962   2328201.74781  44.63359  18.55397  59453.39081    50.37399       43.55922   44.36727  48.15669   35.5    0.21602  -20.30865  0.99827 
  -11.12241  0.02099  7.20258     14.40814  2.14209   0.9386   3.9131  0.27045     0.01348  5373.97386   9911.11845   0.8782         2034.72081     20.98929  0.54202  59392.30203  0.67412  0.08216   1575271.31784  44.68735  18.58438   59455.4756    50.61958       43.72563   39.70294  55.54231   35.0    0.20481  -20.11062  0.98361 
  -12.28684  0.00656  6.20234     14.29668  1.79843  0.83848  2.41827  0.31502     0.01356  4539.84495   9869.62403  0.03739         4087.51353     20.94674  0.49144  59391.13761  0.29731  0.01587   1638571.74384  44.72416   18.5332  59449.56528    50.28256       43.48512   43.99129  46.26198   34.0     0.1934  -20.03076   0.9969 
   -9.81188  0.06235  5.71207     14.06648  1.57121  1.15039  4.04418  0.23928     0.01187  5760.21866   9790.22624   0.3722         2321.64346     21.05655  0.63281  59393.61256  0.80045  0.25215   3504926.09534  44.40681  18.51855  59453.46794    50.55663       43.78017   43.54068  43.54068   34.0    0.21998  -20.24104   0.9508 
  -11.72982  0.00105  5.67402      14.1272  1.72096  0.80169  3.14694  0.25691     0.01338  5575.17572   9736.92477  0.03189           3142.394     21.10931  0.71456  59391.69463  0.58349  0.00331   2863970.54934  44.53986  18.52103  59453.46794    50.60513       43.80626   43.39455  46.40812   34.0    0.21763  -20.31748  0.99941 
    -9.5259  0.06646  6.08994     14.23523  1.52225  0.99897  5.09507  0.25704     0.01263   6170.8932   8778.69132  0.28758         2420.04312     20.90283  0.44418  59393.89854  1.15737  0.33861   1774434.71923  44.63305  18.50823   59452.5451     50.5108       43.70881   40.21128  49.12941   36.0    0.18011  -20.06185  0.92442 
  -10.86928   0.0384  6.71168     14.35857  1.87759  0.77384  3.28283  0.28493     0.02239  5655.51907   9497.96985  0.39456         2423.27427     21.01052  0.56918  59392.55516  0.62636  0.12606   1506422.35001  44.71084  18.53387  59453.39081    50.62842       43.85995   39.66275  44.69732   36.0    0.18859  -20.18971  0.97355 
  -12.69876  0.00478  4.88469     14.12113   1.5844  1.35427   3.9431  0.25626     0.01011   4982.9566   9893.98809  0.09913         2144.13619     21.05144  0.62541  59390.72568  0.58403  0.01885    2009530.7878  44.78794  18.57439  59447.58912    50.35603       43.49235    51.1543  53.50928   33.0    0.19866  -20.18533  0.99726 
  -11.92302   0.0013   5.2107     14.64613  1.55128  0.22202  3.40703  0.32519     0.01073   5435.9287   9566.63026  0.34461         3374.58488     21.07441  0.65938  59391.50142  0.60055  0.00443    199540.06873  45.72571  18.62602  59453.39081    50.51863       43.73909    41.9277  43.72604   35.0    0.18988  -20.25171  0.99923 
  -11.26107  0.00124   5.1133     14.37114  1.88921  0.99557  3.87034  0.29979     0.01348  5312.27996   9904.19625  0.09188         3736.45185     21.09818  0.69648  59392.16337  0.65154  0.00479    830253.01844  45.20851  18.56453  59453.46794    50.56217       43.74021   43.73258  50.04583   32.5    0.20184  -20.23231  0.99941 
   -9.27385  0.00195  6.85838     14.57015  1.64926  0.46432  3.89307  0.26812     0.21168  5333.09175   9153.69669  0.12362         5200.05136     20.76408  0.32271   59394.1506  0.66051   0.0076    521490.87801  45.09645  18.55771  59455.52492    50.62358       43.65021   44.79513  65.31103   45.5    0.15004  -19.91868  0.99794 
   -11.9411  0.00347  7.79481      14.1222  2.13056  1.21482  2.35072  0.28939      0.0169  5647.15372   8959.55298  0.09693         3515.77425     20.94144  0.48548  59391.48334  0.44718  0.00815   6847397.27754   43.9782  18.51932  59453.46794    50.52868       43.71882   40.81939  48.98327   37.5    0.19731  -20.09515  0.99796 
  -10.25238  0.33362  6.56604     14.35579  1.61295  0.67827  3.71408  0.23239     0.01244  5742.11215   9530.74503  0.23661         2265.81651     21.03552  0.60291  59393.17206   0.7305  1.23911   1254461.31283   44.7434  18.55455  59453.46794     50.6615       43.81069   36.60926  50.01013   34.5    0.20651  -20.19223  0.75717 
  -11.32135  0.00394  5.91675     14.34986  1.79312  0.61029  5.31425  0.15204     0.01514  5768.53887    9845.7976  0.06964         3131.59913     21.14635  0.77818  59392.10309  1.05487  0.02093   1163760.95491  44.91243  18.44866  59446.36164    50.46203       43.65433   46.26198  46.26198   35.0    0.19823  -20.35395  0.99624 
   -8.71517  0.01424  5.76635     14.51581  1.89503  0.41718  3.06088  0.24971      0.0115  5583.60448   9964.35508  0.70861         2563.79888     21.15475  0.79338  59394.70927  0.56925  0.04359     544023.0056  45.28904  18.51652  59453.46794    50.54595       43.73293   42.01615  50.04583   32.0    0.21953  -20.38518  0.99319 
   -8.72534   0.0883   5.4132     14.30614  1.79663  0.83703  3.88826  0.27015     0.01284  6132.05502   9404.99098  0.70094         2011.99259     21.15643  0.79644  59394.69911  0.87216  0.34333   1193726.15393  44.97949  18.56573   59452.5451    50.48136       43.70048   37.39206  44.73654   32.5     0.2021  -20.40622  0.95146 
  -11.20501  0.05883   5.6413     13.92607  1.42058  1.25705  3.08855  0.22438     0.01391  5320.65568   9730.70163  0.25012         2390.57651     21.01306  0.57252  59392.21944  0.52157  0.18171   5900542.52228  44.14766  18.54386  59453.46794    50.47919       43.66445   46.43742  47.34098   34.5     0.2129  -20.14307  0.95883 
  -12.47457  0.15622  6.71848     14.11157  1.43993  0.92238  3.78275   0.1727     0.01182  4968.25735   8990.61867  0.64148         2601.42182     20.91417  0.45593  59390.94987  0.55698  0.59093   3610488.51603  44.21508  18.57028   59452.5451    50.56684       43.79077   40.81939   43.5799   40.0    0.16904  -19.96808  0.83822 
  -11.76532  0.00218  6.90763     14.17691  1.83662  0.74445  1.66369  0.30649     0.01631  4533.18951   9897.46112  0.19354         5349.89594     20.90698  0.44844  59391.65913  0.20394  0.00363   3603029.45362  44.29754  18.53157   59452.5451    50.53608       43.77711    38.5487  43.54068   37.5    0.20066  -20.03247  0.99911 
  -10.98699  0.00239   6.1484     14.29741  1.82671  0.99522  3.67456  0.19409     0.01075  4602.89934   9958.85853  0.02429         3668.66609     20.99616  0.55066  59392.43745   0.4644  0.00877   1629988.35759  44.74081   18.4861   59455.4756    50.58557       43.77575   46.64706  48.15669   33.0    0.18509  -20.04255  0.99836 
  -13.10454  0.40769  8.95536     14.09494  1.61525  1.44257  4.36738  0.19118     0.01296   5699.4921   7069.24344  0.11792         3657.66614     20.93112  0.47408   59390.3199  0.84629  1.78053    7768640.8437  43.68257  18.51948   59452.5451    50.49159        43.6708   47.51643  48.98327   51.5    0.16153  -20.02303   0.5302 
  -12.42549  0.00712   6.4051     14.27393  1.69332  0.60994  2.93188  0.24547     0.01238  4735.26134   9789.23391  0.30043         3291.95084     20.93896  0.48271  59390.99895  0.39216  0.02087   1827060.02574  44.62278  18.50172   59452.5451    50.42239       43.62071   40.20744  47.32453   36.5    0.18706  -20.05613  0.99515 
  -13.65755  0.00873  4.45283     13.81108  1.24643  1.27451  2.49347    0.294     0.01343  4909.42386   9857.74119  0.02644         4887.11641     21.09347  0.68896   59389.7669   0.3585  0.02176    5477690.6344  44.32864  18.51266  59449.56528    50.50074       43.70079   45.18297  47.34098   35.0    0.18802  -20.22102  0.99614 
  -12.59156  0.00334  6.65726     14.11944  1.57638  0.83809   3.4457   0.2643     0.01159  5076.06852   9956.18222  0.12587         4728.44274      20.7383  0.30411  59390.83289  0.52961  0.01152   3742767.77805  44.24672  18.51714   59452.5451     50.5072       43.71074   42.44105  47.36161   42.5    0.21722  -19.90141  0.99676 
  -12.41224  0.02262  5.23682     14.02272  1.50116  1.25934  3.88553  0.23814      0.0102  5351.65011   9862.11326  0.15596         3769.33398     21.05048  0.62404   59391.0122  0.66382  0.08788   3443042.18214   44.4702  18.52196   59452.5451     50.5468       43.73186   43.09919  48.98327   33.5    0.21223   -20.2343  0.98408 
   -9.32865   0.0016  4.51868     14.37692  1.57177  0.89554  5.22346  0.19163     0.01163  5268.90596   9274.76343  0.04873         2819.49228     20.99749  0.55236  59394.09579  0.86502  0.00838    525280.37108  45.43482  18.52674  59453.46794     50.5548       43.77642   40.35742  46.26198   33.0    0.18314  -20.08646  0.99896 
   -9.94086  0.00157  5.41436     14.33237  1.72386  0.65855  4.04087  0.33461     0.01067   5893.8966   9510.42889  0.07833         3325.78249     21.06529  0.64568  59393.48359  0.83735  0.00635   1015460.16673  45.03159  18.48709   59452.5451    50.61392       43.84143   42.44105  41.95825   33.0    0.21389  -20.26321  0.99899 
   -9.19684  0.00424  4.47742     14.51456  1.76045  0.55387  5.14034  0.17921     0.04998  5537.14596   9933.98989  0.01442         4675.15169      21.1984  0.87726  59394.22761  0.94014  0.02179     306467.6282  45.72603  18.48781  59453.46794    50.62009         43.833   39.24096  47.37843   36.0    0.16547  -20.38648  0.99774 
  -13.93094  0.00158  5.81516     14.03814   1.6368  0.82946  2.01485  0.33937     0.01059  4739.62371   9538.04244   0.0293         4053.07643     20.94989  0.49501   59389.4935     0.27  0.00318   4311790.94813  44.31906  18.60141   59452.5451    50.45893       43.70386   39.66275  41.97603   35.5    0.19806  -20.02407  0.99935 
  -10.39289  0.09328  5.66707     14.01209  1.65508  0.79106  2.37139  0.25124     0.01352  5626.36754   9404.46505  0.49676         2651.27438     21.12197  0.73569  59393.03155   0.4478  0.22121    4668400.1245  44.31178  18.47615  59446.36164      50.506       43.67895   49.00446  48.96208   36.5     0.1971  -20.28575  0.95882 
   -9.67201   0.0919  5.76642     14.62918   1.8953  0.42994  3.72357  0.21842     0.01132  5244.28736   9943.54627  0.06535         4338.03132     21.09577  0.69262  59393.75243  0.61088  0.34221    322802.73345  45.51577  18.50781  59453.39081    50.56395       43.79091   42.44105  44.64032   32.0    0.20928  -20.26152  0.94954 
  -12.63237  0.03091  7.30886     14.17393  1.84529  0.49738  5.57335  0.33847     0.01601  9886.65745   8542.73287  0.70434         3098.99403     20.26468  0.10219  59390.79207  3.24969  0.17227   4108934.77439  44.19348  18.54305  59449.56528    50.34084       43.55772   42.91228  44.61969   52.0    0.13454  -19.67987  0.95177 
   -9.78551  0.00658  5.23449     13.86644  1.13749  1.46403  2.44557  0.32106     0.01409  5471.02246   5496.06777  0.02783         5054.31825     20.81011  0.35879  59393.63893  0.43666  0.01609   5353316.76439  44.15842  18.52267   59452.5451    50.65655       43.89885   40.95739  41.93585   40.0    0.22606  -19.95364   0.9955 
   -9.53325  0.00113  5.18675     14.85601  2.15807  0.33509  3.62339   0.2372     0.01154  5085.73116   9927.40292  0.18252         2453.29031     21.12108  0.73418   59393.8912  0.55905  0.00409    104626.81512  46.15348  18.47592  59453.46794    50.54133       43.76444   43.07871  43.54068   31.5    0.18368  -20.29062  0.99958 
    -10.878  0.00118  4.37156     14.25939  1.14523  0.38143  2.39945  0.32204      0.0117  4865.57509   9878.16163  0.72019         2170.80096     20.98705  0.53923  59392.54644  0.33885  0.00283    615450.64838  45.25727  18.53553   59452.5451    50.56011       43.79394   40.81939  43.54068   33.0    0.21145   -20.1024  0.99946 
  -11.95157  0.00489  6.04894     13.95924  1.72104  1.38713  3.47937  0.23968     0.01472  5712.78201    9989.8665  1.72627         2065.28762     21.08744  0.67947  59391.47287  0.67736  0.01703   7054698.47908   44.0928   18.5515   59452.5451    50.47176       43.64214   41.26999  51.70456   38.5    0.21403  -20.26615  0.99651 
  -10.90681  0.00306  7.34658     14.61916  2.05512  0.29175  3.66957  0.22615     0.01125   5995.3336   9346.92747  0.04629         4730.63875     20.97817  0.52832  59392.51763  0.78681  0.01124    594993.92265    45.075  18.55108   59455.4756    50.42877       43.61657   44.36727  48.15669   35.0    0.21473  -20.16168  0.99738 
   -9.70218  0.00993  5.94789     14.44678  1.60603   0.4939   3.5715  0.26207     0.01387  5288.86609   9906.29197  0.00644         3314.63544     20.95486  0.50072  59393.72226  0.59594  0.03546    674112.65397  45.09714   18.4943   59452.5451    50.47894       43.72853   40.17036  41.91903   33.5    0.22822  -20.07959  0.99249 
  -13.17746   0.0035  5.62948     13.61283  1.86611  1.40079  1.43817  0.33671     0.02483   5332.6461   9304.78961  0.60434         4046.86903     20.94984  0.49495  59390.24699  0.24396  0.00503  32660876.48511  43.52482   18.4575   59452.5451    50.52285       43.73181   44.79513  46.26198   50.5    0.15602  -20.06024  0.99904 
   -11.5723  0.00159  5.70694     14.53491  1.82278  0.40104  2.21375  0.32752     0.01618  5056.10154   9740.65705  0.06125         2030.12771     21.08145  0.67015  59391.85214  0.33759  0.00353    469394.02487  45.34524  18.50374   59452.5451    50.61182       43.85964   37.36682   41.0887   33.5    0.18499  -20.24622  0.99943 
  -11.78012  0.00287  8.44893     14.25839  1.94196   0.7272  5.08027  0.17441     0.01047  5833.89134   9093.37598  0.26404         3634.64116     20.68575  0.26945  59391.64432  1.03141  0.01457   3916330.14962   44.1106  18.54917  59453.46794    50.58592       43.75033   39.35255  54.42586   46.5      0.165  -19.84508  0.99506 
   -8.11613  0.01323  7.49269     14.09247  1.79081  1.54012  1.57927   0.3128     0.01267   4832.9764   8853.50683  0.10478         5267.80341     20.68514  0.26907  59395.30832  0.22005  0.02089   6098085.38005  43.98743  18.46455  59449.56528    50.51944        43.6993   47.51643  48.98327   35.0    0.23116  -19.86176  0.99387 
  -14.09655  0.01497  5.94725     14.28653  1.50164  0.56069  4.39801  0.20433     0.01081  4950.25103    9786.5349  0.83407         2094.07057     20.92979  0.47263   59389.3279  0.64289  0.06583   1318100.70086  44.77683  18.53876   59455.4756    50.62071       43.81632   44.79513  46.26198   37.0    0.19064  -20.02706  0.98452 
  -11.37308  0.00393  5.91959      13.9429   1.7603  1.23481  3.30145  0.26279     0.01466  6262.10665   9845.27691  0.92885         2252.16619     21.11449  0.72312  59392.05136  0.77228  0.01297   7450646.63398  44.09765  18.62432  59453.39081    50.26428       43.43178   47.53762  48.96208   37.5    0.21907  -20.34031  0.99751 
  -12.74428  0.00218  6.19174      14.0533  1.75444  1.06516  2.94333  0.25971     0.01297  5275.27877   9860.48693  0.10342         2632.21509     21.00273  0.55906  59390.68017   0.4886  0.00642   4886250.04671  44.24038  18.51821   59452.5451    50.59538       43.84026   40.81939  40.81939   34.5    0.21943  -20.17541  0.99867 
  -13.86355  0.00331  5.41047     13.94876    1.516  1.03043  4.11541   0.2742     0.01215  5855.74616   9803.60171  0.06319         2512.86092     21.04511  0.61636  59389.56089  0.84179   0.0136   5217598.81041   44.2656  18.53398   59452.5451    50.42825       43.65721   41.97907  41.95825   42.0    0.20645  -20.21516  0.99731 
  -10.52125  0.00231   5.6815     14.15967  1.64858   0.7885  2.53602  0.28529     0.01378  5119.56954   9988.22322  0.09662         3420.76856     21.04747  0.61973   59392.9032   0.3965  0.00587   2368660.96554  44.60253  18.50188  59453.39081    50.57296       43.80012   40.81939   43.5799   33.0    0.21942   -20.2087  0.99889 
  -11.73437  0.00772  6.58712     14.61797  1.89719  0.38043  3.16256  0.30995     0.01716  5542.69517   9415.63793  0.00296         5906.07024     21.02155  0.58382  59391.69007  0.57957  0.02441    444003.84831  45.26218  18.47038   59452.5451    50.67802       43.92289    38.0981  43.54068   34.5    0.19868  -20.17071  0.99503 
  -12.19678  0.07624  5.35745      13.9607  1.38664  1.11957  2.98839  0.22927     0.01907  5355.38932   9279.98496  0.18647         3171.95001     21.06984  0.65248  59391.22767  0.51127  0.22783   4428923.33821  44.30659  18.55083   59455.4756    50.54425       43.75242   42.47813  47.32453   39.0    0.17308  -20.23057  0.95242 
  -12.48289  0.01692  5.88491     13.78967  1.86351  1.34886  3.85126  0.16172     0.01001  5812.00803   9414.19117  1.51239         2229.89808      21.0662  0.64704  59390.94155  0.77604  0.06516  15786782.30622   43.8014  18.51256  59453.46794     50.6075       43.81107   43.54068  46.26198   41.0     0.1831  -20.24306  0.98802 
  -10.14208  0.00265  8.21466     14.27352  1.84817  0.95637  1.95893  0.32025     0.01139  4291.28453   6681.78118  0.52557         4796.57575     20.67135  0.26066  59393.28237  0.21519  0.00519   3286190.24856  44.18971  18.50851   59452.5451    50.53944       43.75647   40.17036  44.64032   43.0    0.20131   -19.8025  0.99826 
  -12.55108  0.00346  5.21059     13.78055  1.43194   1.3459  3.28625  0.13469     0.01016   4773.3467   9930.27444  0.17621         3962.42462     21.05106  0.62486  59390.87336  0.44666  0.01136   9917880.53925  43.99458  18.56141   59452.5451    50.53112        43.7672    35.5581  43.80999   39.5    0.17918  -20.17224  0.99768 
