 texplosion  fnickel     Pspin  log(Bfield)      Mns  thetaPB   mejecta    kappa  kappagamma     vejecta  temperature    alpha  cutoff_wavelength  log(nhhost)      A_V         MJD0  kenergy  mnickel             TSD   log(L0)  Peak_mag     Peak_MJD  log(E_rad)  log(Peak_lum)  Rise_Time    E_fold  tau_1  delta_m15     r_peak     frac 
  -13.51497  0.00882   7.78628     14.18611  1.65096  0.91213    5.6226  0.01307     0.17885  6514.26618   5345.35228  1.62739         2005.36873     17.13351    8e-05  57341.70503   1.4233  0.04959   3944540.37497  44.10793  21.97613  57379.19142    50.62127       43.90052   15.87442  38.96449   74.0     0.1603  -19.94524  0.98246 
   -9.97602   0.0011   6.78988      14.1149  1.35387  0.95695   3.73994  0.01836     0.01939  6697.40959   3550.12739  1.44963         2055.98801     19.09642  0.00694  57345.24398   1.0007  0.00411   3414449.96219  44.20338  21.91638  57379.19142    50.46229       43.75629   21.64694  38.96449   49.5    0.20014  -19.93838   0.9985 
   -9.79383  0.30348   7.70882     13.93717  1.47654  1.28939   2.82581  0.02445     0.25882  6608.52674   8296.72982  3.65771         2523.94009     20.28214  0.10638  57345.42617  0.73617  0.85757  10881839.11298  43.62741  21.94307  57379.19142      50.621       43.96905   17.31755  28.86259   91.0    0.16424  -20.03979  0.72952 
  -10.03153  0.00577   8.08864      14.2988   1.6211  0.74868   5.56435  0.01558     0.02432  6701.26599   7208.93078  3.12317         2084.25053     18.68282  0.00268  57345.18847  1.49058  0.03211   2487575.11262  44.26713  21.94106  57376.93292    50.54522       43.81632   17.12207   40.6031   60.0    0.22843  -19.93611  0.98743 
  -11.68173  0.00674   5.95298      13.9591  1.18846  1.16447   3.32329  0.01797     0.06599  6389.46285   5786.48772   0.4043         2812.62545     18.87756  0.00419  57343.53827  0.80933  0.02241   4721364.33785  44.12029  21.94669  57379.19142    50.59938       43.74271   20.20381  56.28205   66.5    0.17883  -19.95021  0.99243 
  -16.16588  0.00377   8.83245     14.43634  1.95704  0.64731    5.1253  0.02217      0.1145  5469.67653   3752.25731  1.99559         2322.59779     18.34971  0.00124  57339.05412  0.91468  0.01932   1900596.01802  44.38939  21.95181  57379.19142    50.46047       43.73007   20.20381  50.50953   74.0    0.19522  -19.88925  0.99314 
   -9.92981  0.22727  10.47379     13.94761  1.54912  1.54905   8.31868  0.01222     0.06899  6273.45035   5127.28696  4.27447         2531.14484     16.49771    2e-05  57345.29019  1.95297  1.89061  20085730.73494  43.11583  21.95307  57379.19142    50.56948       43.95885   18.76068  30.30572  117.0    0.19495  -19.91064  0.40186 
  -11.16579  0.02323   8.35816     14.35308   1.7177  0.64665   3.66674  0.02213     0.09653  6379.12077   4083.88789  1.88495         2581.29428     19.81454  0.03625  57344.05421  0.89008  0.08517    2191877.6546  44.31875  21.94853  57379.19142    50.59045        43.9132   18.76068  33.19198   69.5    0.20931  -19.95995  0.96781 
  -14.72317  0.00167   8.36409     14.16718  1.73686  1.42463   2.52853  0.03334     0.17316  5261.88027   8704.17956   1.5204         2753.20685     17.25686   0.0001  57340.49683  0.41762  0.00423   5224541.36697  43.94573  21.96956  57376.93292    50.47905       43.83672   14.43129  41.85075   65.5    0.21387  -19.84287  0.99839 
  -18.99468  0.01874   6.87663     14.25868  1.60342  1.04027   8.71576  0.01418      0.0149  5381.29487   3190.82224  0.22373         2026.21533     19.66689   0.0258  57336.22532  1.50559  0.16335   2139184.40094  44.46889  21.96877  57379.19142    50.50446       43.90667   17.31755  34.63511   61.5    0.23234  -19.88774  0.95541 
  -12.07705  0.00131    7.8599     14.33053  1.56903  0.44052   1.44307  0.05024     0.20407  5062.64141   6315.97759  4.61792          2817.3267     18.23628  0.00096  57343.14295  0.22063  0.00189   1964357.21189  44.38042  21.96937  57379.19142    50.63132       43.82633   18.57159  50.69862  100.5    0.19457  -19.86452  0.99923 
  -11.94096  0.00189   7.58616     13.98928  1.47638   1.4904   6.75545  0.01351      0.0188  5821.43862   6035.94862  4.73688         2479.57189     16.60622    2e-05  57343.27904  1.36566  0.01278   8288760.26447  43.75951  21.93959  57376.93292    50.54002       43.83588   15.87442  46.18014   75.5    0.21533  -19.90683  0.99481 
  -12.19151  0.16521   8.09338     14.17026  1.70627  1.04365   6.58811  0.01348     0.02802   5967.2356   7421.06585  3.21562         2061.22076     20.41928  0.14588  57343.02849  1.39938  1.08844   4738070.53677  44.00903  21.94511  57379.19142    50.69544       44.08226   15.87442  27.41946   80.5    0.14537  -20.07126  0.71257 
  -11.20196  0.05284   7.14285     14.26646  1.90351  1.51457   7.35644  0.01219      0.0542  5733.65608    4654.1356  1.79194         2035.80208     20.67405  0.26229  57344.01804  1.44264   0.3887   2643558.73978  44.41847  21.98568  57379.19142    50.53608       43.84021   15.87442  46.18014   75.5     0.2217  -20.12277   0.9152 
  -10.75679  0.00297   8.07945     14.43448    1.635  0.52646   4.52969  0.02039     0.25651   6579.2804   7982.25159  2.76083         2024.97971     16.03704    1e-05  57344.46321  1.16964  0.01344   1340082.95389  44.54047  21.96009  57379.19142    50.57187       43.79119   20.20381  59.16831   62.0    0.22292  -19.92006  0.99478 
  -14.40193  0.01046   7.47278     14.53049  1.61137  0.45563   4.40428  0.02119     0.39569  6463.72642   3282.58965  0.14329         2648.66817     18.59152  0.00217  57340.81807  1.09766  0.04607    726104.65045  44.86808  21.94441  57376.93292    50.44254       43.83252   18.57159   34.8242   60.0    0.22597  -19.94462   0.9847 
  -10.07599  0.10356  10.33537     14.48061  1.95342  0.64382    6.5489  0.01201     0.01058  6319.18256   3632.64036   3.8837         2119.25904     17.56728  0.00021  57345.14401  1.55997  0.67823    2118577.4232  44.20494   21.9442  57379.19142    50.49607       43.84288   18.76068  37.52136   59.0    0.19001  -19.88742  0.74936 
  -11.16559    0.058   7.22091        14.11  1.37195  0.70709   3.18616   0.0225     0.30418   6161.6516   8764.36933  3.82314         2377.41553      18.3506  0.00125  57344.05441  0.72159  0.18479   4002522.11234  44.08667  21.96273  57381.44992    50.64527       43.97037   18.76068  31.74885   74.0    0.17549  -19.89213  0.92863 
  -10.70607  0.06773   8.26865      14.4987  1.54907  0.47795   3.63016  0.02923     0.03486  6385.73635   3048.61444   4.8494         2054.13214      18.3452  0.00123  57344.51393  0.88303  0.24587    989374.57921  44.62869  21.95967  57379.19142    50.55733       43.91415   17.31755  33.19198   61.5    0.26455  -19.91488  0.90223 
  -14.37975  0.00258   8.73275     14.59194  1.93305  0.35623     3.978  0.01812      0.3272  6551.28874   3466.65012  1.14599           2734.762     19.24567  0.00978  57340.84025  1.01846  0.01025    896372.51957   44.7203  21.94938  57379.19142    50.58245       43.83312   18.76068  38.96449   71.5    0.16093  -19.97521   0.9963 
  -12.07026  0.17479   9.41797     14.33573   1.8088  0.74727   3.52101  0.02696     0.04423  6421.92718    5667.8697  3.16945          2258.1591     16.65101    2e-05  57343.14974  0.86621  0.61544   3174342.54932  44.07667  21.97394  57376.93292    50.64233       43.82321   17.12207  57.92066   77.5    0.19132  -19.94027  0.77849 
  -16.60237  0.00226   6.83281     14.23275  1.39896  0.59222   6.42856   0.0158     0.40767  5524.55923   5601.88486  2.64426         2127.16009     17.17121    8e-05  57338.61763   1.1704  0.01452   2076401.37923  44.42814  21.94783  57379.19142     50.5534       43.81045   18.76068  44.73701   81.5     0.1771  -19.87671  0.99487 
  -12.34484  0.01515   8.51516     14.18859  1.77737  1.33247   5.24485  0.01554     0.15583  6298.91861   9682.77131  0.75698         2794.61192     16.53742    2e-05  57342.87516  1.24134  0.07945   5021156.26646  43.95743  21.96526  57379.19142     50.5544       43.94276   18.76068  34.63511   52.0    0.19929  -19.91993  0.97045 
  -10.84295  0.00208   8.10394     14.43066  1.81665  0.63564   3.63786  0.01854     0.07682  6293.61677   7883.04037  1.68531         2091.64544     20.15496  0.07938  57344.37705  0.85956  0.00758   1524589.15641  44.52757  21.97131  57379.19142    50.65024       44.02524   14.43129  28.86259   62.5    0.18563  -19.95705  0.99748 
  -13.04733  0.27275   9.88122      14.2267  1.60486  1.33429   4.72899   0.0267     0.33813  5991.50511   4231.89106  3.83525         2230.20542     19.48912  0.01713  57342.17267  1.01267  1.28983   5122332.93012  43.77519   21.9487  57379.19142    50.54657       43.98302   15.87442  25.97633   85.0    0.21347  -19.93606  0.56349 
  -16.05896  0.06581   9.03584     14.96959  1.95764  0.22528   3.64091  0.03478      0.1029  6083.84815   6977.44702  0.67706         2166.91527     16.71186    3e-05  57339.16104  0.80388   0.2396    170729.35313  45.41633  21.91709  57379.19142    50.51962       43.73406   18.76068  51.95266   64.5    0.23616  -19.91333  0.91893 
   -16.7203  0.02501   7.21344     14.13412  1.42839  1.12371   9.07388  0.01491     0.11512  5718.67926   7458.09181  1.77354         2289.49914     18.42873  0.00149   57338.4997  1.77016  0.22692   3721501.53096  44.13669  21.93901  57379.19142    50.55362       43.77654   20.20381  46.18014   66.0    0.23649  -19.91588  0.92099 
  -11.49322  0.28282   9.63018     14.22496  1.92583  1.36917   2.41303  0.03216      0.3988  6561.20305   9285.36484  1.43128         2426.53869     19.80092  0.03513  57343.72678  0.61966  0.68245    5885421.5931  43.81642  21.94712  57376.93292    50.63647       43.82736   15.87442  47.62327   63.5    0.16864  -19.97325  0.76981 
  -10.91714  0.00611   8.86739     14.16857  1.69932  1.28745   4.18873  0.02213     0.06092  5992.09213   8445.91521  3.19986         2669.44209      18.0691  0.00065  57344.30286  0.89715   0.0256   5708840.54167  43.84698  21.91116  57376.93292    50.51463       43.85171   17.12846  39.15358   63.5    0.25791  -19.90495  0.98869 
  -15.68103  0.00316   7.50492     14.43054  1.63039  0.65291   5.10655  0.02297     0.01687  5922.95233    8471.6422   0.5234         2462.35695     16.43486    2e-05  57339.53897  1.06864  0.01614   1174132.75191  44.66073  21.96818  57376.93292    50.50409       43.89537   15.87442  34.63511   47.0    0.26104  -19.90569  0.99466 
  -11.86527  0.04967    8.5884     14.57935  1.72603  0.32908   4.63981  0.01836     0.22527  6597.03246   5540.41552  3.05048         2335.49347     16.20088    1e-05  57343.35473  1.20455  0.23048    820317.62715  44.72409  21.96003  57379.19142    50.61741       43.76604   20.20381  53.39579   84.5    0.18687  -19.94138   0.9127 
  -13.28987  0.00409   8.48408     14.64815  1.79681  0.36523   4.19212  0.02425     0.01973  6099.33034   5122.00714  2.54632         2071.75176     16.59073    2e-05  57341.93013   0.9303  0.01717    607052.26647  44.88291  21.94998  57379.19142    50.60046        43.9774   17.31755  28.86259   57.0    0.21851  -19.90851  0.99365 
   -11.6153  0.44094    9.3332     14.29401  1.33852  0.26208   5.51819  0.01657     0.07048  5831.19358   6829.58409   1.7676         2978.08913     16.79941    4e-05   57343.6047  1.11928  2.43321   2795639.75257  44.00893  21.97274  57379.19142    50.60836        43.8087   17.31755  47.62327  120.0    0.17052  -19.91424  0.31983 
  -14.60365  0.08629   8.79449     14.40959  1.73641  0.58376   5.27516  0.02242     0.28427  6168.73316   5575.76066  3.70329         2102.02047     16.79172    3e-05  57340.61635  1.19744  0.45521   1891117.45741  44.34336  21.96143  57379.19142    50.57293       43.87622   17.12846  39.15358   85.0    0.19875  -19.93586  0.83757 
  -12.91047  0.03234   8.86879     14.27723  1.91124  1.49859   3.15103  0.02301     0.49328  6492.70395   4351.96954   0.3671         2623.98038     17.11052    7e-05  57342.30953  0.79237  0.10191   3894025.51937  44.06403  21.94276  57379.19142    50.62869       44.01268   17.31755  27.09876   61.5    0.20802  -19.91199  0.96375 
  -11.90102  0.03949  10.35012     14.50247  2.14589  0.94151   7.56212  0.01427     0.11022  6328.70771   5899.87135  0.98456         2801.25119     19.50487  0.01777  57343.31898  1.80676  0.29861   2110482.13763  44.24618  21.93499  57379.19142    50.51205        43.8382   17.31755  37.52136   65.5    0.28518  -19.94233  0.88836 
  -11.21657  0.31417   9.31312     14.12081  1.80957   1.1595   2.55949  0.02953     0.02092  6887.07303   6592.05105  4.56378         2061.27732     16.13952    1e-05  57344.00343  0.72419  0.80412   8355312.23848  43.66627  21.93471  57379.19142    50.57542       43.90268   18.76068  31.74885   51.5     0.1428  -19.96157  0.72886 
  -11.25172  0.01785   7.71457     14.19151  1.67054  1.01501   3.92444  0.02189     0.30673  6244.20555   7596.63853  3.11848         2106.30325     20.24056  0.09667  57343.96828  0.91277  0.07005   3821902.90721   44.1348  21.96446  57379.19142    50.55605       43.75869   18.76068  54.83892   71.0    0.20774  -19.99244  0.97643 
  -12.92653  0.00159   9.11551     14.20223   1.9978  1.10686   3.68405  0.02459     0.24567  5682.55187   7503.56452  3.71453         2584.89091      19.8966  0.04379  57342.29347  0.70964  0.00584   6073978.30664  43.86636   21.9274  57376.93292    50.55422       43.82191   15.87442  40.40762   85.0    0.20109  -19.94527   0.9978 
  -12.38198  0.04331   7.70949     14.51601  1.56582   0.4316   4.30845  0.01699     0.44987  6188.72215   7109.63209   0.5527         2874.73933      17.2687   0.0001  57342.83802  0.98435  0.18662    802767.89769  44.78495  21.94529  57379.19142    50.53166         43.823   17.31755  38.96449   67.5    0.20636  -19.91085   0.9343 
  -12.09938  0.00285   7.12779     14.05784  1.52449  0.97397   2.17148  0.03223     0.01489  5964.92129   3668.99534  3.04942         2218.80202      19.6914   0.0273  57343.12062  0.46088  0.00618   5510316.36905  44.00488  21.93293  57379.19142    50.66035       43.95429   18.76068  33.19198   47.5    0.16603  -19.93205  0.99788 
  -13.47682  0.00241   7.32125     14.26725  1.63699  0.54358   2.38477  0.02549     0.01194  5933.40891   3820.69426  2.30148         2094.22091     16.77672    3e-05  57341.74318  0.50082  0.00576   2379750.57423  44.37719  21.94541  57379.19142    50.56993        43.7817   17.31755  47.62327   45.5    0.15971  -19.90393  0.99812 
  -12.31066  0.11791   10.4249      14.2145   1.6213  1.10913  10.47184  0.01139     0.01018  5622.08621   8239.34849  4.85484         2452.76225      17.0214    6e-05  57342.90934  1.97445  1.23468   6092997.16649  43.65773  21.95126  57376.93292    50.56239       43.98896   15.87442  30.30572   75.5    0.21545  -19.88846  0.54755 
  -13.19959  0.01729   8.26373     14.20322   1.6828  0.97941   5.77273  0.01664     0.02466  6027.43774   9425.23859  3.95829         2095.42975     16.90999    5e-05  57342.02041  1.25105  0.09982   4185625.51976  44.03877  21.93776  57379.19142    50.56004       43.96174   18.76068  30.30572   56.0    0.19771  -19.89518  0.96221 
   -9.25103   0.0014   8.10445     14.13651  1.61671  1.10328   2.94015  0.02237     0.04587  6595.89931   9915.57581  2.84593         2303.41445     16.98335    5e-05  57345.96897  0.76304   0.0041   5258784.65836  43.93915  21.94734  57379.19142    50.52721       43.95404   15.87442  31.74885   49.5    0.20023  -19.91117  0.99834 
  -10.85027  0.00205   8.40404     14.04371  1.72266  1.48255   2.98454  0.02535     0.03725  6155.87006   5989.40875  4.02227         2590.11798     17.82405  0.00037  57344.36973  0.67466  0.00612   9238025.17046  43.69049  21.94895  57379.19142    50.58733       43.84715   17.31755  43.29388   73.0    0.19226   -19.9134  0.99754 
   -9.70664  0.34659   7.15012     14.15313   1.5313  0.41222   2.45734  0.02268     0.01487  5945.80826   5330.23294  3.00308         2683.68853     17.67994  0.00027  57345.51336  0.51822   0.8517   3591189.68111  44.19004  21.94162  57379.19142    50.60837       43.98393   14.43129  30.30572   55.5    0.09846  -19.92676  0.75616 
  -10.55481  0.08612    9.0735     14.32929  1.64617  0.55156   6.38451   0.0135     0.07901   6131.3861   6559.81936  4.22965         2627.25566     16.77201    3e-05  57344.66519  1.43177  0.54984   2762251.03292  44.12851  21.95902  57379.19142    50.57387       43.82847   18.57159  39.15358  100.5    0.20636  -19.89813  0.78276 
  -11.82467  0.25135   8.88452     14.15087  1.36566  0.92195    4.6013  0.02033     0.01041  6005.07449   3168.57711  1.94609         2721.95819     16.35869    1e-05  57343.39533  0.98979  1.15654   4996815.01085  43.80823   21.9592  57379.19142    50.62805       44.00281   15.87442  30.30572   58.5    0.20847  -19.88939  0.57966 
  -12.10956  0.00293   8.23807     14.46889  1.71752  0.37641   3.23649  0.02164     0.05111  5995.70222    4736.1977  2.84937         2587.68783     18.65266   0.0025  57343.11044  0.69404  0.00947   1249074.16101  44.57551  21.96654  57379.19142    50.63734       43.74813   20.20381  63.49769   73.5    0.16318  -19.89079  0.99633 
   -11.1835  0.00645   8.08007     14.64331  1.51901  0.34564   9.09751    0.013     0.18232  6042.34895   5358.10278  1.99241         2653.98215     17.01802    6e-05   57344.0365  1.98135  0.05865    475975.18761  44.95799  21.95657  57379.19142    50.61764       43.92428   14.43129  34.63511   60.0    0.30674  -19.91611   0.9753 
   -10.4869  0.40248  10.91191     14.27244   1.9963  1.36934   2.44677  0.03217     0.11182  6853.04192   5947.23772  3.13316         2009.68487      17.7066  0.00028   57344.7331  0.68547  0.98479    6294512.4639  43.69431  21.97123  57376.93292    50.71182       43.74706   17.31755  82.25838   83.0    0.16981  -19.93562  0.65479 
  -12.00591  0.00277   8.01505     14.28423  1.74546  0.98193   8.72517  0.01117     0.01545  6174.47841    4763.4587  1.68297         2241.17293     19.95797  0.05043  57343.21409  1.98427  0.02413   2812457.51235  44.25386  21.92726  57379.19142    50.59584       43.81379   20.20381  41.85075   61.0    0.23697  -19.96643  0.99172 
  -11.28689  0.00604   8.81273     14.07669  1.71842  1.55514   7.77054  0.01072     0.43165  5686.60676   6202.63599   4.5802         2729.08952     17.91259  0.00045  57343.93311  1.49894  0.04691   8705313.64783  43.67397  21.98826  57379.19142    50.53452       43.92291   17.31755  36.07823   88.5    0.22049  -19.88879  0.97965 
  -13.04218  0.02161    6.6791     14.06103  1.42403  0.96265   4.64613  0.02237     0.01453  6099.88225   6255.24871  4.36349         2090.77062     20.31711   0.1153  57342.17782  1.03124  0.10039   4453665.24914  44.12421   21.9563  57379.19142    50.59576       43.79174   21.64694  44.73701   60.5    0.19934  -20.03546   0.9679 
  -11.45355  0.07403   9.73722     14.27997  2.02077  1.26718   4.05838  0.02136     0.46528  6166.40923   6394.92736  3.45869          2058.4636     18.41431  0.00144  57343.76645  0.92055  0.30044   4900795.16213  43.90722  21.93716  57379.19142    50.54383        43.7601   18.76068  44.73701   81.0    0.19152  -19.89599  0.88922 
  -13.31105  0.01198   6.69573     14.07715  1.30169  1.30801   4.45072  0.02243     0.05439  6140.68145   7928.00475  0.92692         2320.97452     17.63911  0.00024  57341.90895  1.00113   0.0533   3798623.00938  44.15213  21.94661  57379.19142    50.60629       43.78624   20.20381   49.0664   56.5    0.25994  -19.88439  0.98052 
  -11.49615  0.00179   7.59953     14.08025   1.5099  1.30851   4.34467  0.01872     0.45334  6806.09729   4280.73186  1.26955         2514.73053     17.47913  0.00017  57343.72385  1.20055  0.00778   5595501.00386  43.93838  21.93864  57376.93292    50.49168       43.84507   17.12207  37.71684   64.0     0.2202  -19.95289  0.99697 
