 texplosion  fnickel    Pspin  log(Bfield)      Mns  thetaPB   mejecta    kappa  kappagamma      vejecta  temperature    alpha  cutoff_wavelength  log(nhhost)      A_V         MJD0   kenergy  mnickel            TSD   log(L0)  Peak_mag     Peak_MJD  log(E_rad)  log(Peak_lum)  Rise_Time    E_fold  tau_1  delta_m15     r_peak     frac 
  -11.63182  0.07411  4.58287     14.18791  1.77746   1.0136   7.25419  0.09277     0.02343    8324.0241   4765.20746  2.37059         4269.46685     18.22705  0.00094  57416.95818   2.99835  0.53758   1459043.8332   45.0323  18.20221     57456.43    50.89701       44.19519    27.6704  39.19973   41.5    0.25193  -21.49824  0.94507 
  -12.77254   0.3985  4.45927      14.0954  1.61032  0.55966   3.64836  0.07966     0.01095   6772.43096   5043.93358  2.49928         4316.40311     19.88206  0.04234  57415.81746   0.99819  1.45388  1916230.71779  44.89478  18.23869  57455.42289    50.91031       44.19532   27.35665  39.68399   42.0     0.2806  -21.53381  0.84835 
   -8.18724  0.11331  2.14505     14.47748  1.69223  0.91395  13.15173  0.08935     0.01301   8146.29243   5295.28729  2.42461          4328.0668     17.87614  0.00042  57420.40276   5.20631  1.49024    80203.52232  46.93024  18.23251      57457.5     50.8786       44.17409   25.36453  39.19973   42.0    0.20042  -21.44578  0.96587 
    -8.4023  0.47747  1.48168     14.30272  1.81424  1.25555   5.12034  0.25624     0.03571   9825.35972   6085.68255  2.05968         3977.38937     20.94413  0.48849   57420.1877   2.94865   2.4448    91745.51662  47.22345  18.21936     57453.54     50.9485       44.26096   28.81429  38.05584   40.0    0.21291  -21.97473  0.97627 
  -13.58729   0.1386  4.77773       14.163  1.72834  0.96002  10.20407  0.05013     0.01033   7676.82915   4872.85207  2.40724          4264.4004     18.36844   0.0013  57415.00271   3.58727  1.41432  1729367.91973  44.91014  18.19737     57453.54    50.91976       44.21267   27.35665  39.68399   43.0    0.26012  -21.49904  0.85176 
   -9.29863  0.26455   4.9706     14.76033  1.88298  0.28894   3.59192  0.15658     0.05676   7955.09859   4587.20177   2.2747         4412.17011     18.60829  0.00225  57419.29137   1.35595  0.95024   130264.97574  46.03605  18.19557  57452.65008    50.92923       44.23206   28.81429  38.94387   42.0    0.29139  -21.47565  0.90051 
  -14.98874  0.02883  4.26295     14.24674  1.59455  0.45075    2.3369  0.17155      0.0255   6538.40074   5369.64769   2.6644          4340.7652     19.68018   0.0266  57413.60126   0.59595  0.06736   863743.47004  45.27568  18.18793  57455.42289    50.91466       44.23182    27.6704  37.64052   42.5    0.25151   -21.5179   0.9925 
  -10.73827  0.14147  4.82747     14.41261  1.80157  0.30022   2.21085  0.12796     0.03354    8373.2081   4749.22768  2.40889         4204.36528     17.84845  0.00039  57417.85173   0.92463  0.31277   583023.47445  45.39137  18.28969      57457.5    50.93255       44.19294   23.05867  46.11733   44.0    0.28364  -21.51954  0.96325 
  -11.37076  0.11568  4.72965     14.05061  1.79413  1.28849   4.91971   0.0956     0.02863   8908.30254   4810.54175  2.35241         4002.54627     20.08496  0.06756  57417.21924   2.32893  0.56913  2951914.57307  44.70294  18.18739      57457.5    50.94863       44.25363   29.97627  37.06438   43.0    0.29264  -21.54877  0.93875 
  -13.13417  0.11357  4.23299      14.1393  1.60994  0.47768   2.00024  0.16295     0.02516     7303.663   5135.10997  2.51217         4295.75139     19.75551  0.03164  57415.45583   0.63649  0.22716  1410300.27622  45.07305  18.16232  57455.42289    50.90844       44.22127   25.36453  37.64052   41.5    0.29452  -21.55776  0.97546 
  -13.71834  0.03218  4.32355     14.02526   1.6759  0.64785   1.88048  0.19552     0.03892   8335.99433   4810.34764  2.22389         4354.15429      19.4675   0.0163  57414.87166   0.77949  0.06051  2589614.99188  44.80818  18.19235  57452.65008    50.92331       44.25993   23.05867  38.16676   43.0    0.27975  -21.56375  0.99343 
  -10.05504  0.28764   4.3974     14.31302   1.6663     0.95   8.55037  0.07643     0.01403    8091.5605   4668.28338  2.49672         4204.97366     18.19163  0.00086  57418.53496   3.33946  2.45939   707809.32577  45.35429  18.23852      57457.5    50.87547       44.17299    27.6704  39.19973   41.5     0.2569  -21.47128  0.78903 
   -8.49512  0.10321  5.01636     14.26005  1.80025  0.74818   3.45775   0.0996     0.03068   7509.39585   4896.48922  2.70206         4206.82826     19.06799   0.0065  57420.09488   1.16314  0.35687  1270045.24751  45.01958  18.23924  57455.42289    50.91543       44.21742    27.6704  39.12908   41.0    0.32938  -21.52354  0.95637 
  -14.48548  0.13485  4.67645     14.11185  1.98387  1.16728   3.67636  0.16933     0.04381   9275.49198   4718.08317  2.09412         4090.96129     20.31585  0.11497  57414.10452   1.88677  0.49575  2406898.15381  44.84507  18.27604  57455.42289    50.90341       44.19563    27.6704  39.37025   42.5    0.25533  -21.62668  0.95447 
  -12.33571  0.17008   5.1682     14.05409  1.86521  0.90637   4.76551  0.06452     0.01876   8273.39026   4674.92225  2.27531         4275.01945      17.5456   0.0002  57416.25429   1.94583  0.81052  3606126.97521  44.55585  18.21605     57453.54    50.94945       44.27006   26.50842  37.23077   46.5    0.27451   -21.4959  0.90338 
   -9.01118  0.37224  4.29591     14.06417  1.49844  1.36064   7.50817  0.06287     0.01549   8190.02032   4673.44567  2.45071         4151.81354     20.39173  0.13692  57419.57882   3.00422  2.79483  1910865.92424  44.89714  18.24461  57455.42289    50.92021       44.22707   27.35665  39.68399   44.0    0.28563  -21.60124  0.74491 
    -7.5885  0.36916  1.88624     14.51844  1.89738  1.21391   7.55394  0.17816     0.02137   9358.51264   5013.54531  2.18043         4304.09057     19.90682  0.04483   57421.0015   3.94652  2.78861    57581.73271  47.23552  18.16668     57453.54    50.89807       44.21104   25.36453  39.12908   41.5    0.20661  -21.53156  0.96282 
    -11.577  0.20034  3.75747     14.20111  1.73438  0.75509    4.0394  0.14652     0.03744   8633.91287   4881.67401  2.17117         4198.06277     20.69923  0.27795    57417.013   1.79622  0.80924   900593.53728  45.40367  18.13624  57452.65008    50.92583       44.25948   26.50842  37.02287   41.5    0.26934  -21.80379  0.94255 
  -11.24964  0.33545  4.34262     13.96462  1.79652   1.2932   6.55705  0.05871     0.01052   8302.81351   5036.37676  2.30875          4075.4543      20.6543  0.25063  57417.34036   2.69641  2.19958  3702659.79093  44.67926  18.21307  57455.42289    50.90242       44.19958    27.6704  39.37025   42.0    0.28405  -21.77177  0.82405 
   -12.9305  0.18981  5.00404     14.84799  1.96954  0.24286   9.01777  0.07309      0.0155   8115.44492    4711.5018  2.27879         4299.13327     18.58588  0.00214   57415.6595   3.54284  1.71168     92221.8119  46.19974  18.23663     57456.43    50.91269       44.21569   29.97627  37.06438   43.0    0.25792  -21.50276  0.84133 
   -7.28966  0.37312  1.82427     14.26537  1.78524  1.23247   7.55193  0.11774     0.01871   8347.29754   5740.56471  2.29574         4022.71401     21.01783  0.57884  57421.30034    3.1389  2.81775   162536.46739  46.78741   18.1623  57452.65008    51.20765       44.55879   25.36453  32.95262   40.5    0.23963  -22.02589  0.95607 
  -14.07225    0.453  5.00401     14.15499  1.89376  0.54755   4.82725  0.08925     0.01417   9193.84661   4816.25341  1.89174         4196.63385     19.35375  0.01255  57414.51775   2.43401  2.18673  2156733.49735  44.81374  18.30752     57456.43     51.0904       44.40597   16.14107  42.25225   42.0    0.28613  -21.50991  0.78798 
  -10.92646  0.49437  4.64354     14.19353  1.61961  1.13389   6.16353  0.09895     0.01805   8738.07812   4720.51372  2.22183         4224.64405     17.93971  0.00048  57417.66354    2.8073  3.04705  1330054.95657  45.02069  18.19553     57456.43    50.96362       44.26663   29.97627  37.06438   41.0    0.26865  -21.52283  0.72085 
  -11.88548  0.10254  4.77312     14.06395  1.99712  1.46304   8.80875  0.04553      0.0113   8365.46651   4914.20453  2.39335         4135.75674     20.46208  0.16099  57416.70452   3.67724  0.90325  3147242.67873  44.71371  18.21774      57457.5    50.89659       44.18854   25.36453  39.19973   42.5    0.28367  -21.72229   0.9175 
    -10.776  0.16841   3.5352     14.38093   1.8139  1.08154  11.41909  0.07682     0.01416   7894.12066   4668.82437  2.48729         4312.01042     16.05617    1e-05    57417.814   4.24489  1.92304   364241.92923  45.86924   18.2191  57452.65008    50.93766       44.27251    20.7528  38.16676   42.5    0.22677  -21.50283  0.89444 
   -7.15411   0.1091  1.71109     14.36812  1.90074  1.51434  18.37007  0.06385     0.01257   8689.62588    5253.9478  2.41261          4164.2516      20.8287  0.37448  57421.43589   8.27447  2.00419    94852.53913  47.10417  18.16309     57453.54    51.00084       44.34532   25.36453    34.588   42.0    0.21353  -21.84962  0.97596 
  -10.24404  0.10852  3.30395     14.06485  1.61905  1.36065   7.84518   0.0775     0.01651   7643.61302   5403.53159  2.64705         4153.02959     20.72913  0.29775  57418.34596   2.73418  0.85133  1217408.06111   45.3546  18.29835     57456.41    50.94785       44.24243    20.7528   41.5056   40.0    0.26631   -21.8306  0.94819 
  -11.38834   0.0912  4.08357     13.89673   1.6961  1.33176    7.7308  0.04556      0.0152   8980.85648   4735.72242  2.24441         4004.41416     20.67269  0.26147  57417.20166   3.71952  0.70503  4225624.69532  44.65032  18.23049     57456.43    50.90064       44.19483   23.05867  39.37025   46.0     0.2849  -21.74422  0.93795 
  -13.40315  0.19907   4.2678     14.06947  1.45255  0.96944   8.00188  0.06473     0.01644   8289.10502   4772.95024  2.23251         4183.21837     17.10731    7e-05  57415.18685    3.2797  1.59293  1784101.70257  44.91915  18.24171     57456.43    50.92267       44.19565     34.588  39.19973   43.5    0.27584   -21.4731  0.83144 
  -10.09547  0.31694  4.42455     14.21879  1.61866  0.55009   6.66976  0.05238     0.01464   9126.48205   4646.99649  2.12666         4205.02001     20.41755  0.14531  57418.49453   3.31394  2.11391  1074307.92157  45.15513  18.15822     57453.54    51.06439       44.40611   23.05867    34.588   42.5     0.3095   -21.7058  0.80093 
  -10.51056  0.48631  5.96501     14.28649  2.05979  1.32203   5.11478  0.09772     0.02491   8238.73635   4553.58688  2.44284          4206.3768     18.63944  0.00242  57418.07944   2.07098  2.48738  1819227.01981  44.77156   18.1407     57453.54    50.91211       44.22772   27.35665  38.09563   44.5    0.27983  -21.47528  0.73241 
  -12.76874  0.42091  4.96812     14.20044  1.80704  0.58936   1.98101  0.16654     0.03311    7634.1906   4671.67008  2.33191         4285.32918     16.47688    2e-05  57415.82126   0.68872  0.83382  1645427.21399  44.91715  18.19027     57456.41    51.00211        44.3242   32.28213    34.588   43.5    0.27505  -21.49906  0.90405 
  -11.95817  0.18642  4.81583     14.08221  1.65939  0.89683    5.5077  0.07227     0.02323   8522.09394    4622.0949  2.36444         4173.63955     18.55932  0.00201  57416.63183   2.38611  1.02673  2447244.44272  44.73477  18.22852  57455.42289     50.9341       44.22708   29.97627  39.37025   45.5    0.29191   -21.5071   0.8788 
   -8.83567  0.24337  2.88316     14.28307  1.51348  1.02872    6.0284  0.15719      0.0239   7597.02205   4975.89329  2.69062         4289.87756      19.0631  0.00642  57419.75433   2.07547  1.46715   317235.62837   46.0277  18.20885     57453.54    50.91476       44.21181   29.66252  38.09563   42.0    0.22042  -21.47783  0.92731 
   -8.03825  0.48185  1.97523     14.45326  1.56775  0.82862   4.35089  0.29134     0.05539   9279.17318   4965.38869  2.58625         3991.20617     20.12434  0.07397  57420.55175   2.23473  2.09647    70437.35775  47.02508  18.19833  57455.42289    51.06168       44.39027   25.36453  36.06879   43.0    0.20893  -21.50969  0.95498 
  -13.68947  0.01985  3.17648     14.33662  1.95132  1.48716   4.76861   0.2096      0.0613   6841.91498     5526.119   2.4063         4317.44324     19.20173  0.00884  57414.90053    1.3316  0.09468   387975.96424  45.96648  18.24703  57455.42289      50.889       44.20423    27.6704  36.82322   43.0    0.20691  -21.35087  0.99582 
   -10.9872  0.06027  5.45435     14.12909  1.99484  1.04597   5.67975  0.05105     0.01565   7329.59915   4784.13057  2.63286         4359.54157     18.20589  0.00089   57417.6028   1.82019   0.3423  3041099.60837  44.61224  18.23186     57453.54    50.92906        44.2233   29.66252  39.44283   44.5    0.30642  -21.54434  0.95703 
  -11.88355  0.23542  3.75164     14.16573  1.33107  0.78065   6.63615   0.0899     0.01929   7591.10235   4856.68218  2.57175         4165.39744     16.04987    1e-05  57416.70645   2.28115  1.56231   810951.29558  45.33561  18.27564     57456.41    50.91431       44.19768   23.05867  41.67611   42.5    0.25665  -21.45123  0.85197 
   -9.10061  0.41529   1.8149     14.34826   1.5094  1.54279   9.75597  0.14871     0.01543  10099.19026   4756.19099  2.17429         3949.01515      19.9136  0.04553  57419.48939   5.93568  4.05152    92854.70574  46.96214  18.20796  57455.42289    50.90116         44.207   25.05079  38.09563   42.0    0.20934  -21.46177  0.92829 
   -8.69499  0.33058  3.76874     14.04545  1.41418   0.8926   4.37884  0.09975     0.02939   8628.57154   4867.06807  2.48158         4129.04077     20.50613  0.17818  57419.89501   1.94475  1.44756  1512937.48304  45.08714  18.18437     57456.41    50.90041       44.20285    27.6704  37.06438   41.0    0.30985  -21.72368  0.87004 
  -11.57841  0.39195  4.64744     14.08315  1.69536  1.36426    8.4328  0.05362      0.0102   8023.03882   4882.91065  2.39946          4169.8226     20.42838  0.14897  57417.01159     3.238  3.30522  2318475.79675  44.79848  18.25028     57456.43    50.88579       44.16983   19.59082  44.97345   43.0    0.27056  -21.66717  0.71656 
  -11.13011   0.2443    4.302     13.97543  1.70717   1.4831   5.39581  0.07118     0.01368   7335.38258   5204.07268  2.61552         4228.35644     20.56199  0.20264  57417.45989   1.73193  1.31819  3285218.34125  44.71722  18.23111     57456.43    51.13677       44.48398   25.36453    34.588   42.5    0.28202  -21.72557  0.88127 
   -7.84749  0.08133  1.91386     14.39082  1.65331  1.04352  14.18404  0.08972     0.01714   8196.14208   4929.84791  2.26822          4306.5075     20.12859   0.0747  57420.74251    5.6839  1.15355    92972.78549  46.95502  18.23716  57455.42289    50.96252        44.2793   18.44693  40.08776   43.0    0.19477  -21.49036  0.97804 
  -13.53791  0.41018  4.31693       14.207  1.51004  0.76001   4.56838  0.12843     0.02036    7629.2848   4925.25071  2.40955         4264.12891     16.62476    2e-05  57415.05209    1.5862  1.87386  1007288.28771  45.17433  18.26691     57456.41    50.92802       44.22267    27.6704  39.37025   41.5    0.25666  -21.46034  0.81339 
  -11.52333  0.29885  4.21355     14.70814  1.66685  0.30298    7.3787  0.10603     0.01741   8301.06056   4822.85196  2.24551         4224.93709     18.36365  0.00128  57417.06667   3.03301  2.20513   105374.26093  46.21871  18.13364     57453.54    50.91566       44.24482   25.05079  36.18295   42.0    0.23513  -21.46336  0.81952 
   -9.67004  0.10715  5.50977     14.15823  1.99333  0.93119   7.66487   0.0375     0.01184   7880.60055   4810.10727  2.46163         4304.34257     19.67788  0.02646  57418.91996   2.83956  0.82132  2711454.67747  44.65296  18.22624     57456.41    50.90541        44.1928   25.36453   41.5056   44.5    0.29592   -21.5491  0.90075 
  -12.63865  0.00273  4.10256     14.13047  1.90224  0.94571   2.39448  0.19446     0.04436   7628.02619    4990.4713  2.53679         4068.62068     20.69294  0.27395  57415.95135   0.83112  0.00655  1630252.07163  45.10975  18.20422     57456.41    50.90298       44.20844   25.36453  39.12908   42.0    0.27078  -21.77327  0.99949 
  -10.66573  0.10579  4.54093     14.38871  2.13459  1.44152   13.1309  0.06244     0.01285   7769.45673   4753.23064  2.55035         4200.81813     17.89825  0.00044  57417.92427   4.72828  1.38908   682322.83775  45.44988  18.22887     57453.54    50.93625        44.2346   26.50842  38.94387   42.5    0.23944  -21.43701  0.90031 
  -11.33424  0.31679  2.63472     14.49603  1.70894  0.68205   3.79106  0.32346     0.05571   8103.77423   5238.21499  2.44106         4205.84691     19.90225  0.04436  57417.25576   1.48512  1.20099   112191.76559  46.61014  18.16024  57455.42289    50.94132        44.2449   24.20256  38.94387   44.0    0.18451  -21.45763  0.95755 
  -11.77727  0.24631  4.26549      14.1961  1.63801  0.89622   8.23349  0.07758     0.01525   8529.77849   4879.95221  2.21368         4269.29538     20.19677   0.0874  57416.81273   3.57344  2.02798  1121686.16436  45.17335  18.26039  57455.42289    50.93143       44.21413   29.66252  39.68399   41.5    0.26558  -21.59265  0.82357 
   -7.19353  0.35611  1.82683     14.50757  1.74284  1.28039   8.39708  0.12836      0.0141   7968.63521   4879.99396  2.48408         4395.59999     17.39174  0.00014  57421.39647   3.18071  2.99032    52158.44952  47.26938  18.15226     57453.54    50.92496        44.2405   24.20256  37.23077   43.0    0.22184  -21.43962  0.95997 
  -14.06187  0.08917  4.65716     14.31285  1.75226  0.44501   2.75322  0.17292     0.04579   8899.69936    4552.1854  2.29661         4072.74097     18.08772  0.00068  57414.52813   1.30082  0.24551   835527.61649  45.25424  18.23852  57455.42289    50.91538       44.21013    27.6704  39.12908   43.5     0.2729  -21.51279  0.97224 
  -11.77886  0.26425  3.88327     13.82608  1.54559  1.17518   1.69615  0.19085     0.05614   8932.77621   4689.92776  2.24003         3970.61471     20.54367  0.19426  57416.81114   0.80735   0.4482  4821181.06328  44.59639  18.26512     57456.41    50.93216       44.23496   25.36453  39.12908   45.0    0.27405  -21.66957  0.95782 
  -11.54475  0.02167  3.91503      14.1627   1.6901  1.24247   4.52547   0.1868     0.05097   8174.05056   5313.21063  2.16478          4334.1517     17.07401    7e-05  57417.04525    1.8037  0.09808  1137103.21843  45.25549  18.23011  57455.42289    50.89086        44.1869   29.97627  39.19973   41.0     0.2426  -21.46207  0.99178 
   -8.82861  0.05447   3.3632     14.41402  1.76161  0.45048   6.59721  0.08677     0.02165   8011.60746   5250.36001  2.38373         4017.05703     20.88077  0.42218  57419.76139   2.52596  0.35934   274904.21434  46.02207  18.23985  57455.42289    51.02917       44.33588   16.14107  42.25225   41.0    0.27916  -21.87943  0.97934 
   -9.13314  0.42449  4.50727     14.92457  1.81649  0.27157   7.96652  0.09332     0.01558   8431.92772   4531.93108   2.5041         4019.47124     18.25763  0.00101  57419.45686    3.3787  3.38169    48499.45663  46.53451  18.18813     57453.54    50.92827       44.23121   26.50842  40.29106   43.5    0.24242  -21.40529  0.74741 
  -11.36231  0.38863  5.88855     14.84463  2.00794  0.18626   6.42717  0.06477      0.0148   8802.88492   4542.14364  2.18834         4222.51111     17.78423  0.00034  57417.22769   2.97096   2.4978   132228.82595  45.91025  18.20882  57455.42289    50.92495       44.23567    27.6704  37.78189   43.5     0.2827  -21.52108  0.72594 
  -12.11905  0.46862  4.75265     13.98547  1.54001  0.83681   5.56681  0.06582     0.01116   8229.36466   4863.90428  2.39135         4211.85617     18.69641  0.00276  57416.47095   2.24888   2.6087  3453643.32051  44.56422  18.22908     57456.43    50.89204       44.19544   29.97627  39.19973   42.0     0.2954  -21.52159  0.72065 
