 texplosion  fnickel     Pspin  log(Bfield)      Mns  thetaPB   mejecta    kappa  kappagamma     vejecta  temperature    alpha  cutoff_wavelength  log(nhhost)      A_V         MJD0  kenergy   mnickel               TSD   log(L0)  Peak_mag     Peak_MJD  log(E_rad)  log(Peak_lum)  Rise_Time     E_fold  tau_1  delta_m15     r_peak     frac 
  -18.67416  0.24716   3.76074     13.39222  1.61548  0.55219  28.12565  0.06196     0.04362  4635.16141   9350.63082  3.23766         3263.33186     18.75378  0.00315  59116.49772  3.60462   6.95167    34850907.24221  43.78438  19.95511  59236.35685    51.22177       43.84841   89.82005  198.13247  180.0    0.02195  -20.80388  0.46721 
  -53.02398   0.2903    4.2469     13.41588  1.72303  0.72091  36.39031   0.0838     0.03686  3327.39633   9034.26221  0.91185         3439.03644     17.78717  0.00034  59082.14789  2.40338  10.56411    42509949.30786   43.6205  19.94332  59249.51402     51.1748       43.81063  105.20118  180.10957  180.0    0.01711  -20.72129  0.35678 
  -23.61209  0.35213   3.55813     13.34016  1.47137  0.64515   17.6609  0.10413     0.06235   4408.7947   9491.45978  3.83084         3500.75411     16.79096    3e-05  59111.55979  2.04776   6.21886    36113035.41858  43.77646  20.08403  59239.79907    51.26414       43.85238   97.74535  237.75896  186.0    0.02367  -20.83253  0.52039 
  -23.46744  0.34321   3.56353     13.17719   1.7277  0.67224   23.8187  0.10831     0.03656   4619.5629   9569.13269  3.66651         3553.66792     18.48907  0.00171  59111.70443  3.03212   8.17484    90088618.28949  43.44788  20.09422  59284.54795    51.31841        43.8052  245.68426  256.25133  174.0    0.01944  -20.75442  0.38867 
 -159.61295  0.40785   29.7345     14.73921   1.3763  1.41678  98.25491  0.17407     0.01149   1921.1482   6982.79627  2.32587         3043.38465     17.79897  0.00035  58975.55892  2.16323  40.07355     3755129.90524  42.88641  19.97341  59232.51245    51.22621        43.8355    77.8462  213.58353  238.0    0.00547  -20.21008  0.00368 
  -27.51268  0.21838   4.35489     13.69552  1.67889  0.53125   37.0369  0.05088     0.03608  3385.30561   8875.17613  0.41902         2803.24577     18.21351  0.00091  59107.65919  2.53196   8.08805    12015728.07659  44.13616  19.95242  59249.51402    51.27001       43.93227   81.58953  185.56907  144.0    0.02062  -20.78411  0.46292 
  -18.70484  0.30014   3.21803      13.1265  1.45358  1.01936  18.26881   0.1174     0.06536  5527.11537   9021.40453  3.62073         2611.52203     16.02884    1e-05  59116.46703  3.32916   5.48314    78059722.68797  43.52368  19.90886  59239.79907    51.24438       43.88681   93.36806  207.79329  196.0    0.02221  -20.72808  0.58917 
 -186.37648  0.42565  18.40913     14.29855  1.59841  0.93168   95.8589   0.2536     0.03281  2670.13523   8804.79793  2.38424         3303.43396     19.24093  0.00968  58948.79539  4.07686  40.80233     12719706.4976  42.83799  19.92557  59239.79907    51.26254       43.90728   89.82005  206.05777  238.0    0.00481  -19.93369  0.01045 
 -179.08996  0.48244  28.01398     14.30624  1.20872  1.46852  95.87727  0.20003     0.01147  1959.57042    7672.3884  1.02141         3734.64413      17.5505   0.0002  58956.08191  2.19616  46.25458    21498845.39105    42.124  19.99325  59239.79907    51.31058       43.91889  118.87948  192.68842  244.0    0.00535  -20.14244  0.00265 
  -16.18079  0.29959   2.16766     12.70396  1.71572  0.92728   27.9403  0.07863     0.03178  5233.05961   8996.77879   2.1798         3035.84339     20.37282  0.13108  59118.99109  4.56425   8.37059   292627771.52461  43.36499  20.08129  59250.12574    51.17363       43.78488  110.95418  200.77423  196.0    0.02001  -20.88181  0.50525 
   -43.2668  0.37533     4.365     13.67809  1.78973  0.34371  21.65165  0.13681     0.08904  4989.87867     9458.275  4.15778         3548.78845     17.90749  0.00045  59091.90507  3.21587   8.12656    13944348.38118  44.09727  19.92025  59243.24129    51.27635       43.91794  103.02888   179.6401  178.0    0.01859  -20.76641  0.39128 
  -25.66211  0.47148    4.4326      13.3863  1.79733  0.52349  20.78173  0.12095     0.05969  4613.68012   9262.67664  4.63944         3385.45824     17.65138  0.00025  59109.50976  2.63878   9.79822    55354199.01802    43.487  19.93698  59232.51245    51.29972       43.89422    89.5114  235.42585  152.0    0.02362  -20.85947  0.27028 
  -26.24711  0.23202   3.42087     13.33538  1.62366  0.66473  26.55596  0.06326     0.03859  4271.13007   8851.96812  2.12438         2610.86032     17.97091  0.00052  59108.92477  2.88985   6.16148     37654605.1794  43.83525  19.96938  59243.24129    51.26723       43.89302  105.67065  206.05777  192.0    0.02243  -20.80427  0.57446 
  -35.49719  0.30744   4.45713     13.62786  1.54637   0.4953  23.23627  0.12102     0.09736  4287.12618   9768.61041  4.20207         3682.17415      16.8385    4e-05  59099.67468  2.54757   7.14386    15831769.85095  43.96052    20.387  59291.49219    51.23919        43.7107  251.01368   266.7725  170.0    0.01961  -20.74768  0.42414 
  -14.01006  0.26767   4.53304     13.83937  1.85114  0.37419  19.23191  0.07961     0.07171  4547.18749   9539.97904  3.94989         3805.94334     18.59954  0.00221  59121.16181  2.37211   5.14777     7400923.24729  44.35422  19.86946  59246.68351    51.30136       43.93474   95.10358  182.28187  174.0    0.01366  -20.95325  0.57591 
  -23.16251  0.25209   3.61339     13.25246  1.68558  0.77651  28.64436  0.06937     0.03766  4720.40343   9640.77599  4.78115         2669.52847     17.07972    7e-05  59112.00937  3.80736   7.22083    63896476.05759  43.57429  20.18392  59294.62521    51.26541       43.74435  245.49285   259.0845  186.0    0.02333  -20.73607  0.48755 
 -187.45405  0.42141   13.1302     14.42177  1.74374  0.64729  95.37351  0.21831     0.02251  2077.94102   8473.44639  2.40335         3109.28138     19.08036  0.00668  58947.71782  2.45653  40.19149      4002258.7495  43.67148   19.9067  59243.24129    51.25839       43.88605   95.10358  198.13247  248.0    0.00414  -19.86861   0.0248 
  -28.64628  0.34559   4.54623     13.46678  1.89154  0.64472  24.35937  0.08949     0.03567   3658.2359   9787.15527  3.74248         3877.76274      19.4503  0.01567   59106.5256  1.94463   8.41832    42302849.10387  43.60399  19.98847  59249.54688    51.20523       43.82093  118.43523  203.86025  174.0    0.01884  -20.87339  0.38561 
  -33.15965  0.42178   3.17731     13.11358  1.56906  0.82392  17.68451  0.14476     0.06724  5342.38296    9596.1484  3.65637         3096.57077     17.73764   0.0003  59102.01222  3.01086   7.45899    87178190.84234  43.51996  19.89493  59246.68351    51.24866       43.87985   97.74535  192.84894  193.5    0.02358  -20.77063  0.49262 
  -64.09402  0.24857   4.73294      13.6413  2.00598  0.55228  40.00778  0.09253     0.02355  3155.08001   9241.92749   1.5996         3475.96153      18.5693  0.00206  59071.07785   2.3757   9.94468    21767508.59221   43.8831  20.01895  59243.24129    51.26639       43.85064   95.10358  237.75896  194.0    0.01316  -20.61674  0.38676 
  -25.27752  0.47337   2.27615     12.71912  1.54217  1.06083  20.13799  0.11407     0.04238  4608.44863   9056.22142  0.18564         2883.59048     18.23842  0.00096  59109.89435  2.55125   9.53267   270457479.42563  43.31048  19.91314  59252.53544    51.27564       43.92821   95.10358  200.77423  194.0    0.02056  -20.85142  0.46643 
  -31.86263  0.36409   4.09878     13.26391    1.827  1.04384  23.87727  0.10238     0.04004  4521.05169   9197.84925  0.91257         2950.32831     17.58131  0.00021  59103.30924  2.91133   8.69359    84535657.64943  43.37823  20.00155  59232.91463    51.23492       43.86176   95.10358  198.13247  176.0     0.0188   -20.7651   0.4213 
 -183.15598  0.49735  19.63226     14.49023  1.71731  0.85337  84.18965  0.26894     0.02264  2437.36341   8519.40854  2.80404         2592.68309     19.61171  0.02272   58952.0159   2.9835  41.87214     6429006.65566  43.10961  19.95547  59243.24129    51.26089       43.88639  100.38712  198.13247  240.0    0.00463  -19.92754  0.01054 
   -37.7927  0.11786   3.82402     13.54461     1.84  0.89825  27.24028  0.08862     0.04263   4802.6796   9287.20778   2.4775         2412.63453     18.25181  0.00099  59097.37918  3.74806   3.21044     20344453.4115  44.06018   19.9684  59228.51201    51.25787       43.87218   83.79946  227.63252  174.0    0.02119  -20.83511  0.77639 
  -15.26879  0.42453   3.65592     13.29936  1.75573  0.69574  17.53515  0.10157      0.0455  4938.30363   9501.61547  4.05967         3534.50074     17.94847  0.00049  59119.90308  2.55089    7.4442    54897082.44222  43.64776  19.99905  59230.65324    51.27324       43.86795   96.00983  226.28565  176.0     0.0214  -20.97026  0.48333 
  -22.15381  0.21852   3.63488     13.28788   1.6767  1.33426  20.89876  0.06086     0.04767  4200.50505   9633.40533  4.50331         2500.27735     17.48031  0.00017  59113.01806  2.19964   4.56678     54638436.9086  43.63482  19.94861  59239.79907    51.22242       43.85238   95.10358  182.28187  180.0    0.03625  -20.82942  0.67285 
  -46.70155  0.25146   4.28272     13.39325  1.60767  0.86032  35.92745  0.07716     0.04156  3422.49904   9563.08788  3.79383           2675.497     18.80278  0.00353  59088.47033  2.51038   9.03449    44765739.40102  43.56066  20.15002  59272.49609    51.32672       43.79619  254.92731  268.14241  176.0    0.01762  -20.63658  0.38988 
  -28.20639   0.2881   2.64364     12.86973  1.53974   1.1768  27.45611  0.08466     0.03343  5030.35148   8926.93694  0.06909         2036.85018     16.84067    4e-05  59106.96549  4.14441    7.9102   182056972.72771  43.35168  19.90307  59236.35685    51.19035       43.81951   89.82005    203.416  200.0    0.01959  -20.80293  0.52361 
  -27.40831  0.31273   4.53021     13.60502   1.9172  0.44225  30.31408  0.05781       0.046  4007.12896   9403.77608  0.63268         4665.77623     18.65463  0.00251  59107.76356  2.90361   9.48019    22525559.07726   43.8866  19.97452  59246.68351    51.27929       43.88441  103.02888   211.3413  152.0    0.03274  -20.89033  0.35772 
  -29.69435  0.27139   4.05653     13.38681   1.8722  1.23996  19.44228  0.10276     0.04709  4585.33964   8503.68313  2.11623         2222.74692     16.26205    1e-05  59105.47752  2.43847   5.27646    48179211.21424  43.64203  19.95462  59246.68351    51.23016         43.846  110.95418   186.8705  172.0    0.02297  -20.85972  0.62889 
  -23.42724  0.33929   2.44029     12.66141  1.52516  1.30884  25.02077  0.10457     0.03984  5313.77074   9648.87574  3.23005         3553.72696     19.80917   0.0358  59111.74463  4.21438   8.48939   401049638.30817  43.07408  19.93705  59246.68351    51.25487       43.91547   90.72629  199.17309  178.0    0.02261  -20.81882  0.42235 
  -20.00111  0.37707   3.65259     13.50913    1.631  0.49918   15.6722  0.08531     0.07232  4623.26757   8826.23124  1.88755         3096.98705     16.69698    3e-05  59115.17076  1.99827    5.9095     19374000.0919  44.06888   19.9501  59232.91463    51.22391       43.82152   92.46182  189.81455  176.0    0.03236  -20.87197  0.57007 
  -37.94908  0.26089   4.20537      13.5753  1.75038  0.46026  28.98043  0.09383      0.0496  4436.90062   9323.57024  2.72191         3488.00304     17.90367  0.00045   59097.2228  3.40323   7.56071    20321867.41507  43.95641  19.88599  59250.51562    51.28347       43.90485  132.08831  182.28187  186.0    0.01733  -20.72815  0.44046 
  -14.52262  0.28055   3.73099     13.35938   1.6977  0.71178  16.47898  0.09156     0.04245  4718.77887   9465.30745  4.60395         3491.08229     18.20528  0.00089  59120.64926  2.18885   4.62316    41933030.77542   43.7325  20.20004  59291.38914    51.29144       43.74857   258.8599  277.41865  192.0    0.02085  -20.78786   0.6163 
  -23.55393   0.1736   3.26911     13.61162  1.77678  0.31447  21.03776  0.07337     0.02862  4347.34869   9381.45359   1.9031         3876.98768     17.52303  0.00019  59111.61795  2.37179   3.65206    10545299.97514  44.46656  19.98904  59239.79907    51.25281       43.85896   97.74535  206.05777  224.0    0.01623  -20.74361  0.72702 
   -16.7277  0.17263   1.51164     12.59673  1.39497   0.4361  49.90478  0.02277     0.02329  4712.10861   8306.17785  0.29855          3026.1681     16.79473    3e-05  59118.44417  6.60998   8.61519   189592242.01223   43.7767  19.93456  59243.24129    51.31278       43.94578   97.74535  190.20717  180.0    0.04065  -20.81889  0.44569 
 -189.27028   0.4521   8.14206     14.32195  2.05709  0.92879  80.81984  0.21587     0.01565  1895.63171   9437.99773  1.42709         2686.31722     17.77886  0.00033   58945.9016  1.73242  36.53863     2875038.57874  44.30199  19.94964  59243.24129    51.18195       43.81996   95.10358  192.84894  242.0    0.00432  -19.67012  0.08896 
  -22.22366  0.26669   3.77021     13.31964  1.72091  0.91237  21.00461  0.10212     0.04241  4778.69153   9404.97972  2.66668         3025.53069     17.50947  0.00018  59112.94822  2.86128   5.60179    52121786.96039  43.63485  19.93312  59230.65324    51.16973       43.81504   96.00983  194.64455  190.0    0.02056  -20.73271   0.5861 
  -21.04619  0.35069   2.28548     12.68366  1.50487  0.96863  21.98722  0.10456     0.05483  5607.00762   9718.13708  3.78931         3477.46994     17.15713    8e-05  59114.12568  4.12344   7.71077   313294087.31495  43.23244   19.8322  59236.35685    51.24982       43.85124   87.60539  221.90836  190.0     0.0194   -20.8111   0.4613 
  -28.45283  0.36061   4.55102     13.52244  1.81925  0.75102  20.82045  0.09763     0.10057  4508.17037    8674.9776  4.50571         2906.32074      17.1367    8e-05  59106.71904  2.52417   7.50796    31553230.27302  43.71348  19.94534  59236.35685    51.22197       43.85345   89.82005    203.416  160.0    0.03261  -20.90402  0.45753 
  -29.83685  0.20235   3.61473     13.42877  1.68824  0.57882  30.43042  0.07534     0.04204  4920.82091   8772.54865  2.11339         2772.72725     18.47184  0.00165  59105.33502  4.39552   6.15747    28435141.26985  43.92627  19.92125  59239.79907    51.26374        43.9005   88.01373  200.77423  200.0    0.02006   -20.7801  0.56417 
 -163.62158  0.37092  16.77169     13.96959  1.37453   1.5384  94.21661  0.15913     0.02599  1961.88121   8403.30708  2.25335         3200.96642     17.84572  0.00039   58971.5503  2.16322  34.94677    41298566.73987  42.34191  19.87963  59239.79907     51.2218       43.87185   95.10358  184.92364  228.0    0.00513  -20.05045  0.01043 
  -26.93296  0.34473   4.10463     13.42234  1.73363     0.59  25.87098  0.08831     0.05458  4477.61607    9011.1607  3.34448         2770.47797     17.69133  0.00027  59108.23891   3.0941   8.91846    38782526.80235  43.69262  19.95718  59249.51402    51.22711       43.83474  103.02888  206.05777  170.0    0.01903   -20.8301  0.38656 
  -18.28422  0.19177    3.4223     13.24921  1.49785   0.7583  34.46757  0.02554     0.02389  3578.23679   9285.50326  1.40832         3493.03908     17.27183   0.0001  59116.88765  2.63255   6.60996    51700518.57298  43.66218  19.94281  59246.68351     51.2091        43.8184  105.67065  192.84894  182.0    0.03358  -20.76202  0.52043 
  -179.4411  0.42706  18.08708     14.52311  1.49513  0.51335  95.72722   0.2435     0.02705  2681.27961   8409.69745  2.84348         2827.26326     18.77177  0.00328  58955.73077  4.10532  40.88131     4083249.59301  43.31778  19.85044  59243.24129    51.28567       43.96758   87.17829  176.99834  234.0    0.00568  -20.00366  0.01001 
  -15.97335  0.27563   3.96872     13.73178  1.94838  0.38898  14.23491  0.09709     0.08468  5716.01594   9112.66126  2.83679         3727.76529     18.49352  0.00173  59119.19853   2.7744   3.92364     9800298.49201  44.36998  20.24107  59281.10573    51.26341       43.76156  237.75896  250.96779  196.0    0.01467    -20.971  0.69865 
   -185.892  0.42909  18.88366     14.60248  1.68257  0.53485  93.70919  0.24471     0.02417  2475.66331   8424.43244  2.37177         3421.38396     19.61546  0.02292  58949.27988  3.42604  40.20988     3475358.20993  43.40165  19.95893  59243.24129    51.25779       43.87175  110.95418   187.5654  238.0    0.00534  -19.95579  0.01134 
  -34.04015  0.23144   4.60274     13.56457  1.81252  0.53235  38.06014  0.04775     0.02957  3257.24949   9093.72334  1.99961         3575.28289     18.85269  0.00396  59101.13172  2.40879   8.80882    26483837.24726  43.77811  19.96147  59239.79907     51.2036       43.83511  100.38712  176.83782  156.0    0.02621  -20.77929  0.37112 
  -39.96052  0.19213   3.99062      13.5423  1.74286  0.46012  42.76138  0.04041     0.02385  3582.85219   9302.59398  1.24447         3437.34476     19.50737  0.01787  59095.21135  3.27444   8.21594    21210469.26234  43.98148  20.00341  59243.24129    51.20118        43.8369   97.74535  190.20717  170.0    0.02641  -20.77757  0.43955 
 -188.60408  0.47217  20.27221     14.45118  1.48573  0.88216  98.39544   0.2545     0.02184  2510.12755   8061.33051  2.79881         2509.46507     18.61566  0.00229   58946.5678  3.69823  46.45897     7099101.04784  42.97578   20.0067  59239.79907    51.23307       43.83118  108.31242  190.20717  244.0    0.00511  -19.99717  0.00721 
  -25.80086  0.34109   3.98946     13.37498  1.48717  0.75228   18.2818  0.11948     0.06771  5062.32117   9811.30675   4.6029         3742.23916     17.89183  0.00043  59109.37102  2.79477   6.23569     39087470.8466  43.64734  19.85912  59236.35685    51.21027       43.83735  100.38712   200.9085  173.0    0.02509  -20.85203  0.48385 
  -18.58628  0.25507   3.26022     13.60589  1.75064  0.31441  14.87213  0.12497     0.03699  4850.39748   9679.27676  3.49263         3014.09067     19.09653  0.00694   59116.5856  2.08716   3.79344    10610188.30186  44.45983  19.83154  59219.14574    51.22722       43.87857   76.61122  204.91081  200.0    0.01624  -20.63101  0.71611 
 -162.85352  0.43294   9.14877     13.66073  1.26837  0.78053  97.16501  0.19098     0.03402  2426.11102   7318.31225  2.28648         2093.99267     16.41074    1e-05  58972.31836   3.4116  42.06635    47025836.45263  42.77703  19.98928  59243.24129    51.24298       43.84848  113.59595  189.51227  232.0    0.00505  -20.32175  0.02003 
  -22.79826  0.30309    3.5596     13.18729  1.82493  0.78901  23.15445  0.08262     0.04949  5398.04501    9280.1713  4.86286         3223.40765      18.6741  0.00262  59112.37362  4.02471   7.01795    90631638.04744  43.47001  20.02307  59246.68351    51.20136       43.79213  116.23771  200.77423  184.0    0.02267  -20.84287  0.48161 
  -26.37909  0.24936    3.6106     13.34196  1.68481  0.77293  23.61785   0.1029     0.04897  4681.30619   8909.35931  1.35622         2655.78298     18.88892   0.0043  59108.79279  3.08746   5.88943    42229256.75418  43.75462  19.96951  59249.51402    51.24254       43.84879  102.55941   217.0943  204.0    0.01774  -20.72382  0.58445 
  -24.43298  0.49216   3.27065     13.09276  1.62827  0.98628  15.73702  0.12024     0.08961  5503.99279   9445.59062  1.40707         2816.94029     16.00432    1e-05  59110.73889  2.84384   7.74509   105509177.46978  43.42801  19.95162  59239.79907    51.23569       43.85214   92.46182  206.05777  186.5    0.02479  -20.82878    0.489 
  -25.77332  0.22914   3.80697     13.39309  2.04241   0.6284  27.86398  0.05959     0.03074  3981.42118   8981.70867  0.74595         3535.55569     18.91366  0.00455  59109.39855  2.63479   6.38476    44971325.64686  43.76489  20.02148  59246.68351    51.27081       43.86649  100.38712  232.47543  204.0    0.02494  -20.73041  0.55153 
