 log(Bfield)      Mns    Pspin  cutoff_power  cutoff_wavelength  fnickel    kappa  kappagamma   mejecta  log(nhhost)  temperature  texplosion  thetaPB     vejecta      A_V        MJD_0   log(KE)      M_Ni  Peak_mag     Peak_MJD 
    14.37737  1.90663  6.22423       1.08855         3171.83241  0.04301  0.05292      0.0564  15.93657     17.47052   6221.85032    -8.00176  0.67125  7606.67326  0.00016  59026.19824  52.40395   3.15892  18.37038  59075.93472 
    13.99619  1.61078  3.58227       0.31447         5787.68411  0.00685  0.25744     0.24959   3.84856     20.90584   6133.68939    -8.29001  1.37873   7039.0363  0.44727  59025.90999  52.19403   0.36228  18.37386  59077.28126 
    14.74394  2.14234  5.98035       0.27194         4852.27134  0.19983  0.18943     0.33596   6.06081     17.40719   5925.77602     -7.2947  0.40223  7145.60465  0.00014   59026.9053  52.25792  11.88181  18.37511  59077.28126 
    14.11521  1.82319  5.61076       0.03977         5071.31434  0.01395  0.10269     0.09168    8.6539     17.32152   3015.87391    -9.56931  1.19453  7393.27212  0.00012  59024.63069  52.32359   0.90113   18.3459  59077.28126 
    14.18234  1.89875  5.53738       0.71341         2203.84176    0.016  0.12493     0.24542   7.59491     18.32464   5391.79817     -9.0178  1.19151  6862.31305  0.00117   59025.1822  52.24598    1.0035   18.3095  59076.00873 
    14.04729   1.5761  4.94262       0.02031         4815.76173  0.00435  0.31701     0.27671   2.76214     16.49905   6171.00941    -8.77916   1.0648  7696.92279    2e-05  59025.42084  52.23035    0.2091   18.3754     59079.18 
    14.22791  1.67489  5.43078       0.14666         5470.89296  0.08935  0.10543     0.14363   6.48801     16.91104   6186.11796    -7.56804  0.85244  6963.76459    5e-05  59026.63196  52.24266    5.4009  18.39692   59080.5147 
    14.01863  1.56873  5.00528       0.09284         5511.59203  0.00847  0.17383     0.24996   4.96255     17.20133   4679.47389    -8.18158  1.23247  7919.04067    9e-05  59026.01842  52.32554    0.4793  18.34588  59077.28126 
    14.08646   1.5008  5.02871       0.85442         3134.24116  0.02103  0.24852     0.22652   2.92767      17.5201   6995.31257    -8.78078  0.89164  6884.33519  0.00018  59025.41922  52.14097   1.02931  18.42083  59077.28126 
    14.22171  1.37061  4.78869       0.27764         2151.88139  0.01346  0.09702     0.08733   8.16884     17.07688   4847.40808    -9.35001  0.43827  8785.82709    7e-05  59024.84999  52.46784   0.85848  18.36355  59077.28126 
    14.13414  1.55141  4.45147       0.07961         4166.67203   0.0791   0.1611     0.29359   5.93471       20.241   4955.30868    -9.90098   0.9349   6887.4945  0.09677  59024.29902  52.22374   4.67916   18.4112  59076.00873 
    14.12273   1.6562  4.84467       0.34597         5350.08407  0.08261  0.14524     0.21978   4.39107     19.65345   7946.35121    -7.13469  1.35998   5782.1646  0.02501  59027.06531  52.03857    4.5266  18.36328  59076.00873 
    14.32357  1.54779  4.82104       0.90882         2158.47159  0.01115  0.10056     0.19593   7.71394     19.20776   6539.40765    -7.79079  0.48919  7204.98704  0.00896  59026.40921  52.28986   0.70215  18.37551  59077.28126 
    14.13235  1.83246  5.45339       0.03904         5653.67056  0.12118  0.30365      0.4358   2.60642     17.56819   5625.53218    -8.31651  1.28043  7113.65752  0.00021  59025.88349  52.15425   5.72632  18.37476  59075.93472 
    14.06514  1.65665  4.90279       0.12279         5950.30493  0.01562  0.16139     0.26801   4.23598     19.17404   7396.28562    -7.60332  1.51211  6673.61859  0.00829  59026.59668  52.15897    0.8479  18.40876  59077.28126 
    14.22118   1.8496  5.47566       0.30879         5099.85551  0.00303  0.31906     0.22156   2.34143     18.79356   5133.28697    -8.97587  0.89143  6340.10693  0.00345  59025.22413  52.03977   0.13849  18.40643  59076.00873 
     14.2084  1.91312  5.52587        0.0541         4661.73635  0.10061  0.22538      0.2242   3.92254     18.98816   5572.13223     -7.7888   1.3649  7133.35533  0.00541   59026.4112  52.20785    5.3489  18.39468  59077.28126 
    14.04756  1.88229  5.82148        0.2654         3296.44769  0.01188  0.26949     0.13927   2.31878     17.18221   5183.91624     -8.7457   1.5052  7250.08157    8e-05   59025.4543  52.15493   0.54119  18.36448  59077.28126 
     14.2087   2.0918  5.58442       0.05158         5542.71876    0.006  0.18233     0.31991    3.1367     20.00879   4127.30138    -6.78153  1.51693  6628.06756  0.05669  59027.41847  52.11678   0.29939  18.33711     59079.18 
    14.09401  1.54489  4.95006       0.12783         2534.05829  0.02433  0.04398     0.17074  18.86138     19.59464   5978.38838    -8.30022  1.03203  7377.28556  0.02185  59025.89978  52.39153     1.846    18.433     59079.24 
    13.94912  1.56472  4.71958       0.28793         3975.64762  0.04409  0.16905     0.23329   5.34171     20.43027    4848.5561    -9.33168  1.46194  7698.75339  0.14962  59024.86832  52.30913   2.54087  18.39542  59077.28126 
    14.13475  1.59653  5.10706       0.20207         4351.06858  0.02638  0.11146     0.12611   7.85567     19.48467   5345.12515    -7.50131  0.85847  8200.55112  0.01696  59026.69869   52.4041   1.66762  18.37817     59074.18 
    14.22399  1.76251  5.60529       1.34021         2305.61263  0.03244  0.21635     0.23531   3.41109     17.67621   5914.83856    -8.01659  0.77491  7316.21514  0.00026  59026.18341  52.21301   1.65895  18.41551  59077.28126 
    14.17204   1.5653  5.25271       0.39419         3129.62793  0.01892  0.28914     0.34421   2.74744     17.03475   5692.63994   -10.01789   0.6127  8051.85383    6e-05  59024.18211  52.26881   0.90853  18.40848  59075.93472 
    14.16627  1.86466  5.62983       0.11573          2121.9289  0.02448  0.30022     0.23748    2.5136     18.32633    6037.3577     -8.5839  0.98024  7625.68284  0.00118   59025.6161  52.20978    1.1438  18.39618     59074.18 
    13.93494   1.3999  4.91989        0.0892         4039.60469  0.17573  0.22822     0.27703   4.00944     19.65771   7621.13432    -9.38727  1.46118  8315.49487  0.02526  59024.81273  52.34362   9.39847  18.40692  59076.00873 
    13.95491  1.44491  4.73237       0.08205         3487.79238  0.01388  0.32086     0.40485   2.41528      18.8451   5669.50863    -7.74481  1.21035  8199.62717  0.00389  59026.45519  52.26741   0.64059  18.42203  59075.93472 
    14.20025  1.72045  5.59052       0.42385         2878.38676  0.01942  0.30427     0.27064   3.05556     16.73015   6719.03519   -10.22878   0.6622  8342.45758    3e-05  59023.97122  52.31329   0.96243  18.39273  59075.93472 
    14.13361  1.68202  5.19592       0.32999         2059.04013  0.15978  0.27508     0.26269   2.72744     19.98894   4170.84067    -8.82935  0.97171  7563.27756  0.05416  59025.37065  52.21348   7.65513  18.35332  59077.28126 
    14.02185  1.52364  4.56159       0.08245         4877.78591  0.00186  0.25691     0.26392   3.03604      16.6535   7264.86037    -7.70489  1.33326  6686.14172    3e-05  59026.49511  52.12024   0.09217   18.3922     59079.24 
    14.38117  1.85137  5.41526       0.00893         2971.94134    0.006  0.05395     0.05958  13.79188     17.61815   5710.93478    -8.75795  0.58679  6668.01817  0.00023  59025.44205  52.27701   0.42783  18.41676  59077.28126 
    13.89222  1.37923  4.70553       0.40949         2649.64621  0.01724  0.19139     0.24883   4.07277     16.82911   3086.50699    -8.20521  1.17502  8493.51816    4e-05  59025.99479  52.36385   0.92586  18.42181  59077.28126 
    14.08478  1.66183  4.99183       0.14894         2754.71146  0.00281  0.18139     0.27564    3.6041     19.32962   4831.84428    -8.44541  1.06354  6694.59824  0.01187  59025.75459  52.14259   0.14614  18.36464     59079.18 
    14.03875  1.83404  6.14311       0.07832         4721.99682   0.0518   0.2044     0.18319   3.96812     19.27313   6392.95222   -10.53907  1.19306  8812.40057  0.01042  59023.66093  52.39281   2.76275  18.39112  59077.28126 
    14.10428  1.63485  4.91208       0.02711         4844.04665  0.00246  0.16343     0.43448   4.87661     18.69401   6145.32444    -7.80901  1.09452  7389.53551  0.00275  59026.39099  52.26348    0.1386  18.38707  59075.93472 
    14.10032  1.77685  5.66917       3.98531            2718.01  0.00912  0.33054     0.34457   2.65638     18.49988   5894.64588    -8.29517   1.1826  7220.51895  0.00176  59025.90483  52.16972   0.43349  18.36287   59080.5147 
    14.02249  1.49608  4.45415       0.28935         3548.73097  0.02866  0.18127     0.13057   4.03129      19.4516   5490.82227     -8.3152  1.17663  6371.92611  0.01572   59025.8848  52.11302   1.53482  18.37244  59077.28126 
    14.02723  1.66602  5.66553       0.21593         4511.69889   0.1715  0.33713     0.44998   1.81448     16.81551   6291.15247    -8.12722  1.46835  7563.09226    4e-05  59026.07278  52.15645   7.20563  18.39449  59076.00873 
    14.14532   1.9244  5.65102       0.03488         5912.77918   0.0036  0.13263     0.12859   6.17427     18.79588   5728.37071    -7.64563  1.51676  7345.87199  0.00347  59026.55437  52.28388   0.21489  18.35966  59077.28126 
    14.09731  1.71345  5.65411       1.84881         2677.28139  0.00506  0.21334     0.32433    3.7731     16.94796   4261.87649    -8.24588  0.94205  8560.67991    5e-05  59025.95412  52.36166   0.26609  18.39088  59077.28126 
    14.41898  1.90268  5.83273       0.03727         3692.17345  0.00801  0.25397     0.31895   4.31069     16.25564   4986.81328   -10.19276  0.45617  8669.83378    1e-05  59024.00724  52.38829   0.43664  18.40275  59075.93472 
    14.32589   1.9383  6.18947        0.3207         5743.87334  0.00749  0.10178     0.18176   5.78544     16.80223    5559.9839    -9.57518  0.64663  6478.97317    4e-05  59024.62482  52.16791   0.44057  18.39435  59075.93472 
    14.39415  1.87313  5.92251       0.13224         5540.88219  0.06154  0.20438     0.38583   2.85077     18.41441   5205.14777    -7.68023  0.56119   7066.3069  0.00144  59026.51977   52.1602    2.9877  18.37332  59077.28126 
    13.93234  1.33396  4.49877       0.08173         4871.51849  0.01768  0.10428     0.09754   6.98313     16.62493   6332.35802    -8.69249  1.05201  7551.23436    2e-05  59025.50751  52.32059   1.08741  18.40536     59079.18 
     14.0435  1.63194  5.34809       0.14003         2070.48762  0.04409  0.17136      0.2519   5.35437     18.47186   3889.83072    -9.32003  0.90086  9163.83129  0.00165  59024.87997   52.4607   2.54252  18.41022  59077.28126 
    14.13013  1.75982  5.79919       1.93789         2464.13859  0.20671  0.24671     0.19587   3.56594      17.7389   5068.73232    -9.08218  1.17735  7052.22165   0.0003  59025.11782   52.1865  10.70478  18.39866  59077.28126 
    14.13914  1.64314   5.1571       2.35913          2268.0698  0.00271  0.23897     0.24782   4.08523     18.13473   7294.64957    -9.34548  0.81159  7398.80359  0.00076  59024.85452  52.24436   0.14562  18.37551     59079.18 
    13.99476  1.54268  5.17336       0.01449         4969.76903  0.01636  0.04379      0.0335  15.34283     16.33574   7058.27942    -8.74187  1.14834  7570.66905    1e-05  59025.45813  52.39657   1.19271  18.36029     59074.18 
    14.18223  1.70945  5.86677       3.42179         3181.44131  0.00982  0.18607     0.16362   3.63025     18.47871   3261.69152     -8.5337  0.76001   6646.1527  0.00167   59025.6663  52.13715   0.51125  18.41753  59077.28126 
    14.08229  1.57185  5.50001       0.62812          3264.6831  0.06456  0.12246     0.08609   6.40349     18.56652   5552.89351    -8.52836   0.7885  8769.85509  0.00205  59025.67164   52.4416   3.89012  18.33013  59076.00873 
    14.29942  1.58606  5.20313       0.31998         3900.26934  0.00998  0.19408     0.26453    4.8644     16.02767   5730.18629     -9.7534   0.4847  7976.40224    1e-05   59024.4466  52.32958   0.56177  18.34225  59077.28126 
    14.34916  1.90306   5.4199       0.07308          5340.2032  0.00517  0.11891     0.40706   6.93436     18.22184   6400.42059    -7.97872  0.61993  7067.18014  0.00093  59026.22128  52.26233   0.31724  18.38853  59075.93472 
    14.16699  1.90801  6.16964       0.02817         5040.17099  0.02098  0.08675     0.08052    7.3116     17.37043    6792.1267    -8.24058  0.93093  8085.31861  0.00013  59025.95942  52.38461   1.30441  18.38884     59079.18 
    14.17463  1.39326   4.4316        0.3177         5252.76024  0.07656   0.1004     0.06735   7.98459     20.01744   8402.61612    -8.45016  0.74886  6436.22899  0.05783  59025.74984  52.19529   4.85719  18.35056  59077.28126 
    14.19667  1.85418  5.55284       0.43479          5074.8984  0.00144  0.30523     0.18476   2.20861     16.13394   7762.17394    -7.06516  1.02032  6141.01031    1e-05  59027.13484  52.00396   0.06448  18.38143  59077.28126 
    14.14537  1.59236  5.06768       0.11715         5716.07514  0.01013  0.12724     0.23895   5.76753      17.1684   3615.14839    -8.67613  0.77484  7255.94724    8e-05  59025.52387  52.26596   0.59497  18.42055     59074.18 
     14.0792  1.64873  5.26355       1.88343         3248.75286  0.04828  0.28366     0.37813   2.95069      16.3887   5993.77659    -6.87056   1.2801  6639.28526    1e-05  59027.32944   52.1105   2.36812  18.42261     59074.18 
    14.40264  2.14154  6.58943       2.60023         3517.94859  0.00275  0.26719     0.45311   3.59509     18.91563    6813.7285    -9.12047  0.68776  6474.00744  0.00457  59025.07953  52.11318   0.14292  18.35747  59077.28126 
     14.1192  1.72392  5.58129       0.11002         5958.30068  0.02774  0.22297     0.25352   3.21155      17.3675   6426.22044    -8.10087  0.93592  8309.76252  0.00013  59026.09913  52.31614   1.39442  18.38241  59077.28126 
    14.19952  1.69307  5.49416       0.22633         2297.96594  0.00969  0.24146     0.40039   3.66986      18.1784   5677.57092    -8.53265  0.66744  9048.84056  0.00084  59025.66735  52.40651   0.50591  18.41659  59076.00873 
    14.25071  2.10657  6.36287       4.31828         2412.30781   0.0658  0.14011     0.37884    7.7108     16.65239   4515.27996    -9.87621  1.06732  7385.22842    2e-05  59024.32379  52.31128   4.14147  18.36757  59077.28126 
     14.2345  1.79177  5.46794       0.19459         2373.39688  0.02649  0.16999     0.45248   4.25085     17.47488   5545.92622    -7.78527  0.77443   7506.9584  0.00017  59026.41473  52.26158   1.43911  18.43153  59075.93472 
    14.59351  1.76761  4.63971       0.32855         3153.83038  0.02088   0.1571     0.11926   6.47946     20.65832   5142.33834    -8.00704  0.30005  8170.07626  0.25296  59026.19296  52.38129   1.26155  18.42838  59075.93472 
    14.57034  2.15755  6.16918       0.18893         3000.01839  0.00747  0.18912     0.20442   3.91147     17.35878   4912.32774    -8.06832  0.45788  6816.41925  0.00013  59026.13168  52.16804   0.39697  18.37602  59075.93472 
    14.09617  1.80796  5.95095       0.01812         5716.22863    0.026  0.05583     0.10865  14.27894     16.02129   4569.91961   -10.49578  0.92299  8296.32239    1e-05  59023.70422  52.46983   1.86792  18.42083  59077.28126 
    14.07213    1.569   5.2222       0.35985         2899.06189  0.00437  0.32225     0.24113   2.80742     16.51879    6528.3185    -8.94877  0.82091  9096.24858    2e-05  59025.25123  52.37756   0.21134  18.38444     59079.18 
    13.95508  1.54269  4.80463       0.10252         3415.12439  0.01489  0.21272      0.4185   3.36727     19.96195   4732.18831    -8.82041  1.38956  7401.93517  0.05089  59025.37959  52.22153   0.75891  18.40841  59075.93472 
    14.03195  1.51395  5.03753       0.20748         2788.01781  0.02368  0.05195     0.06319  14.96084     16.78506    7210.5426     -8.2096  1.14601  7796.32741    3e-05   59025.9904   52.4199   1.71772  18.40342  59075.93472 
    14.32866  1.80475  5.39659       0.79197         2692.36998  0.01054   0.1571     0.42683   5.40178     16.33258   5705.09669    -8.09653  0.59035  7008.85065    1e-05  59026.10347   52.2288   0.60888  18.36548     59079.18 
    13.89165  1.58255  5.38444        1.0122         2050.98355  0.00169  0.18774     0.13904   2.56949     18.27508   4141.50938    -8.37388  1.17042  8887.11502  0.00105  59025.82612  52.34569   0.07969  18.33547  59077.28126 
    14.11296  1.96903  5.82953       0.42437         3310.93003  0.00163  0.27574      0.4625   3.87767     16.57572    7180.2747    -9.74407  1.44681  7999.80529    2e-05  59024.45593  52.30606   0.08645  18.37786  59077.28126 
     13.9584   1.3892  4.92011       1.00353          3371.1502  0.00665  0.22274     0.24908   2.50856     16.62585   6035.52391    -8.56759  0.90571  7192.13093    2e-05  59025.63241  52.15867   0.31067  18.39307  59077.28126 
    14.42555  1.79593  4.27011       2.24789         2409.43009  0.10679  0.07366     0.09397  13.08234      20.7828   7138.66224     -5.7439  0.64937  7309.96045  0.33692   59028.4561  52.35217     7.538  18.37242     59079.24 
    14.01612  1.65199  5.66817       2.99752         3070.51943  0.00494  0.10524     0.05322   6.54231     17.74839   9370.56608    -8.92996  1.26688  6254.37762  0.00031  59025.27004  52.15021   0.29899  18.36334     59079.18 
    13.94321  1.31691  4.57064       0.73195         2476.29989  0.05155  0.08423     0.12239   9.48594     16.60018   4913.26356    -7.59167  1.26283  7736.08544    2e-05  59026.60833   52.3718     3.399  18.38259  59076.00873 
    14.03061  1.56122  5.01304       0.19713         5368.70343  0.00397  0.27907     0.27325    3.5526     16.50503   5681.77778    -9.67896  1.04362  7768.30827    2e-05  59024.52104  52.27005    0.2055  18.45855  59076.00873 
    14.07057  1.60998  5.29959       0.00655         3042.88422  0.10069  0.10387     0.16245  10.30759     20.03962   5378.69028    -8.64312    1.413  8884.79467  0.06086  59025.55688  52.49989   6.76005  18.39413     59079.18 
    14.21903  1.70398  5.08715       0.63486         2821.92199  0.00123  0.22658     0.29089   3.90039     19.94161   7347.70405   -10.39053  0.69136  6690.78373  0.04857  59023.80947  52.15154   0.06552  18.32643  59077.28126 
    14.13793  1.68765  5.24022       0.02282         5195.63613  0.01903  0.05655      0.0825  12.30796     17.61538   6952.99774    -8.37977  1.00555  7001.77373  0.00023  59025.82023   52.3093   1.32639   18.4062  59077.28126 
    14.39797  1.64236  4.68068       0.07744           5612.618  0.02001  0.11201     0.47958   6.67147     20.66349   4493.32543    -8.16995  0.39179  8549.73791  0.25599  59026.03005  52.42377   1.21725  18.40478  59076.00873 
     14.1998  1.94226  5.81898       0.56131          2222.7011  0.00234  0.29677     0.17246   2.26851     17.40862   7985.85924    -9.18364  0.98403  6785.76887  0.00014  59025.01636  52.09441   0.10588  18.35433  59077.28126 
    14.14553  1.78124  5.85521       0.00923         5840.39378  0.01065  0.28611     0.31487   2.55916     18.26512    5314.9078    -9.03794  0.84327  8523.25981  0.00102  59025.16206  52.30884   0.50032  18.40387  59077.28126 
    14.18547  1.68959  5.94114       1.26414         2292.25333  0.11481  0.08484     0.35847   6.94367     17.89444   5416.54465    -7.49349  0.79009  7930.14105  0.00044  59026.70651  52.36253   7.05219  18.33686  59076.00873 
    14.08653  1.86672  5.90279       0.78313         2764.31381  0.00895  0.20057     0.19036   4.83936     19.75786   3988.34726   -10.24224  1.27356  8580.55075  0.03181  59023.95776  52.39242   0.50319  18.40475  59077.28126 
    14.16327  1.66079  5.70548       2.88258         2279.17818  0.06492  0.08484     0.05485  11.76207     18.53336    4924.8453    -9.23827  0.98969   8195.0692   0.0019  59024.96173  52.44188   4.48261  18.38219  59076.00873 
    14.42296  1.75465  4.98647       1.46884         2869.46559  0.02099  0.06105     0.03261  11.05491     20.51975   6341.12374    -8.28447  0.42074  6676.19457  0.18385  59025.91553  52.25815   1.43059  18.36717     59079.18 
