 texplosion  fnickel    Pspin  log(Bfield)      Mns  thetaPB   mejecta    kappa  kappagamma      vejecta  temperature    alpha  cutoff_wavelength  log(nhhost)      A_V         MJD0  kenergy  mnickel            TSD   log(L0)  Peak_mag     Peak_MJD  log(E_rad)  log(Peak_lum)  Rise_Time    E_fold  tau_1  delta_m15     r_peak     frac 
   -8.77891  0.01146  4.84599     14.19585  1.69461  1.04905   8.28456  0.14006     0.33133   8612.12258   4791.38674  0.38925         4480.23202     17.64794  0.00025  59025.42109  3.66536  0.09495  1499544.45691  44.95119  18.33436     59079.18    50.80558       43.97728   34.53592  46.79895   45.5    0.19382  -20.85256  0.98783 
   -7.38736  0.00245  3.25525     14.15125  1.55815  1.12342   6.04189  0.17385     0.07183   6546.80003    7314.7726  0.60284         5973.89162     20.55724  0.20043  59026.81264  1.54475  0.01482   764017.81523  45.55318  18.33194     59079.18    50.84917        44.0605   33.88552  46.13328   45.5    0.17624  -21.05906  0.99903 
   -8.25486  0.05941  5.05154     14.41138  1.90198  0.71231   5.77344   0.1764     0.10532   7962.38127   5097.73159  0.28804         5498.90198     18.83923  0.00384  59025.94514  2.18347    0.343   677804.50483   45.3101  18.32628     59079.24    50.80647       44.00284   36.27331  46.79895   46.5    0.19184  -20.86996  0.96101 
   -10.5956  0.07312  5.71626     14.03256  1.88458  1.06774   5.57846  0.18377     0.02616   9415.99853   5292.40608   0.6989          3519.1928     17.39107  0.00014   59023.6044  2.95036  0.40791  4921804.23562  44.33771  18.31084  59080.30643    50.76315       43.96483   40.27561  48.35028   43.5    0.21169  -20.91579  0.93883 
   -8.78653  0.00844   4.0885     14.03028  1.35771  1.02642   4.76164  0.20905     0.18063   9042.93007   4849.53431  0.02458         4323.36523     18.11613  0.00073  59025.41347  2.32275  0.04017  1833088.41212  44.91534  18.30514  59077.65177    50.82783       44.00259   34.53592  46.04789   45.0    0.21497  -20.85702  0.99484 
   -9.22911  0.00631    5.103     14.26792  1.73998  0.80358   5.41122  0.21897     0.16648   9301.70922   5085.74214  0.23285         4706.92934     16.44509    2e-05  59024.97089  2.79285  0.03412  1225109.00889  45.00556  18.32181     59079.18    50.80937       44.03018   32.23352  46.04789   44.5    0.20996    -20.869  0.99528 
   -8.74533  0.04017  4.37117     14.39708  1.62827  0.53588   3.99623  0.33071     0.22432   9774.49818   4777.87663  0.11697         3579.84675      20.2102  0.09014  59025.45467  2.27755  0.16051   464060.86971   45.5328  18.32917  59082.24988    50.77229        43.9717   39.14071  48.35028   43.5    0.20222   -20.9458  0.98236 
   -9.28167  0.18569  5.15499     14.16719  1.62974  0.85909   3.01511  0.29677     0.27596   8957.24446   4014.70762  0.22565         5822.45481     19.86988  0.04117  59024.91833  1.44304  0.55988  1862113.39429   44.7865  18.33178  59077.65177    50.78078        43.9697   34.53592  46.04789   50.0    0.21016  -20.91207  0.91912 
   -9.35819  0.08076  3.86964     14.08913  1.28926  0.84873   3.67538  0.28398     0.46062   8527.28517   4967.81673  0.15966         3389.87078     18.32806  0.00118  59024.84181  1.59423  0.29681  1189150.26192  45.12861  18.33967     59079.24    50.79387       43.97862   34.53592  46.79895   46.0    0.20537  -20.81495  0.96435 
    -8.5528  0.04379  4.09599     14.33832  1.40748   0.4564   5.13671  0.19507      0.0688   8776.34112   5220.53341  0.48158         2217.04679     19.67318  0.02618   59025.6472  2.36015  0.22494   461679.81373  45.52823  18.34851      59079.2    50.79262       43.98191   34.53592  46.79895   45.5    0.19617  -20.87826  0.97315 
   -9.59732  0.01612  3.96829     14.05635  1.51132   1.1697   3.41299  0.25467     0.42644    7857.6832   5103.58216  0.07942         5328.05868      20.2099  0.09008  59024.60268  1.25705  0.05501  1704807.88649  45.01932  18.29957     59079.24    50.83889       44.05762   33.97091  46.04789   48.0    0.20186  -20.89221  0.99435 
    -8.9182   0.0139  4.13533     14.09949  1.74503  1.39871   5.50421  0.16675      0.4686   7947.26206   4892.23522  0.48675          4870.4368     20.77768  0.33297   59025.2818  2.07375  0.07653  1752478.12729  45.03397  18.41384  59077.65177    50.80304       43.99937   34.38114  46.20267   48.0    0.19543  -21.11865  0.99314 
   -8.69263  0.03123  4.68044     14.38548   1.4682  0.40914   4.42849  0.25875     0.33353  10248.17012   4598.80363  1.92802         2052.31941      19.4097  0.01427  59025.50737  2.77444  0.13831   506065.69628  45.39085  18.35999  59076.00873    50.81648       44.03809   32.07874  41.59788   45.5    0.21519  -20.89191  0.97951 
   -9.07236  0.01986  5.03241     14.15594  1.77234  1.36727   5.94607  0.20088     0.31041   9202.09466    4813.5583  0.29438         2921.89763     17.04746    6e-05  59025.12764  3.00352  0.11811  2032532.38917   44.8058  18.32634  59077.65177    50.81466       43.99049   34.53592  46.04789   45.0     0.2028  -20.84777  0.98476 
   -8.96604  0.00118  4.82794     14.13367  1.68294  1.34864   4.31042  0.26355     0.31991   9496.02797   5975.82254  0.09652         4030.39557     19.01327  0.00573  59025.23396  2.31863  0.00507  1968207.94058  44.83332  18.30256     59079.18    50.81865       44.03517   32.07874  43.90027   45.0    0.21184  -20.86432  0.99934 
   -8.93594   0.0145  4.51709     14.20078  1.67331  1.03229   6.02932  0.20972     0.29046   8455.68728   5495.06539  0.26345         5022.78377     19.42166  0.01467  59025.26406  2.57154  0.08745  1257593.87182  45.08316  18.35457  59077.65177    50.81726        44.0259   33.97091  46.04789   46.0    0.18559   -20.8628  0.99008 
   -8.77927    0.087  4.87035     14.14461  1.62582  1.27916   4.06561  0.25692     0.32632   8433.32074   4908.98813  0.31596         5799.87092     16.12731    1e-05  59025.42073  1.72484  0.35369  1839875.23711  44.84001  18.35287  59077.65177    50.78446       43.96537   36.24729  46.79895   45.5    0.20863  -20.85537    0.953 
   -8.70174  0.03406   4.2811     14.06275  1.49124  1.55748   5.49555  0.21364     0.17012    9433.8028   5450.15697  0.00406         4755.28104      17.7619  0.00032  59025.49826  2.91751  0.18715  1900944.11229  44.90031  18.33989  59080.30643    50.80586       43.98132   34.53592  48.35028   44.5     0.2176  -20.86328  0.97759 
   -7.93541  0.00278  3.46584     14.30802  1.50885  0.70462   3.82089  0.33242     0.18965   8311.95465   5776.97844  0.00023         3922.98389     17.51853  0.00018  59026.26459   1.5747  0.01061   407411.86832  45.75784  18.30615     59079.24     50.8002       44.02139   37.97322  46.04789   43.0    0.19972  -20.83648  0.99917 
   -8.38754  0.04061  3.63188      14.1511  1.47394  1.11099    4.8376  0.29159     0.20514   8650.52599    5479.6652  0.14641         4580.21252     17.68141  0.00027  59025.81246  2.15945  0.19644   900249.60973   45.3627  18.31763  59077.65177    50.83699       44.03331   33.88552  46.13328   44.5    0.18539  -20.86073  0.98279 
    -8.3949  0.01794  4.08418     14.06716  1.56729  1.32192   4.55744  0.25143      0.1386    9732.4816   5288.67211  0.01627         3698.76317      20.2357  0.09559   59025.8051   2.5751  0.08175  1781809.55986  44.99092  18.32023     59079.18    50.81899       43.99756   36.27331  46.79895   44.0    0.21058  -21.01257  0.99161 
   -7.40095  0.01525  3.92418     14.54082  1.56778  0.41459   8.51548  0.15204     0.36034   8581.71283   5423.62348  0.22445         5938.16169     17.71643  0.00029  59026.79905  3.74097  0.12985   185760.21938  46.00768  18.32266  59077.65177    50.82403       44.02519   32.23352  43.74549   43.0    0.19269  -20.89387  0.98783 
   -9.69175  0.17838  5.07322     13.98149  1.51007  0.83463   5.15157  0.17624     0.02286   9334.66984   5062.13044   0.7926         3631.98366      16.1949    1e-05  59024.50825  2.67772  0.91893   3930086.8297  44.44287  18.35413     59079.18     50.9018       44.11233   32.07874  43.90027   42.0    0.22184  -20.90994  0.86118 
   -8.94873   0.0068  5.21595     14.31796  1.64778  0.63183   4.99063  0.26886     0.16422   9954.86922   4882.58818   1.4544           2804.268     18.31618  0.00115  59025.25127  2.95022  0.03394   962628.63471  45.06762  18.35664  59077.65177    50.81223       43.99018   36.27331  46.95173   44.5     0.2039  -20.81584  0.99468 
  -10.51017   0.0297  5.37346     14.36071   1.7412  0.50016   6.82798  0.14697     0.06032   9331.33001   4650.19654  0.37208         2753.61912     17.91345  0.00046  59023.68983  3.54655  0.20279   886657.52818  45.10143  18.33664  59077.65177    50.81332       43.96562   36.48742  48.13617   48.5    0.19145  -20.85938  0.96943 
    -8.1799  0.01026  4.20907     14.20482  1.63969  1.04174   5.98474  0.18606      0.3977   8552.74287   5410.52473  0.07398         5912.04522     19.16574  0.00814   59026.0201  2.61146  0.06138  1050274.80642  45.21393  18.33237  59077.65177    50.81337       44.00677   32.23352  46.04789   43.5    0.20545  -20.86508  0.99376 
  -10.41036  0.04149  4.82693     13.86534  1.45939  1.48285   4.94735  0.21094     0.03739   9552.36231   4873.05993  1.19294         2500.22522     16.62311    2e-05  59023.78964  2.69291  0.20524   5870096.0815  44.29703  18.31965     59079.24    50.78912       43.96767   34.75004  50.43856   43.0      0.205  -20.85096  0.96714 
   -9.39809  0.02508  5.46466     14.29005  1.99944  1.28807   4.87423  0.29785     0.29798   9302.03521   5628.30739   0.2468         5592.19517     16.82049    4e-05  59024.80191  2.51587  0.12223  1457973.18359  44.93088  18.31792     59081.14    50.77651       44.00957    38.5757  43.74549   45.5    0.19449  -20.84368  0.98454 
   -9.70243  0.10058  4.72969     13.94815  1.54012  1.33683   4.34343  0.16887     0.03871   8488.44871   5110.46707  0.16439         2751.52386     17.75749  0.00032  59024.49757  1.86688  0.43685  4061945.64346    44.498  18.25899  59080.30643    50.76808       44.00982   39.14071   41.4431   46.0    0.19564   -20.8737  0.94041 
   -8.24386  0.02006  4.38011     14.22245  1.50966  0.80441   5.24521  0.22301     0.31774   9394.23147   5647.89137  0.14269          4269.7029     17.10697    7e-05  59025.95614  2.76129  0.10521   965530.91419  45.17999  18.31859  59077.65177    50.85984       44.03671   34.53592  48.35028   44.0    0.21855  -20.85715  0.98693 
   -9.39286  0.05358  4.50173     14.11807  1.59134  1.06835   6.67157  0.15351     0.12873   9137.19184   5254.41469   0.1042         4718.42054     20.26301   0.1018  59024.80714  3.32262  0.35746  1738625.17627  44.92364  18.33312  59080.30643    50.72285        43.9223    42.2389  47.55448   47.0    0.20813  -20.93851   0.9578 
   -9.35613  0.07456  4.66156     14.03543  1.50608  1.44671   4.55166  0.23838     0.42358   9461.29319   4914.71186  0.22335         4221.95706      19.8718  0.04136  59024.84387  2.43051  0.33937  2581406.01319  44.69777  18.38941     59079.24    50.78277       43.99195   34.53592  48.35028   46.0    0.21042  -20.88782  0.95345 
   -8.17364  0.01531  4.59946     14.36814  1.66404  0.60415   7.52314  0.14111     0.16279    8230.3582   5397.02446  0.35673         5169.13001     19.64443   0.0245  59026.02636  3.03993  0.11521   599953.07759  45.38648  18.33377     59079.18    50.75877       43.95331   36.48742  48.13617   45.5    0.19874  -20.89627  0.98637 
   -9.01889  0.02131  4.23645     14.09821  1.46661  1.03386   5.76154  0.22145     0.31233   9525.41694   4946.51981  0.17593         3148.06264     19.40691  0.01418  59025.18111  3.11841  0.12276  1554976.98872  44.98943  18.29653     59081.14    50.76728       43.96786   39.62791  47.86308   44.0    0.19759  -20.88509  0.98511 
   -7.87305   0.0049  4.71699     14.35297  2.05886  0.97842   5.63744  0.17056     0.18878   8187.56874   6419.50028  0.10434         3073.04222     20.00885   0.0567  59026.32695  2.25434  0.02761   837202.95777  45.31231  18.31884  59077.65177    50.78827       44.00085   32.23352  46.04789   45.0    0.21475    -20.885  0.99748 
   -8.23832  0.08211  5.68164     14.43141  1.81884   0.4289    3.0721  0.32388     0.05593   8868.92002   5748.24821  2.86584         2928.71082     19.34148   0.0122  59025.96168  1.44146  0.25226   747716.31658  45.14596  18.34362  59077.65177    50.82163       44.03329   33.81613  43.90027   46.0    0.19505  -20.89196  0.96037 
  -10.37261  0.02668  5.28626     13.98117  1.71198  1.55956   4.88422  0.23023     0.04702  10247.04534   5473.73132  0.17542         4167.25732     18.27237  0.00104  59023.82739  3.05928  0.13033  4844756.96126  44.37077  18.36037     59079.24    50.80163       43.97731   32.23352  49.31832   43.5    0.20414  -20.93523  0.98014 
    -7.8486  0.02516   5.8192     14.33359  1.96975  0.85788   6.74602  0.11798     0.14648   8133.92521   4841.19376  0.39063         5957.32939     16.95568    5e-05   59026.3514  2.66241  0.16973  1332811.09877  44.90876  18.31964     59081.14    50.82663       44.02193   32.23352  48.35028   46.5    0.22398  -20.88253  0.97518 
   -9.50868  0.01149   4.7862     14.12697  1.62701  1.04794    7.9467  0.14117     0.08165   8967.25731   5053.36008    0.089         4306.61923     17.67706  0.00026  59024.69132  3.81183  0.09134  1928642.02514    44.835  18.27681  59080.30643    50.77577       44.01093   39.14071  43.74549   46.5    0.19899  -20.84451  0.98781 
   -9.72542  0.02061  4.69939     14.25246  1.61101  0.75872   5.50882  0.20502     0.29405   8995.05441   4998.79054  0.10951         2058.53255     17.92157  0.00046  59024.47458  2.65885  0.11356  1032940.20484  45.11779  18.31812     59079.24    50.84915       44.04071   33.97091  46.04789   45.0     0.2018  -20.81215  0.98526 
   -9.23949  0.01875  5.17632     14.27596  1.58404  0.59757   5.74611  0.22734      0.1371    9167.9373    4747.5658  1.08646         4311.14942     18.99919  0.00555  59024.96051  2.88101  0.10774   1105856.4438  44.99687  18.33581     59079.18    50.84361       44.01787   34.53592  48.35028   48.0    0.17951  -20.87714  0.98247 
   -9.83823  0.05751  4.74367     14.22593   1.7383  0.89825   5.38714  0.22278     0.07991   8750.03966   4750.06929  0.10369         3297.40429     19.11294  0.00721  59024.36177   2.4604  0.30981  1283218.20042  45.04844  18.31735     59079.18    50.82154       44.04503   32.07874  43.90027   46.5    0.18232  -20.87425  0.96421 
   -9.14306  0.00371  5.11026      14.1508  1.73799  1.15071    5.7474  0.18287     0.18876    9379.5162   4898.26765  0.11114         3363.90473     18.74166  0.00306  59025.05694   3.0162  0.02133  2104498.72972  44.76886  18.35022     59079.18    50.76742       43.93323   34.64596  50.54264   45.5     0.2095  -20.85482  0.99703 
   -8.40322  0.00907  4.95679     14.18817  1.72371  1.11376   6.15332  0.16841     0.48617   8353.42402   5018.75389  0.30104         5575.18651     17.14004    8e-05  59025.79678  2.56133  0.05584  1653265.77216  44.89657  18.33536  59077.65177    50.80812       44.02556   32.23352  43.74549   45.0    0.19945  -20.85988  0.99266 
   -8.46537  0.06372  5.13885     14.17811  1.79867   1.2546   4.08268    0.281     0.11033   9128.27896   4946.83772  1.08552         2234.66046     17.76996  0.00033  59025.73463  2.02932  0.26015  1942088.23309   44.8138  18.30414     59079.18    50.75702       43.97154   36.48742  48.13617   45.5    0.19231  -20.84891  0.96639 
  -10.52442  0.05968  4.85412     14.17902  1.55882  0.66732   4.99024  0.27981     0.04727  10332.70411   5411.08905  0.76265         2405.71254     17.37116  0.00013  59023.67558  3.17817  0.29783  1495532.65275  44.91463  18.29988     59079.24    50.77111       44.00076   39.14071  43.74549   43.0    0.19403  -20.91571  0.95734 
   -8.83367   0.0099  4.27142     14.31896  1.76211  0.77325   7.52011  0.13265     0.18511   8181.42725   5537.18462  0.17105         4225.74122     20.34545  0.12308  59025.36633  3.00268  0.07447   687178.87695  45.41666  18.30754  59080.30643    50.82405       43.99508   34.53592  48.35028   45.0    0.20423  -20.91214    0.993 
   -9.23644  0.03017  3.30651      14.1163  1.14855  0.66342   5.39594  0.25996     0.15933   8944.48583   5061.45096  0.02453         5084.90035     18.34892  0.00124  59024.96356  2.57517  0.16281   682517.97881  45.45614  18.34603  59080.30643    50.84102       44.02938   32.07874  46.20267   44.5    0.19163  -20.83495  0.98275 
   -9.80585  0.00542  5.11077     14.10046  1.71996  1.35065   3.37274  0.33959      0.1963   9275.53845   5585.24691  0.29389         3544.39831     19.85987  0.04023  59024.39415  1.73097   0.0183   2626493.2296  44.66802  18.33618  59080.30643     50.8167        43.9701   34.75004  50.43856   48.0     0.2003   -20.8569  0.99741 
  -10.22766   0.0321  3.67772     14.02978  1.20768  0.79029   4.61423  0.27947      0.1549   8957.61152   4939.39045  0.13305         4368.92891     19.80785  0.03569  59023.97234  2.20857  0.14811  1322405.32645  45.09828  18.32657  59077.65177     50.8109       44.02504   32.12719  43.85183   46.5    0.18403  -20.86847   0.9819 
   -8.41197  0.01159  3.42641     14.34486  1.25685   0.4327   4.94833  0.26032     0.45621   9025.51763   5672.13123  0.00279         4429.90146     16.73988    3e-05  59025.78803  2.40453  0.05733   279937.68193  45.85139  18.33516  59076.00873    50.82285       44.05347   29.93113  43.74549   44.0    0.20028   -20.8653  0.99424 
   -8.53354  0.00136  5.24886     14.18872  1.83645  1.19776   5.52852   0.1819     0.11916   8790.35828   5188.00294  0.19523         4628.63931     16.21181    1e-05  59025.66646  2.54829  0.00753  1970081.03629  44.79821  18.33054  59077.65177    50.79998       43.96933   34.53592  47.01592   45.5    0.20466  -20.85134  0.99898 
   -8.64385  0.01916  4.12002     14.18547  1.52434  0.93752   5.67776  0.25419     0.46012   9589.15163   4939.66047  0.01257         2916.77614     17.67292  0.00026  59025.55615  3.11433  0.10879  1022727.59457  45.21237  18.31531     59079.24     50.8188       43.99419   36.27331  47.01592   43.0    0.20544  -20.86931  0.98823 
   -8.40872  0.00667  3.89273     14.66691  1.55136  0.28489   4.54742  0.30955     0.14477   9140.88222   5759.43212  0.02151          5185.8931     19.41263  0.01437  59025.79128  2.26656  0.03034   101207.88789  46.27384  18.34247     59079.24    50.79194       43.95959   36.48742  50.43856   44.0    0.19599  -20.87554  0.99713 
    -8.1065  0.01394  4.48894     14.17085  1.63538  1.13912   6.40434  0.20674     0.34159   9389.10656   5361.07143  0.71443         2304.33422     17.18985    9e-05   59026.0935  3.36783  0.08928   1393204.6071  45.03416  18.29702     59079.18    50.74634       43.96001    38.5757  46.04789   44.5    0.19713  -20.85677  0.98965 
   -9.21716  0.00242  4.35497     14.17094   1.5878  1.01346   3.98862  0.28348     0.38151   8886.72858   5112.05801  0.11268         2208.46585     18.66327  0.00256  59024.98284  1.87903  0.00964    1272634.836  45.08697   18.3557  59077.65177    50.83333       44.04657   33.81613  43.90027   43.5    0.20985  -20.83671  0.99889 
  -10.57956  0.00811  5.13395     13.99389  1.68484  1.37175   5.12572  0.21445     0.04734   9735.48216   5478.82586  0.17192         3440.59179     19.58138  0.02119  59023.62044  2.89799  0.04158   4241354.4504    44.447  18.33578  59077.65177    50.78225        43.9416   36.83831  48.35028   45.0    0.19841  -20.90577  0.99382 
   -7.88235  0.01404  4.10886     14.09393  1.44433  1.17938   6.55402  0.20383     0.11061   9020.65037   5426.10093  1.42316         2226.43935     18.89314  0.00434  59026.31765  3.18134  0.09203  1469160.70141    45.034  18.32695  59077.65177    50.78886       43.96374   34.53592  46.79895   45.5    0.19275  -20.80882  0.98924 
