 log(Bfield)      Mns    Pspin  cutoff_power  cutoff_wavelength  fnickel    kappa  kappagamma   mejecta  log(nhhost)  temperature  texplosion  thetaPB      vejecta      A_V        MJD_0   log(KE)      M_Ni  Peak_mag     Peak_MJD 
    14.95864  1.68433  4.38132        2.6305         2914.93858  0.09883  0.16501      0.2804   3.75797     16.73069   4525.67364    -7.03761  0.50197   8651.12546    3e-05  58530.41882  52.37031   5.19312  18.61054  58556.20343 
    14.66824  1.68755  3.66348       0.07046         3167.51101  0.00689   0.0469     0.05213    8.8329     19.93706   4509.44462   -10.11545  0.76569   7782.93457  0.04806  58527.34098  52.37019    0.4472  18.59749  58556.82194 
    14.95001  1.31171  3.74621       3.23758         2375.26068  0.05223  0.10733     0.10464   4.54147     16.84871   7057.55704    -5.45737   0.3164   8714.28896    4e-05  58531.99907   52.3987   2.88725  18.58432   58557.3862 
    14.87943  1.63399  3.47608       2.20985         2682.49488  0.08282  0.10811     0.06294   5.44974     18.00248   4983.45126     -5.7323  0.65092   9191.96054  0.00056  58531.72413  52.46528   4.79711  18.56777   58557.3862 
    14.91861  1.85226  2.05722       2.22995         2046.96113   0.0222  0.02102     0.20011  26.24557     17.99678   6557.35802    -5.42787  0.87895   8855.48611  0.00055  58532.02857  52.57668   1.79034  18.55901  58556.82194 
    14.79023  1.66884  2.85828       3.26784           3147.673  0.05541  0.09981     0.14591    6.7519     20.44253   5002.66743    -3.15655  0.93499    9660.3117  0.15391  58534.29989  52.53108   3.38126  18.60078   58557.3862 
    14.91465  1.86434  4.27622       0.14836         4068.34654  0.01886  0.03057     0.25338  18.65346     17.11393   5678.12593    -7.57603  0.62453    9265.4377    7e-05  58529.88041  52.58855   1.42787  18.59465      58556.2 
    14.84596  1.85674  4.10132       1.27738         4002.29673  0.01804  0.10506     0.08474   4.49045     20.88894   5208.68294     -8.4472  0.52073   7447.66129   0.4302  58529.00924  52.26099    0.9944  18.60766  58556.82194 
    15.02432  1.63655  3.22517       0.28363         4116.20659  0.00183  0.05941     0.35575   7.55921     19.02394   5260.53357   -10.34811    0.329   6865.45039  0.00587  58527.10833  52.24591   0.11435  18.54054      58556.2 
    15.09295  1.77152  3.60897       0.70416         5940.47671  0.00684  0.03051     0.02648   11.6611     20.01364    4400.0667    -9.20423   0.3361   5391.53502  0.05733  58528.25221  52.07741   0.47123  18.57855      58556.2 
    14.92906  1.78474  3.52282       1.17357         3852.07816  0.06598  0.08002     0.24515   7.19029     16.90244   6906.76042    -4.28482  0.77643   9092.22985    4e-05  58533.17161  52.48487   4.08639  18.63176   58557.3862 
    14.85776  1.70551  4.19218       0.46261         5492.90396  0.00274  0.05497     0.42089   7.39293     19.10899   6951.59539   -10.78296  0.51017   5985.97477  0.00714  58526.67348  52.12461   0.17083  18.60792   58557.3862 
    14.62809  1.66071  2.05418       0.12924         5130.64644  0.16462  0.14192     0.01304   3.38407     20.42665   7150.36801   -11.22197  1.00553   6491.61727  0.14838  58526.23447  52.10816   8.40069  18.57639  58556.82194 
    14.85641  1.66776  2.98223       0.27394         5278.55722   0.0117  0.07581     0.06684   7.22593     19.16294    5978.0379   -10.06737  0.59287   7161.65792  0.00808  58527.38906  52.27805    0.7257  18.52818      58556.2 
    14.87421   1.9512  6.80999        4.0366         2595.77222  0.06425  0.12992      0.1598   3.54619     19.67718   3947.42787    -5.95348  0.61992   9360.61767  0.02642  58531.50296  52.43179   3.32234  18.59822   58557.3862 
    15.06628  2.07622  4.46227       0.74558         5843.42247   0.0079  0.02539     0.20072  12.84592     17.40078   5689.22296     -7.7804  0.48529   5273.09198  0.00014  58529.67604  52.06685   0.55553  18.59918   58557.3862 
    14.72685  1.73802  5.93067       4.12459         2542.53594  0.04091  0.22139     0.21032   2.32719     18.22326   5117.04995    -7.25824   0.7377   9326.08979  0.00093   58530.1982  52.37414   1.86602  18.53811  58556.82194 
     14.7636  1.67258   4.4437       2.89468         2446.71111   0.0179  0.02986     0.46662  19.46082     19.10368   4449.24531    -6.69769  0.80627   9161.99766  0.00705  58530.75874   52.5823   1.36608   18.5585  58556.20343 
    14.85326  1.74416  5.38511       2.87125         3808.53605  0.01853  0.02926     0.05937  19.19711     16.11285   3439.76214    -4.30163   0.7937   8322.69002    1e-05  58533.15481  52.49772    1.4108  18.53711      58556.2 
    14.69628  1.42028  2.96653       0.83593         4872.59392  0.05504  0.07973     0.16688   5.74516     18.52644   7141.82495    -5.90238  0.85067   6894.36788  0.00187  58531.55406  52.22114   3.22981   18.5407      58556.2 
    15.00008  1.74034  2.55718       1.00587         2216.84001  0.03779  0.04123     0.07645  11.85928     19.66402   6206.64857    -7.15141  0.51503    8267.6412  0.02563  58530.30503  52.45028   2.61392  18.54554   58557.3862 
    14.90985  1.79097  3.93871       0.24537         4435.69997  0.10031  0.18452     0.07106   2.83361     16.75845   3701.62857    -7.70933   0.5942   8319.86917    3e-05  58529.74711  52.30127   4.86109  18.51936  58556.20343 
    15.16459   1.7902  0.72883       0.17589         5598.36614  0.02663  0.03272     0.03405  20.67177     18.26881   4821.23522    -8.94374  0.49037   8114.27282  0.00103   58528.5127  52.48176   2.05573  18.55905      58556.2 
    14.89406  2.03203  4.78247       1.47358          3813.3155  0.01529  0.06228     0.32688   7.92853     18.19649    3507.0494    -7.78874  0.78048   6811.61692  0.00087  58529.66769  52.24383   0.96849  18.59325   58557.3862 
    14.81388  2.07133  5.49037        1.1281         4096.65149  0.00563  0.04333     0.03017   9.44209     20.55035    4261.0889     -7.5149  0.72157   7346.66607  0.19728  58529.94153  52.32649   0.37077  18.60966  58556.82194 
    14.71017  1.38782  2.93212       0.14473         3866.09651   0.0162  0.12271     0.10872   4.32292     16.10484   5564.91721    -9.77044   0.5849   7715.62312    1e-05  58527.68599  52.28733   0.88401  18.57974      58556.2 
    14.73813  1.65159  5.01741       2.40003         3065.15382  0.06243  0.19429     0.34529   2.34048     16.21923   4346.31879     -5.9791  0.74882   7493.91813    1e-05  58531.47733  52.18494   2.85271   18.5503  58556.20343 
    14.99586  1.75686  3.14501       1.00019         4180.72634  0.00883  0.05777     0.42803    8.5522      20.8071   6524.59971    -8.18762  0.37157   7169.13968  0.35631  58529.26881   52.2957   0.56875   18.5754   58557.3862 
    14.90039  1.78128   3.0696        2.6893         3586.22941  0.04159  0.05432     0.03827  10.70681     20.04341   5043.10612     -2.1113  0.92996   8606.26959   0.0614  58535.34513  52.47577   2.81481  18.59816  58556.82194 
    14.79722  1.66207  6.60801       2.94077         3874.36639  0.00209  0.09705     0.07016   4.59522     17.77776    3352.3866    -8.13717  0.55445   6722.62662  0.00033  58529.31927  52.17464   0.11589  18.55663   58557.3862 
    14.66821  1.71265  4.62742       4.25143         2361.92279  0.10179  0.15718     0.09887   3.00364     17.99833   5091.07153    -5.88912  1.10609   8479.14718  0.00055  58531.56732  52.32523   5.01866  18.58628   58557.3862 
    14.94159  1.67186  1.69459       1.88025         3217.83192   0.1005  0.13409     0.12552   4.78246      20.7087   6952.27389    -4.47401   0.6099   9136.08458  0.28407  58532.98243  52.44559   5.63111  18.60296  58556.20343 
    15.05881  1.90874  4.19036       1.83771         2820.62135  0.06474  0.11945     0.07242    4.7876     20.12876   6281.73016     -6.3168  0.45352   8988.80655  0.07473  58531.13964  52.43159   3.62873  18.62813  58559.79888 
    15.10964  1.65129  1.73468       0.56507          5906.6855  0.00208  0.03286     0.08857   10.3882     16.65665   5521.79033     -9.8515  0.32482   4599.19357    3e-05  58527.60494  51.92869   0.13956  18.58427  58556.82194 
    15.14076  2.01466  4.15876       0.28615         5116.63392  0.06461  0.16416     0.35653   2.46241     18.18045   3883.03711    -8.08779  0.37363    7150.3816  0.00084  58529.36864  52.15111   3.00018   18.6107   58557.3862 
    14.81731  1.69068  4.12688       1.13963          4027.9878  0.00536  0.06966     0.21443   6.70876     20.79008    6314.5432    -8.99807  0.47737   7441.31434  0.34261  58528.45836  52.30374   0.32644  18.59094   58557.3862 
     15.0868  1.79547  3.16097       0.53316         4504.04146  0.01546  0.02259     0.01355  20.89204     17.50796   6179.92835    -8.13173  0.41991   7108.13744  0.00018  58529.32471  52.36763   1.19584  18.54757      58556.2 
    14.94633  1.79535  5.05072       0.41087         4127.87145   0.0214  0.08891     0.27511   5.30512     18.53919   4420.37017   -11.20514  0.42025   7351.19737  0.00192   58526.2513  52.26826   1.23134   18.6262   58557.3862 
    14.98835  1.70405  3.40444       2.57784         2368.29651  0.14944  0.16208      0.2978   3.19432     17.79796   5875.65374     -3.9405  0.54965   9300.26052  0.00035  58533.51594  52.41328   7.50121  18.48529  58556.20343 
    14.77895  1.88842  4.41176       4.27763         2178.75247  0.01191  0.08831     0.07572   4.99395     18.21701    6843.4482    -8.09164  0.81131   7228.89707  0.00092   58529.3648  52.24703   0.67474  18.57897  58556.82194 
    14.79449  1.67783  3.91861       0.69093         4454.87348  0.03731  0.13892     0.05456   3.53218     16.16405   6398.04922    -7.01598  0.72182    7469.2347    1e-05  58530.44046  52.23525   1.92691  18.56933   58557.3862 
    14.53585   1.6766  6.46243       0.31971         5481.01815  0.08337  0.18071     0.02345   1.89831     19.65341   5132.34097   -10.57434  0.78202   7517.45664  0.02501   58526.8821  52.15789   3.55717  18.62928   58557.3862 
    14.76868  1.80466  5.98498       3.26641         3103.61103  0.05442  0.08773     0.23104   5.71237     18.49478   4035.81861    -5.23719  0.86943   8731.41604  0.00174  58532.21925  52.42571   3.18902  18.57086   58557.3862 
    14.93942  1.59635  2.76911       0.41183         5238.06724   0.0298  0.04367      0.1941  12.35741     19.83334   5854.62155    -7.54058  0.50728   7724.82253  0.03785  58529.91586  52.39502   2.07906  18.59164  58556.82194 
     14.9503  1.39344  4.07011         1.031         4306.27774  0.03807  0.09444     0.04908   4.38622     16.31334   6372.93072    -7.36646  0.33477    6631.4221    1e-05  58530.08998  52.15748   2.08551  18.63358   58557.3862 
    14.79928  1.67171  2.65542       0.28945         4838.28734  0.02343  0.07381      0.3178   7.38179     19.69156   6681.35685   -11.63638  0.67076   7042.97169  0.02731  58525.82005   52.2657   1.46005  18.61048   58557.3862 
    14.71043  1.51108  5.47823        2.0247         4151.11881  0.01285  0.02066     0.09993  20.00976     17.59374   4086.30171    -4.80108  0.75672    7081.5066  0.00022  58532.65535  52.36085    0.9861  18.60019  58556.82194 
    15.07249   1.6567  2.16608       0.57279         4842.99856  0.01422  0.02295     0.01672  23.01521     16.32117    6537.4198    -6.26567  0.44576   7328.14438    1e-05  58531.19077  52.40189   1.12003  18.56111  58556.82194 
    14.61518  1.41358  4.53863       1.81925         3743.54399  0.07508  0.08706     0.04928   5.16457     18.38696   6534.27955     -4.9918  0.98738   7954.07079  0.00135  58532.46464  52.33378    4.2902  18.63381   58557.3862 
    15.13118  2.06943  1.96066       0.55361         5772.83529  0.00712  0.01612     0.31166    25.626     18.27434   6186.48093    -5.46565  0.54351   6102.63451  0.00104  58531.99079  52.25143   0.57196   18.5588  58556.82194 
    14.81182  1.74747  4.47139       1.19337         4603.01518  0.05357  0.13002     0.07695   3.97141     16.81873   5427.66014    -6.25688  0.83668   7053.62931    4e-05  58531.19956  52.19954   2.85772  18.56816   58557.3862 
    15.16339  1.50352  4.68246       2.34247         2710.69721  0.05596  0.16851     0.20257   2.79795     17.17875   7586.43641     -4.8333   0.2264   9162.16835    8e-05  58532.62314  52.38339   2.70151  18.60067      58556.2 
    15.04038  1.55343  2.21691       0.39514         5144.74803  0.12126  0.14667     0.08423   3.20901     16.15175   5925.20065    -9.06373   0.3896   6743.00646    1e-05  58528.39271  52.13458   6.09457   18.5628  58556.82194 
    14.94106   1.6218  3.01958       1.33655         3197.28819  0.00576  0.07268     0.39988    8.1804     20.84074   7066.39605    -8.65845  0.35785   8477.10862  0.38501  58528.79799  52.43691   0.36769   18.5218  58556.20343 
    15.02575  1.80416  2.72911       0.05809         5636.73362  0.00119  0.04426     0.03294  11.75159     19.26335   5959.66635   -10.41303   0.4167   6911.50856  0.01019   58527.0434  52.29384   0.08209  18.58922      58556.2 
    15.01241  1.68078  2.10768       0.98989         2464.55284  0.02889  0.03066     0.12715  18.34612     20.36473   4652.65612    -5.66184  0.49885   9443.95449  0.12866   58531.7946  52.60374   2.18013  18.59738  58559.79888 
    14.55924  1.20261  3.96639       2.55808         3441.03668  0.01917  0.04392     0.17176  13.94009     19.92379   5774.46702    -6.37434  0.75053    8860.8072  0.04661  58531.08209   52.5249   1.37061  18.56261   58557.3862 
    14.86282  1.87614  6.26032       1.73841         3122.89869  0.03866  0.20308     0.09869   2.40594     19.64834   4830.07243    -7.88743  0.57286   8515.26328  0.02472    58529.569  52.29969   1.78211  18.58097  58556.82194 
    14.94853  1.79389  2.92847       2.54421         3559.28976  0.06359  0.04915     0.02991   9.91595     16.48156   3702.38656    -2.26167  0.90746   7863.66878    2e-05  58535.19476  52.39021   4.23396  18.58651  58556.82194 
    15.15416  1.72413  4.00109       0.22746         5115.00905  0.06919  0.20241     0.39095   2.43047     18.02022   4180.76327    -9.33538  0.28335   7699.90248  0.00058  58528.12106  52.21365   3.19939  18.62204   58557.3862 
    15.13619  1.88338  3.38674       0.48697         5795.33653  0.00156  0.03184     0.24104  14.45953     17.80491   5889.92666    -9.11856  0.35498   6095.54892  0.00035  58528.33788  52.20319    0.1125  18.55654   58557.3862 
     14.8649  1.85982  3.08363       2.22684         2738.02135  0.01661  0.01739     0.09196  27.82055     20.17437     5324.666    -3.49606  0.88307    8864.0475    0.083  58533.96038  52.58203   1.35359  18.55739      58556.2 
    14.67905  1.70278  2.36331       0.26112         5483.11619  0.12485  0.16085     0.14043   2.92992     16.10967   4314.84547    -9.72766  1.32622    6811.2755    1e-05  58527.72878   52.1318   6.11087  18.59266   58557.3862 
    14.87997    1.886  4.57416       0.30586         5398.83495  0.00297  0.04437     0.06427   9.09398     19.16375   5236.28098   -11.25736  0.53702   6494.62119   0.0081  58526.19908  52.21582   0.19415  18.62384  58556.82194 
    15.06459  1.75081  1.88531       0.68838          3876.9016  0.02122  0.02618     0.41347  16.58719     20.60709   5374.04133    -7.52115  0.39836   6791.79981  0.22481  58529.93529  52.30894    1.5705  18.59763   58557.3862 
     14.6841  1.66925  4.73787       2.39619         2463.30881  0.01742  0.22054     0.20628   2.15256     20.12026   3838.03752    -8.37147  0.73038    8056.9312  0.07328  58529.08497   52.2362   0.77509  18.62499   58557.3862 
    15.01063  1.73571  2.91246       1.82203         2991.45993  0.02398  0.03512     0.04226  17.65976     20.00659   4383.93428    -3.92844  0.55659   9362.25636  0.05641    58533.528  52.59301   1.79683  18.54699  58556.82194 
    14.89505    1.715   3.2738       0.15242         5016.72039   0.0289  0.18708     0.18021    2.5707     18.19143   3659.45916    -9.65169   0.5255   7164.13226  0.00086  58527.80475  52.15856   1.35991  18.61222   58557.3862 
    14.75277  1.42361  0.92614       0.35658         5709.23042   0.0277  0.04915     0.04326  10.92976     17.29517   5237.65951    -8.45056  0.86622   6773.82185  0.00011  58529.00588  52.26971   1.88312   18.5832   58557.3862 
    14.79521  1.73029  3.58065       0.11185         5291.33405  0.02672  0.05487     0.03525   9.48955     17.88471   5913.69474    -9.86937  0.72317   7853.04768  0.00043  58527.58707  52.38487    1.7623  18.59285   58557.3862 
    14.65735  1.58802  3.77897       0.65831         4651.61073  0.01815  0.10605     0.04215   4.83481     17.04012   4953.64389    -9.66244  0.91974   6801.83783    6e-05    58527.794  52.19054   1.02012  18.63688  58556.20343 
    15.07628  1.47565  2.32967       0.75218         5973.89129  0.00538  0.07859     0.08429   4.80948     17.41296   5330.98684    -5.93155  0.32169   5296.69459  0.00014  58531.52489  51.97271   0.30182  18.62362   58557.3862 
    14.94994  1.69473  4.48061        0.6359          3873.9795  0.02792  0.04031     0.25513  11.46985     18.03943   5774.39788    -7.35012  0.47771   7910.00081  0.00061  58530.10632  52.40883   1.91751  18.58383  58556.82194 
    14.91276  1.99585  4.91313        0.8522          4368.4144  0.01828  0.13052     0.11231   3.55972     19.94006   7174.86388    -9.36632  0.60305    6540.8117  0.04839  58528.09011   52.1209   0.94621  18.60222   58557.3862 
    14.81425  1.49086  5.17886        3.3362          2714.2053  0.01102  0.10668     0.21688   4.25946     17.24127   5473.75664    -5.90795  0.46271   8389.16051   0.0001  58531.54849  52.35832   0.59901  18.56557   58557.3862 
    14.73926  1.57891  0.81262       0.53299         5943.05016  0.08941  0.12415     0.47059   3.44193     16.04431   5045.60927    -7.73347  1.20621    5481.0881    1e-05  58529.72297  51.96327   4.58462  18.60169   58557.3862 
    14.94566  1.79489  4.16863       0.59118         4174.02244  0.02863  0.08569     0.08189   5.55334     16.47504   8414.02991    -8.64275  0.51409   7287.59491    2e-05  58528.81369  52.26567   1.66634  18.58898  58556.82194 
    14.66458  1.91261  7.60219       3.70265         3721.14488  0.00272   0.0878      0.0351   4.76674     17.67867    6335.1821    -8.33694  1.01127   6756.00202  0.00027   58529.1195  52.18308   0.15205  18.59665   58557.3862 
    15.00163  1.36478  2.52307        0.8712          5846.3222  0.00589  0.01633     0.11624  19.47392     16.43945   5308.26822    -6.07481  0.32786   4964.07375    2e-05  58531.38163  52.05005   0.44953  18.59834   58557.3862 
    14.94262   1.6396  1.42821       1.90397         3291.92571  0.03008  0.02528     0.06739  25.13841     16.10354   3235.75153    -2.09912  0.93133  10284.89753    1e-05  58535.35732  52.70329   2.40756  18.58797      58556.2 
      15.054  2.07106  4.02451       1.52934         3823.59697  0.21725  0.19155     0.07824   2.37442      19.0069   4011.46551    -3.49675  0.71891   7829.26848  0.00564  58533.95968  52.22494   9.97324  18.52634  58556.82194 
    14.98881  1.75982   4.1548       0.34594         4328.86102  0.01754   0.0358     0.39398  13.28143     19.75089   4463.35854    -9.57152  0.41991    7646.0953  0.03131  58527.88492  52.39256    1.2422  18.60378   58557.3862 
    15.10784  1.73579  4.19004       0.88174         2656.45889  0.04234  0.07721     0.20325   6.97611     17.47658   4442.65319    -8.25067  0.32792   8370.38075  0.00017  58529.20577  52.40994   2.60349  18.59191   58557.3862 
      14.787  1.39906   3.4914       3.02542         4074.89617  0.01381  0.02585     0.03939  20.18683     16.36039   4307.09791    -3.55732   0.7439     6844.501    1e-05  58533.89912    52.332   1.06133  18.57501      58556.2 
    15.16973  2.09866  7.67294       3.22912         3158.72595  0.00565   0.0896     0.26791   5.42251     16.14419   7428.68265    -7.64172  0.30806   8548.73061    1e-05  58529.81472  52.40173   0.32667  18.57145      58556.2 
