 texplosion  fnickel    Pspin  log(Bfield)      Mns  thetaPB   mejecta    kappa  kappagamma     vejecta  temperature    alpha  cutoff_wavelength  log(nhhost)      A_V         MJD0  kenergy  mnickel           TSD   log(L0)  Peak_mag     Peak_MJD  log(E_rad)  log(Peak_lum)  Rise_Time    E_fold  tau_1  delta_m15     r_peak     frac 
  -12.52137  0.00178  4.03767     14.43983  2.09595  0.91591   9.95107  0.09398     0.04056  4348.90282    7152.1044  0.55614         3383.72873     20.88923  0.43048  58763.99863  1.12268   0.0177  418591.05132  45.75618  17.22667  58824.58665    50.84439       44.01942   33.83959  51.14663   54.0    0.12444  -20.40691  0.99885 
  -11.46546  0.04065  1.34592      14.4471  1.56544  0.54977  22.77331  0.04716     0.03049  4692.40042   8721.45247  0.54771         2467.77266     21.16263  0.80789  58765.05454  2.99119  0.92562   33596.53698  47.67915  17.25196  58824.58665    50.57213       43.67037   39.56845  59.40654   51.0    0.11716  -20.76749  0.99046 
  -13.49712   0.0888  0.82056     14.28187   1.5622  0.80284  12.21943  0.08334     0.04273  4294.51904    9050.5087  0.14613         4149.37542     21.22092  0.92395  58763.02288  1.34433  1.08512   26670.45064  48.20833  17.24266  58824.58665    50.84543       43.99944   29.70327  53.89354   50.5    0.11142  -20.73433  0.99661 
  -11.43951  0.00504  2.81437     14.41636  2.03492   0.9559  20.25892  0.04233     0.02095   4162.7696   7531.91011  0.23954         4544.32431     20.96671  0.51456  58765.08049  2.09415  0.10209  219994.48177  46.33622  17.21094  58828.54176    51.18868       44.40597   22.85504  50.49556   51.0    0.12681  -20.50992  0.99668 
  -13.12925  0.10357  0.83374     14.28954  1.60183  1.22947  10.11551  0.10106      0.0377  4087.80323   7148.83786  0.78764         2326.61792      21.1297  0.74891  58763.39075  1.00831  1.04765   27252.57523    48.196  17.24019     58827.09    51.09575       44.30114   25.39683  49.77948   59.0    0.10062  -20.44633  0.99749 
  -14.79738  0.00101  4.03767     14.54628  1.85069  0.62613  19.81681  0.05023     0.07386  4318.14299   6504.74162  0.03669         4222.55612     20.51511   0.1819  58761.72262  2.20422  0.02001  226385.35425  45.96907  17.30994  58827.49627    50.94989       44.13165   30.85816  49.95667   53.0    0.12646  -20.12842  0.99844 
   -8.26671  0.04928  3.33191     14.56628  2.02403  0.96245  11.48316  0.08659      0.1123  4450.05801   6490.80918  1.08732         2677.01695     20.69202  0.27337  58768.25329   1.3565  0.56587  153767.66165  46.34281  17.27294  58824.58665    50.85078        44.0145   30.65591    54.576   54.0    0.11782  -20.21729  0.97483 
  -10.75053  0.01442  3.43612     14.74419  1.96972  0.63717  30.52973  0.04135     0.04074   4524.6284   6264.06805  0.57305         3597.30275     20.24937  0.09865  58765.76947  3.72834  0.44026   70141.49967  46.64514   17.2725  58823.41576    50.59673       43.71872   37.70668  56.43621   54.0    0.12358   -20.0629  0.97836 
  -12.65258  0.00126  2.95146     14.47034  1.99587  0.69319  13.24242  0.08349     0.41226   4964.0439   7686.91593  0.52041         2266.99233      21.0731   0.6574  58763.86742  1.94655  0.01672  185067.94251  46.36157  17.25046     58827.09    50.89219       44.05652   31.11495  54.11696   50.5    0.12159  -20.63448  0.99938 
  -10.51033  0.00492  4.11168     14.20093  1.49374  1.36253  11.71308  0.08317     0.04027  4838.81175   6817.42048  0.33637         3107.18559     20.39933  0.13934  58766.00967  1.63597  0.05758  929557.98497   45.2468  17.23446     58827.09     50.9049       44.07101   32.77635  52.20987   50.0    0.14319  -20.16675   0.9936 
  -15.29594  0.00159  1.64411     14.12502  1.49683  0.96477  17.71152   0.0589     0.03691  4604.18879   8749.49496  0.02487         4461.78487     21.18277  0.84625  58761.22406   2.2397  0.02814  211259.63218  46.68734  17.19351  58824.58665    50.78656       43.95969    31.9323  52.63752   49.0    0.11833  -20.71548  0.99951 
  -11.47552  0.05829  2.33273     14.48645  1.23247  0.45491   7.73489  0.14074     0.10648  4332.11643   6969.37382  0.25298         4693.15159     20.67138  0.26068  58765.04448  0.86593   0.4509   66284.44769  46.80248  17.16551     58827.09    51.29344       44.51233   28.20507  46.95587   53.0    0.12673  -20.23055  0.97913 
  -12.65495  0.03185   2.9597     14.61251  1.80753  0.73006  12.70975  0.09279     0.06907  4396.16459   6724.11384  0.09013         3837.74474     20.33419  0.11993  58763.86505  1.46525  0.40487    87576.1568  46.64105  17.23611  58824.58665    51.12778       44.34563   25.48043  48.84106   53.0      0.125  -20.04115  0.98316 
  -12.35678  0.01364  1.84394     14.20422  1.82044  1.37875  22.20524  0.03946     0.22114  4519.66384   8363.42544  0.24198         2061.92057     21.15408  0.79214  58764.16322   2.7058  0.30282  224412.20181  46.64648  17.27641  58827.49627    51.04264       44.22327   26.73294  53.46589   50.5    0.12727  -20.72969  0.99507 
  -14.96524  0.00222  4.53243       14.536  1.58359  0.50578   7.21003  0.13617     0.29089  4084.85342   6258.80582  0.56599         4083.39197     20.23794  0.09609  58761.55476  0.71766  0.01601  255923.12627  45.74772  17.20172  58824.58665    50.84881        44.0187   33.45014  51.96373   55.5    0.12438  -20.05198  0.99801 
   -6.46951  0.03754   3.5862     14.35839  1.71218  1.04134   6.75748  0.14998     0.17589  4640.29637   6843.77728  2.39963         2614.95013     20.86697  0.40897  58770.05049  0.86797  0.25368  392503.72193  45.79928  17.22171  58824.58665    50.83071       43.99416    32.6736  53.46589   54.5    0.12411  -20.35001  0.98281 
   -9.96461  0.01371  3.20357     14.33228  1.82455  1.13767  23.05056  0.04655     0.12207   4879.2464   7455.35502  0.65172         3340.60676     20.96664  0.51448  58766.55539  3.27351  0.31592  376429.92446  45.94305  17.26334  58824.58665    50.96156       44.14364   31.52033   49.2945   52.5    0.12182  -20.52416  0.98446 
  -11.87889  0.00746  3.70025     14.43676  2.01216  1.04874   9.53291  0.12267     0.40858  4678.48474   6809.99306  0.69712         2923.95407     20.75858  0.31864  58764.64111   1.2447  0.07112  342310.66854  45.90162  17.28453  58824.58665    50.93726       44.12925   25.57351  52.62589   53.5    0.11712  -20.34514  0.99592 
  -11.67903  0.05926  1.27209      14.4952   1.8221  0.88986  16.71389  0.06662     0.04312   4398.0275   7442.09648  0.27223         3916.61565     21.04691  0.61893  58764.84097   1.9285  0.99039   27991.12435  47.87336  17.26034  58829.73365    51.07121       44.25188   31.16472  50.80338   53.0    0.11456  -20.52157  0.99418 
   -9.87214  0.04391  2.10939      14.4443  1.90966  0.87445   9.88808  0.09992     0.05227  4081.32259   7655.76538  0.68712         3536.14562      21.0573  0.63391  58766.64786  0.98252  0.43418  101974.89945  46.89299  17.22526  58823.41576    50.61764       43.75561   35.43508  53.67473   55.5    0.11785  -20.57518  0.99152 
  -13.66203  0.00168  1.99646     14.12159  1.76166  1.17691  22.03056   0.0432     0.06267  4811.41806   8889.81109  0.10023         5145.12833     21.26487  1.02234  58762.85797  3.04228  0.03703  372463.92407  46.34316  17.23695  58828.54176    50.95615       44.10616   32.99554  55.20381   50.0    0.11819  -20.94065  0.99924 
  -10.86638  0.01503  2.70616     14.46409  1.85752  0.83254  18.92003  0.04888      0.0671  4182.79243   6938.47832  0.22309         4356.34938     20.86507  0.40719  58765.65362  1.97461  0.28427  149034.66357  46.49978  17.27144  58824.58665    51.31692       44.54715   26.38801  46.95587   52.5    0.13171  -20.36994  0.99032 
     -10.44  0.00909  3.07173      14.4196  1.93981  0.75573   5.71683  0.15513     0.05811  4562.96746   8011.09426  1.30635         2057.25336      21.0665  0.64748     58766.08  0.71003  0.05199  246112.82273   46.1907  17.34238  58824.58665    50.66273       43.77949   38.40541  56.64506   51.5    0.11695  -20.56801  0.99782 
  -12.73832  0.04268  1.08352     14.29593  1.95835  1.12925  22.74863  0.04124     0.08739  4393.80548   9303.66865  0.44615          2199.0764     21.22889  0.94106  58763.78168  2.61978  0.97095   54639.62918  47.75356  17.24482  58824.58665    50.71059       43.86375   33.91547  54.28387   50.0    0.11271  -20.84111  0.99575 
  -11.79812  0.02622  1.34699     14.22703   1.7266  0.98841  26.47778  0.03064     0.01383  3989.91723    9411.6502  0.55293         3415.37745     21.24055  0.96668  58764.72188  2.51441  0.69419   102252.7756  47.23763  17.25848  58826.56998    50.96773       44.13912   32.94246  50.65435   51.5    0.11621  -20.88434  0.99365 
  -14.23792  0.00127  2.41216     14.14113  1.59348   1.4341  10.04766  0.09809     0.10797  4448.10008   7635.58437  0.10863         3500.42572     21.02081  0.58282  58762.28208  1.18588  0.01278  449478.65973  46.05367  17.24922  58826.56998    50.77349       43.92259    31.8975  56.05904   52.0    0.11878   -20.5028  0.99956 
   -11.6319  0.04446  1.26142     14.37694  1.87647  0.94932  13.28823   0.0683     0.10299  3844.69473   8381.90248  0.47291         3182.93366      21.1368  0.76126   58764.8881   1.1717   0.5908   48864.92402  47.65147  17.24714  58828.54176    51.05477       44.22835   25.57968  55.23515   52.5    0.10696  -20.65827  0.99619 
  -11.32605  0.00514  3.82948     14.52264  1.61124   0.6103  17.21419  0.06422     0.03251  4265.07278   6451.66843  0.43174         4164.95568     20.30948   0.1133  58765.19395  1.86796  0.08845  197684.85477  46.01375   17.2723  58826.56998    50.69452       43.82867   34.89518  55.18764   55.0    0.11973  -20.10633  0.99243 
   -9.56547  0.01329  1.77189     14.25025  1.82247  1.00654  31.81716  0.02954     0.03015  4313.55926    9144.4681   0.5239         4013.05943      21.2475  0.98227  58766.95453  3.53151  0.42281  167819.71538  46.80779  17.26692     58823.54     50.8056       43.97346   31.11495  54.11696   52.0    0.11426  -20.93658  0.99366 
  -13.47305  0.00591  1.61779     14.09169  1.64059  1.49331  14.07469    0.068     0.02847  4201.33845   9647.95116  0.08853         5919.14015     21.19406  0.86853  58763.04695  1.48198  0.08315  261378.69902  46.64873  17.19892  58828.54176    51.06503       44.25349   30.08044  50.73005   47.0    0.11201  -20.76191  0.99877 
  -10.30884  0.02109  2.30526     14.72349  1.78862  0.39394  25.19582  0.03613     0.38006  3735.52093   7973.41581  0.90524         3685.42616     21.02436   0.5876  58766.21116  2.09729  0.53126   31535.10094  47.29713  17.28076  58826.56998    50.87926       44.03847   31.16472  53.57825   57.0    0.11427  -20.48404  0.98629 
  -16.59217  0.00231  2.42158     14.21413  2.01868  1.43534  16.21585  0.06702     0.07918  4457.49039   9277.25937  0.11196          5873.0935      21.1695  0.82078  58759.92783  1.92197  0.03745  410043.56079  46.19288   17.2662  58827.42226    51.03685       44.21994   27.46709  53.47711   50.5    0.10417  -20.72789  0.99908 
  -14.11813  0.01921  3.58896     14.71226  1.64479  0.41467  16.68272  0.06441     0.02502  4032.56657   7143.67912  0.40025         5962.84912     20.44609  0.15517  58762.40187  1.61829  0.32042   74018.09575  46.50568  17.25222  58826.56998    50.91597        44.0893   28.20507  53.81082   55.0    0.11935  -20.13237  0.97709 
  -12.35303   0.0026  1.98563     14.33085   2.0977  0.87287   35.7621  0.02718     0.01365  4383.14901   9737.19113  0.23649          3503.2199     21.23839  0.96188  58764.16697  4.09848  0.09294  167364.88796  46.77113  17.29456  58824.58665    51.08614       44.28935    21.6992  53.29845   47.5    0.11237  -20.90122  0.99856 
   -8.13297  0.02085  2.11811     14.57615  1.89108  0.50668  10.02669  0.07173     0.08771  3415.80751   7688.15598  0.95699         3921.87624     21.14442  0.77473  58768.38703  0.69787  0.20908    55478.5665  47.14953  17.24563  58826.56998    50.96377       44.13418   30.85816  52.73155   57.5    0.12144  -20.70225  0.99575 
  -13.60553  0.05528  1.87808     14.92269   2.0515   0.2721   9.74096  0.10032     0.27945  4161.12163   7354.05706  0.23087         3839.03502     21.08375  0.67372  58762.91447  1.00612  0.53844    9592.76643  48.05154  17.25443     58823.54    50.59964       43.73017   36.69017   58.2937   54.5    0.11489  -20.53171  0.99263 
  -11.24093  0.00104  3.33246     14.35794  1.87597  1.06569   6.78994  0.14865     0.10761  4537.23701    7100.6904  0.32456         3881.96589     20.87348  0.41515  58765.27907  0.83383  0.00707   372125.0166  45.92585   17.2832  58826.56998    50.61734       43.74166   35.81669  56.20964   51.0    0.13095  -20.42001  0.99963 
  -12.06894  0.00352  4.69729     14.46527   1.6799   0.7255   9.31858  0.09438     0.18717  3676.03486   6085.13507  1.28095         3059.10639     19.71765    0.029  58764.45106  0.75117  0.03283  403882.96254  45.54418  17.27229     58823.54      50.713       43.86608   28.13352  57.09839   58.5    0.11146  -19.95663    0.996 
   -9.21125   0.0081  4.09431     14.55094  1.87299  0.67478   19.3125  0.05265     0.02093  4356.39398   6721.30079  0.78716         3725.67993     20.69624  0.27604  58767.30875  2.18635  0.15641  230579.92064   45.9542  17.27482  58824.58665    50.65822       43.78849   36.69017  56.22943   53.5    0.12425  -20.27672  0.98784 
  -13.49707  0.00785  4.32266     14.42123    1.564  0.76828   17.0782   0.0741     0.04142  4440.76788   6245.85476  0.50486         3600.53934      19.8359  0.03807  58763.02293  2.00902  0.13414  390028.50909  45.60048  17.20137  58827.49627    51.12165       44.31048   26.73294  51.46646   56.5    0.11779  -19.99435  0.98479 
  -10.81458  0.01624  3.40426     14.29842  1.53587  1.05972  15.56533  0.06845      0.1873   4607.8946   7083.59785  0.96762         2384.06401     20.64778  0.24689  58765.70542  1.97147  0.25275  418183.39703  45.76979  17.19128  58826.57471    50.99291       44.20116      28.55  48.49613   51.0    0.12584  -20.19596  0.98186 
   -8.46773   0.0163  4.63603     14.46932  1.88037  1.14876  13.99831  0.07925     0.13107  4511.12643   6148.08075  0.81779         3887.18293     20.07057  0.06536  58768.05227  1.69931  0.22819  432218.70072  45.57509  17.22322  58827.49627    50.97481       44.15654      28.55  52.26483   54.5    0.12375  -20.09068  0.97766 
  -12.58198  0.01609  4.11395      14.4351  1.92988  0.96562   8.32106  0.12539     0.10678  4436.86855   7276.27344  0.36277          4374.8125     20.72085  0.29213  58763.93802  0.97714  0.13388  408938.36027   45.7142  17.23822  58826.56998    50.95206        44.1364   27.70595  52.26483   52.0    0.12278  -20.27575  0.98993 
  -10.64349  0.02756  1.17912     14.20998  1.74291  1.37685  15.76446  0.04371     0.04322  3324.99139   8158.73842  0.56165         4069.46521     21.18293  0.84656  58765.87651  1.03965  0.43447   85557.39891  47.43474   17.2565  58824.58665    50.90244       44.06712   32.77635  52.20987   56.5    0.11309  -20.72715  0.99718 
  -11.68708  0.00601  3.01082     14.34577  1.69993  0.86979   9.42701  0.11327     0.07358  4472.50651   6963.56906  0.54854         3764.50678     20.94666  0.49135  58764.83292  1.12487  0.05663  291123.60202  46.07783  17.22174     58827.09    51.01498       44.21237    29.1674  49.60082   54.0    0.11767  -20.47579  0.99723 
  -14.62465  0.00251  3.30246     14.31492  1.88776  1.16801  13.45797  0.07806     0.10641  4559.01972   7250.28104  0.16903         3429.51418     20.91505  0.45686  58761.89535  1.66859  0.03384  448327.25476  45.85552  17.25258  58826.56998    51.14931       44.36421   26.73294  49.58127   53.0    0.12343  -20.39036   0.9983 
  -12.89136  0.07207  1.55324     14.28856  1.94799  1.14059   8.97101  0.11524     0.15618  4578.40226   8981.24492   0.1553         3454.00439     21.20865  0.89821  58763.62864  1.12175  0.64654  115545.11858   47.1132   17.2608  58827.49627    51.18267       44.39918   27.34221  48.84106   49.0    0.11459  -20.81182  0.99344 
   -7.46469  0.02167  3.11162     14.31058  1.68125  1.17511  10.69368  0.08586     0.18757  3856.75784    6942.1678  1.33852         3585.49067     20.89816  0.43943  58769.05531  0.94885  0.23173  361624.73425  45.95025  17.33798  58826.57471    50.71682       43.86143   30.85816  57.09839   57.0     0.1161  -20.38934  0.98783 
   -7.56048  0.10095  1.12139     14.49999  1.89458  0.82304   9.58554  0.08895     0.05913  3895.99728   7766.79118  1.02946         3025.42628     21.13197  0.75283  58768.95952  0.86792  0.96764   22123.67313  48.10198  17.26318  58824.58665    51.07736         44.295   26.38801  47.87017   56.0    0.11481  -20.67946    0.996 
  -14.99197  0.00902  2.97123     14.46649  1.90239  0.68195  10.43086  0.10773     0.19352   4741.5755   7512.82586  0.16768         3288.42905     20.98675  0.53886  58761.52803  1.39892  0.09409  181974.63697  46.34226  17.21714  58827.49627    51.34625       44.56443   26.73294  47.52523   53.0    0.11814  -20.49583  0.99622 
   -5.28227  0.03139  1.50934     14.83212  1.80907  0.40943  24.76004  0.03437     0.15202  3527.81612   7282.88097  1.81125         3030.10293     20.96315  0.51036  58771.23773  1.83819  0.77713    8290.86186  48.25012  17.28362  58826.56998     50.7608       43.91848    33.6466  53.46589   60.0    0.11782   -20.3626  0.99321 
  -14.43057  0.04077  1.46409     14.47155  1.84429  0.78682  15.16182  0.07058     0.10654  4411.40422   7574.57978  0.01769         2252.73987     21.05524  0.63092  58762.08943  1.76008  0.61817   41847.62639  47.58187  17.21245  58826.57471    51.22515       44.43438   25.57351  50.74071   53.5    0.11532  -20.41827  0.99436 
  -11.55188  0.03206  3.39151     14.41134  2.04378  1.34526  11.49826  0.09107     0.21826  4531.70254    6673.8109  0.49987         3433.27863     20.86245  0.40474  58764.96812  1.40858  0.36867  328368.74719  46.00213   17.2281  58826.57471    51.17568       44.40008   25.57968  49.58127   54.5    0.12455   -20.3866  0.98295 
   -9.83835  0.01001  3.57826     14.32147  1.76884  1.46772  16.38539  0.06001      0.0379  4402.08469   6939.67549  0.50942          3374.5365     20.63979  0.24239  58766.68165  1.89409    0.164  478536.87343  45.72927  17.17427  58828.54176    51.02926       44.20228   31.56349  51.60567   51.5     0.1252  -20.24597   0.9894 
  -12.24431  0.00198  2.77424     14.30907  2.13449  1.24369  25.88126  0.03337     0.07634  4182.72671   8676.38396  0.64869         3035.02747     21.13373  0.75589  58764.27569  2.70104  0.05113  367507.28104  46.14658  17.21555  58828.54176    50.93468       44.10926   30.85816  52.73155   52.0    0.11549  -20.68423  0.99849 
  -14.07526  0.01904  1.75822     14.28963  1.82902  0.98477  24.39741  0.03967     0.06759  4221.92679   8597.61343  0.13159         2726.61189     21.14938  0.78362  58762.44474  2.59413  0.46441   138329.8942      46.9  17.26037  58823.41576    50.72851       43.88111   29.17287  56.05904   52.0     0.1077  -20.61709  0.99323 
   -8.19179  0.03262  2.20497     14.24353  1.42615  1.27549  11.16586  0.08881     0.11538  3870.68659    6644.5948  1.07404         3150.53138     20.76292  0.32185  58768.32821  0.99792  0.36426   209762.8572  46.41447  17.22095  58827.49627    51.00891       44.20341   30.85816  48.93277   56.5     0.1118   -20.2507  0.98792 
  -15.77628  0.00902  1.56605     14.24951  2.00112  1.06258  21.68831  0.03832     0.08819  4232.73753   9190.81734  0.00617         2501.09848     21.21392  0.90918  58760.74372   2.3179  0.19563   144437.3451  47.02083  17.27696     58821.15     50.9869       44.19804   29.70327  47.52523   49.5    0.11805  -20.74823  0.99801 
    -9.3274  0.03752  1.77084     14.37983  1.97824  1.00866   9.80538  0.09396       0.046   4071.3502   8025.11448  0.60398         3782.12643     21.15279  0.78981   58767.1926  0.96955  0.36789  100183.81919  47.06797  17.23596  58826.57471    50.78177       43.94697   34.89518  53.30416   53.5    0.12016  -20.75015  0.99525 
