 texplosion  fnickel    Pspin  log(Bfield)      Mns  thetaPB   mejecta    kappa  kappagamma     vejecta  temperature    alpha  cutoff_wavelength  log(nhhost)      A_V         MJD0   kenergy   mnickel            TSD   log(L0)  Peak_mag     Peak_MJD  log(E_rad)  log(Peak_lum)  Rise_Time    E_fold  tau_1  delta_m15     r_peak     frac 
   -15.4708  0.00231  1.22208     13.92884  2.05901   1.0218   20.0171  0.10718     0.07547  5688.12776   7214.53249  0.80321         2947.98966     20.07045  0.06534  57247.90255   3.86338   0.04614   396279.05734   46.8103  20.19643  57351.61107    51.74979       44.82819   40.11639  66.65831   77.5    0.06183  -22.05236  0.99972 
   -19.2937  0.13146  1.62303     13.86398  2.04364  1.09904  19.14952  0.12023     0.38697  6492.27178   3185.15312  0.58689         3544.14128     19.95321  0.04988  57244.07965    4.8148   2.51749   935204.04431  46.18769  20.25588  57346.63392     51.6985       44.75938   42.95758  67.13614   84.5    0.06555  -22.14209  0.97323 
  -20.79388  0.05822  0.88636     13.72549   1.5638  1.43749  11.68816  0.23291      0.0368  6711.65238   4524.11437  0.16016         5858.20297     19.93737   0.0481  57242.57947   3.14074   0.68044   403868.25036  46.96157  20.28975   57345.2006    51.66518       44.70086   47.40146  72.58349   67.5    0.07314  -22.14047  0.99674 
  -19.45285  0.00248  1.51617     13.85073  1.98332  1.13758  40.67245  0.05915     0.07737  5769.22033    7466.5851  0.64274         3536.19598     17.87137  0.00041   57243.9205   8.07536   0.10103   841882.74209  46.27949  20.25485  57345.17883    51.60206       44.69235   39.99499   68.3466   80.0    0.06212  -22.01492    0.999 
  -26.03524  0.00367  1.51026     13.58208  1.50787  1.12767  19.53405  0.13698       0.011  7628.14004   7086.56349  0.28314         2804.23498     17.43595  0.00015  57237.33811   6.78042    0.0717  2188361.73059  45.74898  20.25582  57346.63392    51.63704       44.71316   39.99499  71.61128   63.0     0.0806  -22.12696  0.99892 
  -21.05624  0.01127  1.70343     13.95999  1.90387  0.63287  10.61528  0.19787     0.05418  7030.38551   3654.68415  0.22309         2472.39451     17.48268  0.00017  57242.31711    3.1298   0.11961   616775.41443  46.29571  20.22352  57351.61107    51.65666       44.75554   51.84535  60.01969   78.5    0.07224  -22.06604  0.99839 
  -26.46467  0.02276  1.43337     13.84161  2.10949  1.43223  44.25327  0.03993     0.19042   5915.6959    4647.5331  0.12503         5600.65671     18.97023  0.00519  57236.90868   9.23813   1.00726   834608.43874  46.35882  20.26756  57346.63392    51.56258       44.60667   48.10063  74.06479   84.0    0.07318  -22.00226  0.99191 
  -29.40914  0.27734  1.70889     13.65822  1.58995  0.83254  19.52267  0.07526     0.02427  6497.33684   7386.19911  0.05712         4971.02414     19.48863  0.01711  57233.96421   4.91628    5.4144  2080600.30755  45.68661  20.19584   57349.1225    51.72227        44.8015   38.51369  66.65831   95.5     0.0654  -22.05629  0.91122 
  -16.86626  0.02551  1.22574     13.94776  1.93644   0.9618  44.53177  0.05525     0.06489  6204.80944   8562.61852  0.54342           3751.402     19.73846  0.03042  57246.50709  10.22714   1.13593   343623.86765  46.84297   20.2163   57345.2006    51.73614       44.85428    34.0698  63.83406   68.5     0.0661  -22.06258  0.99245 
  -19.28437  0.34782  0.94796     13.84451  1.66945  1.19027  24.03518  0.08929     0.05567  5854.56605   7610.72516  0.41387         3061.14838     16.45457    2e-05  57244.08898   4.91433   8.35994   285064.07569  47.08289  20.24734   57349.1225    51.63745       44.66285   48.88276   71.1022   83.5    0.05978  -21.97368  0.96014 
  -25.43733  0.03859  1.24099     13.88298  1.51933  0.60882  19.08399  0.13753     0.03517  6707.47656   6176.58007  0.44185         3062.63935     16.07726    1e-05  57237.93602   5.12171   0.73638   372431.92629  46.69192  20.22191  57344.14534    51.62069        44.6924   47.96968  65.98226   79.0     0.0665  -22.03947  0.99273 
   -9.64946  0.00318  1.25193     13.84093  1.63276   0.9075  35.00443  0.07957     0.04246  7071.47841   7900.39369   4.7331         2150.32539     20.06325  0.06427  57253.72389  10.44169   0.11137   494350.27144  46.59257  20.23125  57351.61107    51.73943       44.78766   45.92017  66.65831   71.0    0.06377  -22.10548  0.99899 
   -20.8368  0.10419  1.26256     13.65859   1.3846  1.02187   22.9684   0.1165     0.22433   6567.5728   9314.29659  0.92574         2995.46825      19.5624  0.02028  57242.53655   5.90973   2.39318   987352.32104   46.2132  20.28166   57349.1225    51.67504       44.74867   41.47628  66.65831   68.5    0.06235  -22.05822  0.97242 
   -8.21023  0.00788  0.78673     13.77758   1.4052  1.05158   52.5045  0.06183     0.02641   7026.6474   9462.56109  2.69486         2066.08773     16.20084    1e-05  57255.16312  15.46393   0.41368    224924.8456  47.27289  20.24563   57345.2006    51.70666       44.73574   40.96949  76.17428   59.5     0.0611  -22.02932  0.99818 
  -30.96132  0.01809  1.31516     13.90055  1.43443  0.41934   9.58441  0.24855     0.01998  6512.94919   7339.40451  0.05562         4836.10807     16.06022    1e-05  57232.41203    2.4252   0.17342    364212.7867  46.62621  20.19009   57345.2006    51.78519       44.87949   44.43887  59.25183   66.0    0.07199   -22.0238  0.99788 
  -10.66661  0.00113  1.08087     14.30426  2.13033  0.51123  49.54924  0.07308     0.01267  7202.55306   7362.89675  1.81186          2446.5749     17.29425  0.00011  57252.70674  15.33335   0.05608    56924.37052  47.77444  20.28768  57346.63392    51.72863       44.82225    35.5511  67.11057   70.0    0.06052  -22.04542  0.99975 
  -20.65031  0.01747  2.07934     13.83068   1.9209  0.62925   11.1706  0.14353     0.01427  5955.73321   8291.23933  3.35056         2296.66284     18.45987   0.0016  57242.72304    2.3636    0.1952  1681929.79121  45.69069  20.25835   57345.2006    51.62812        44.7003   45.29197   68.9748   75.0     0.0669  -22.03885  0.99606 
  -20.60733   0.1845  1.13742     13.84417  1.87286  1.51538  18.00538   0.1144     0.01313  5885.91309   4033.43972  0.22141         5264.28757      18.4938  0.00173  57242.76602   3.72098   3.32207   461126.54684  46.76569  20.29439  57346.63392    51.63747       44.67498   38.63509  75.54608   70.5    0.07074  -22.02121  0.98028 
  -29.03545  0.00765  1.67894     14.01582  1.69669  0.34702  23.55665  0.05673     0.03622  5412.09962   7768.90028  0.30019         5546.54637     19.28736  0.01077   57234.3379   4.11597   0.18029   412899.89662  46.43253  20.23626   57349.1225    51.70038       44.81102    35.6725  63.69572  103.0    0.06331  -22.05162  0.99717 
  -25.35328  0.01493  1.29583      13.5517  1.46409  1.34426  13.08888  0.12982     0.21828  6276.62555   3267.08492  0.03314         4741.67015     18.41963  0.00146  57238.02007   3.07597   0.19535  1799179.03049  45.95424  20.24951   57349.1225    51.65345       44.72699   38.51369  72.79049   91.0    0.06934  -22.01436  0.99775 
  -14.76539   0.0097  1.43255     13.76799  1.55701  0.85969  10.02009  0.29747     0.01387  5318.05394   5237.33114  4.02783          2790.3534     17.60214  0.00022  57248.60796   1.69046   0.09723   863677.07313  46.21257  20.24815   57349.1225     51.7262       44.79627   45.29197  64.32392   77.5    0.05136  -21.98894  0.99876 
   -24.8189  0.14488  1.78002     13.96642  1.83284  0.57841  21.58344  0.08702     0.44282  6823.49418   6718.04719  0.23773          3507.7183      17.9394  0.00048  57238.55445   5.99462   3.12705   629430.49402  46.23217  20.26906   57349.1225    51.71641       44.76092   47.40146  65.17701   90.5    0.06857  -22.06143  0.95352 
   -20.5132  0.00148  2.12599     13.71451  2.00198  1.00088   9.88867  0.13985     0.01692  6022.92338   6074.00123  3.10768         2167.89159       18.206  0.00089  57242.86015   2.13983   0.01464   3128815.1234   45.4198   20.2321  57346.63392    51.69895       44.77026   37.03239  68.13961   83.5    0.06676  -22.02022  0.99971 
  -23.12471  0.01072  1.94265     13.67093  1.83713  1.23223   8.42154  0.24295     0.03273  6856.99023    3707.9774  1.29298         2554.57965     17.90443  0.00045  57240.24864   2.36203   0.09029  2930116.23918  45.48931  20.25732   57349.1225    51.67757       44.76064   37.03239  68.13961   77.5    0.06763  -22.07555  0.99832 
  -21.76143  0.00489  0.70886     14.28388    1.886  0.45183  21.43298  0.23024     0.03845  7504.32068   6581.26166   0.1943         5159.21925     16.51131    2e-05  57241.61192       7.2   0.10487    23807.19433  48.46656  20.22408  57346.63392    51.75816       44.81509   41.47628   69.6209   71.5    0.05782  -22.08254  0.99977 
  -25.18523   0.3979  1.53242     13.78968  1.78584  1.07737  10.11707  0.24488      0.0296  7080.82093   3473.59926  0.25355         2284.88706     19.22198  0.00926  57238.18812   3.02586   4.02558  1025769.97705  46.13888  20.21197   57349.1225    51.74788       44.83883   34.92568  65.80243   72.0    0.07002  -22.05951  0.95417 
  -28.16717  0.02396  1.60695     13.74794  1.86863  1.11694  10.06196  0.25535     0.01619  6159.62096   8351.09487  0.54273         3553.54914     19.44272   0.0154  57235.20618   2.27729   0.24107  1430441.47041  45.97289  20.26184   57349.1225    51.69934       44.75805   38.51369   71.1022   64.0    0.07092  -22.04293  0.99704 
  -32.62203  0.01483  1.91198     13.81237   1.9818  0.69047   8.39908  0.28606     0.01655  6628.97003   4701.39824  0.10122         4405.44203     17.05895    6e-05  57230.75132   2.20166   0.12453  1596227.22543  45.79985   20.2712   57349.1225    51.70661       44.75756   41.47628   71.1022   70.5    0.07667  -22.04984  0.99798 
  -22.47293  0.00506  0.97568     13.76321  1.72103  1.27271  36.11818  0.07596     0.01193  7009.50452   7706.04485  0.24986         2010.16462     20.21851  0.09188  57240.90042   10.5859   0.18259    452693.5132  46.87021   20.1879  57345.17883    51.61134       44.68693   47.52287  65.96378   65.0    0.06725  -22.14216  0.99908 
  -23.51409  0.02445  1.36275     13.79524  1.51667  0.71776  26.84802  0.09051     0.07992   6978.6187   5290.31924  0.59927         2622.42817     16.48589    2e-05  57239.85926   7.79971   0.65657   671527.67936  46.35384  20.21918  57346.63392    51.69372       44.76977   39.63504  67.01825   81.0    0.06756   -22.0781  0.99214 
  -23.40664  0.07793   1.8574     13.84985  1.95249  0.85205  19.72559  0.09447     0.20308  6875.96509   3643.97513  0.36092          2421.5071     18.79646  0.00348  57239.96671    5.5632   1.53729  1248894.03052   45.9251  20.17334  57352.19746    51.77922       44.81999   42.95758   69.6209   91.0    0.06934  -22.05312  0.97679 
  -15.81231  0.00116  0.75077     13.90533   1.8976  1.28348  48.77402  0.04186     0.02917   5457.2526   8292.03501  0.28207         4607.12587      16.2546    1e-05  57247.56104   8.66491   0.05654   153591.48914  47.60967   20.2381  57346.63392    51.72037       44.77869   42.95758  67.13614   66.0    0.07406  -21.99197  0.99986 
  -13.22363  0.00145  1.18538     13.75073  1.66934  1.34974  38.99368  0.07501      0.0382  6740.73168   7036.30335  2.47138         2065.11982     19.05748  0.00634  57250.14972  10.56904    0.0564   686469.69906  46.50705  20.20115  57346.63392    51.71227       44.76761   46.77327  64.80174   75.0    0.05831  -22.05236  0.99956 
  -21.82731  0.00162  0.74869     13.90179  1.70326  0.98997  23.28977  0.15099     0.08864  7005.52505   7892.76987  0.15343          2044.7098     18.89236  0.00434  57241.54604   6.81826   0.03771   139357.47648  47.60739  20.22149  57344.14534    51.66765       44.73977    35.5511   71.1022   64.5    0.06325   -22.0294  0.99989 
  -22.44108  0.00814  0.93813     13.79827  1.61436  1.16429  13.40782  0.24198     0.42514  6799.45042   7463.62349  0.40092         3496.10992     18.99389  0.00548  57240.93227   3.69771   0.10911   334037.02091  47.00852  20.27267   57349.1225    51.62591       44.67405   57.77054  68.13961   70.0    0.06292  -22.05031  0.99944 
   -14.1482  0.00118  1.21031     13.96991  1.92662   0.8684  51.01944  0.04525     0.03868  6116.28577    6214.1749  0.97433         2479.40883      16.9358    5e-05  57249.22515  11.38514   0.06007   301011.80407  46.90927  20.25114  57346.63392    51.61108       44.67195   44.43887  72.58349   76.5    0.06371  -21.98733   0.9996 
  -23.63257  0.01981  1.58599     13.80128  1.94516  1.46254  25.45241  0.09373     0.02831  7034.04595   4668.21273  0.10214         4816.51432     16.07461    1e-05  57239.74078   7.51219    0.5041  1134535.46645  46.10238  20.19727  57346.15753     51.7439       44.80152   44.07893  67.01825   75.5    0.07472  -22.05579  0.99437 
  -19.35276  0.07218  0.79438      14.0013  1.58723  0.62639  10.86871  0.31709     0.10195  7301.33733   9891.39422  0.03195         4442.58567     17.38469  0.00013  57244.02059   3.45629   0.78453    92449.11465  47.70353  20.25209  57353.23551    51.59701       44.66891   57.77054  63.69572   53.5    0.06624  -22.09067  0.99707 
  -18.91463  0.00245  0.93266     13.95258  1.78628  0.85717  37.07327  0.06406     0.43587  5614.94037   8175.47444  0.54822         3643.26352     17.30764  0.00011  57244.45872   6.97234   0.09071   179491.69384   47.3273  20.21614   57349.1225    51.65831        44.6677   51.84535   71.1022   70.0    0.06599  -21.99394  0.99961 
  -27.71378  0.00109  1.13209     13.85316  1.62947  0.71283  27.74356  0.06677     0.45589  5401.41145   6372.94954  0.33617         3687.70208     17.09546    7e-05  57235.65957   4.82841   0.03022   381336.39066  46.79182  20.09835  57342.20533    51.68564        44.7369   45.92017  66.55048   85.5    0.06633  -21.93319  0.99978 
  -21.86527  0.36656  1.12111     13.74223  1.56699  1.26627  21.77509  0.07977     0.11703  6093.58893   9839.83486  0.18793         5900.94888     16.70386    3e-05  57241.50808   4.82318   7.98198   599420.39227  46.58688  20.22136  57344.14534    51.70831        44.7958   38.51369  65.17701   67.0    0.06985  -22.06348  0.94203 
  -20.53279  0.04363  1.14807     13.80991  1.89019  1.29072  11.02042  0.30576     0.01215   6640.9679     7707.533  1.01411         2105.92268     18.75516  0.00316  57242.84056   2.89927    0.4808   555192.62509  46.68097  20.26354   57349.1225    51.67802        44.6813   48.88276  74.06479   60.5    0.07317   -22.0632  0.99707 
  -17.76944  0.01327  0.94673     14.16258  1.70351   0.4019  40.21375  0.04827     0.20434  4778.84833   6523.24666  0.87924         3122.10752       16.394    1e-05  57245.60391   5.47833   0.53346    67058.63454  47.72129  20.22966   57349.1225    51.79119       44.86532   41.47628  65.62927   84.5    0.05855  -21.95131  0.99743 
  -28.12266  0.16455  0.77662     13.75977  1.92534  1.43598  36.86947  0.05061     0.12561  5631.07373    5936.6109  0.12375         2722.27538     20.54732  0.19591  57235.25069   6.97391    6.0669   325984.37598  47.25974  20.24474   57349.1225    51.68991       44.70058   50.36406   71.1022   99.5    0.05966  -22.09499  0.98391 
  -26.36298  0.02511   1.4653     13.64409  1.73045  1.51491  24.09185  0.07468     0.05912  6338.59002    6478.4338  0.12559         2460.76676     18.97005  0.00519  57237.01037   5.77408   0.60489  1776817.60478  45.92551  20.24055   57349.1225    51.59807       44.67097   50.36406  66.65831   91.0    0.06725  -22.03184   0.9931 
   -9.78763  0.02301  0.96317     13.77488  1.51942  1.28763  36.38935   0.0728     0.25889  6808.21069    4893.9442    1.343         2552.86644     16.07078    1e-05  57253.58572  10.06161   0.83738   369091.76305  46.91598  20.24049  57346.15753    51.65076        44.7086   38.51369  72.58349   73.0    0.07063  -22.02532  0.99507 
  -38.26326  0.00276  1.63396     13.71596  1.73101  0.62996  14.93666   0.1118     0.01098  6140.09962   9864.69375   0.0675         2066.57256     19.59176   0.0217  57225.11009   3.35917   0.04123  1587394.43891  45.87998  20.20772  57346.15753    51.66139       44.72869   34.76897  73.95696   61.0    0.06836  -22.06013   0.9994 
  -19.21251  0.24381  1.35873     13.83603   1.7752  1.10218   19.0288  0.08306     0.01257  5145.38697   3802.59517  0.49613         4656.91294     17.11881    7e-05  57244.16084   3.00521   4.63937   647549.82644  46.44055  20.24573  57344.14534    51.71425       44.80757   37.03239  63.69572   82.0    0.06964    -21.978  0.95814 
  -21.92448  0.25842  1.30325      13.8908   1.8692  1.15834  26.87478   0.0965     0.09736  7298.99328   4602.74422  0.02053         4749.06125     19.10337  0.00705  57241.44887   8.54079   6.94487   487457.50184  46.62251  20.28824  57346.63392    51.66256       44.69295   45.92017  72.58349   80.5    0.06935   -22.0767   0.9474 
  -23.64317  0.09883  2.20848     13.66486  1.90695  1.22046  20.17191  0.05614     0.30014  4855.08029   6107.02722   1.1883         3754.87583     16.19304    1e-05  57239.73018    2.8364   1.99358  4042212.99818  45.25438  20.28341   57349.1225    51.69705       44.77747    35.6725  68.90747  118.0    0.06292  -21.97931    0.956 
   -8.32913  0.01161  0.90449     13.74488  1.43433   1.4134  41.76332  0.10309     0.06534  8119.13146   5135.23104   1.8037         2713.16878     17.06266    6e-05  57255.04422  16.42258   0.48489   352784.25363  46.96518  20.29257   57349.1225    51.67783        44.7154   44.43887  75.54608   73.0    0.05973   -22.1013  0.99725 
  -20.72407  0.00234  0.97282     13.79234  1.67845  1.24414  74.49419  0.03199     0.01326  5503.72055   9814.18516  0.50569         3874.57992     17.17633    8e-05  57242.64928  13.46054   0.17409   383797.89981  46.93359  20.20436   57349.1225    51.68528       44.77082   44.43887  64.17355   63.5    0.06182   -21.9917  0.99909 
  -17.20221  0.00119  0.70923     13.97353  1.99861   0.8695  40.83644  0.04244     0.04234  5425.68899    3688.6163  0.28752         4705.63198     20.44606  0.15516  57246.17114   7.17108   0.04842   105451.52924  47.84495  20.23829  57346.63392    51.78272       44.86997   44.43887  63.69572   73.5    0.07745  -22.15648   0.9999 
  -15.33273  0.08863  0.77181     13.83804  1.75749   1.4077  17.90638  0.12009     0.46163  6228.87229   6971.52834  0.17905          3771.8029     19.84172  0.03859  57248.04062   4.14433   1.58701   204953.53146  47.42706  20.19005  57346.15753    51.57863       44.64379   50.36406  68.13961   70.0    0.07648  -22.04131  0.99525 
  -26.35262  0.26343  1.38609     13.63702  1.49489  0.86647  16.34173  0.10212     0.43267  6730.85096   3157.42249  0.35877         2368.37958     20.28122  0.10616  57237.02073   4.41637   4.30484  1418956.89399   46.0079  20.27533  57346.63392    51.62389       44.67154   41.59769  75.54608  103.0    0.06606  -22.15137   0.9476 
   -11.1041  0.03496  1.28946     14.02377  2.00015  0.76642  11.20246  0.33705     0.01189   7121.5942   7917.52769  2.93106         2140.59172      16.1601    1e-05  57252.26925   3.38918   0.39159   276796.75187  46.90693  20.20996  57346.63392    51.71604       44.75416   48.88276   66.8653   59.5    0.07445  -22.05089  0.99724 
  -28.36877   0.0095  1.55441     13.82511  1.77499  0.70545  24.04707  0.07085      0.0113  5802.86383   8356.24283    0.122         4710.18128     18.50745  0.00179  57235.00458    4.8303   0.22836   891093.47151  46.18499  20.17628  57346.63392    51.67973       44.70897   48.88276  68.92637   74.5    0.06602  -21.99213  0.99716 
  -11.99986  0.00381  0.79168      14.1983  1.82968  0.52226  17.29893  0.20873     0.01022   6400.2094   3287.27334  1.52952          2703.6824     18.22845  0.00094  57251.37349   4.22702   0.06598    42726.30526  48.10342  20.20461   57349.1225    51.82448       44.91652   39.99499  62.21442   67.5    0.06554  -22.02534  0.99981 
