 texplosion  fnickel    Pspin  log(Bfield)      Mns  thetaPB   mejecta    kappa  kappagamma     vejecta  temperature    alpha  cutoff_wavelength  log(nhhost)      A_V         MJD0  kenergy  mnickel          TSD   log(L0)  Peak_mag     Peak_MJD  log(E_rad)  log(Peak_lum)  Rise_Time    E_fold  tau_1  delta_m15     r_peak     frac 
   -9.70015  0.15959  0.71571     14.65252  1.91815  1.35445   8.98997  0.03162     0.21352  6909.59116    6824.4969  0.33385         4621.63753     17.06762    6e-05   59206.5116  2.56029  1.43467   4519.88111  49.18713  18.76133  59236.74153    51.10513       44.67851    7.20327  21.47283   30.5    0.54542  -20.88003  0.99958 
   -10.8025  0.17897  0.78092     14.84146  2.07751  0.69828   6.93375  0.03903     0.42042  6756.28684   6757.82905  0.24026         5727.12306      16.8475    4e-05  59205.40925  1.88804  1.24092   2441.48498  49.41352  18.74986  59236.74153    51.08342       44.64847    7.73322  22.22436   38.5    0.45645  -20.62257  0.99951 
   -9.03323  0.08702  0.72756     14.72167  1.92039   1.0704  15.72402   0.0178     0.20793  6820.54012   7270.71103  0.45624         4749.38468     19.26359  0.01019  59207.17852  4.36343  1.36827   3400.95065  49.29689  18.74426  59236.74153    51.13116        44.7211    6.80235  21.87374   34.5    0.45211  -20.68062  0.99961 
    -10.993  0.12599   0.7623     14.69841  2.04872  1.34608  11.32239  0.02842     0.30736  7425.53231   7039.55888  0.21326         4983.20008     17.62376  0.00023  59205.21874  3.72409  1.42647   4433.25895  49.16935  18.73977  59236.74153    51.07194       44.63242    7.73322  22.22436   39.0    0.43385  -20.55585  0.99956 
   -9.59985  0.15746  0.74895     14.69638  1.92399  0.96127   7.51652  0.02982     0.40695   5534.4623   7209.87754  0.48476         5769.64418     18.09752   0.0007  59206.61189  1.37339  1.18354   4056.72276  49.19596  18.75652  59236.74153    51.00683        44.5512    8.62699  22.55877   23.5    0.49221  -21.37371  0.99952 
   -8.67324  0.11623  0.77666     14.55587  1.55957   1.2876  11.71258  0.02576     0.29364  7169.04656   7376.48885  0.47356         4227.34637     16.66376    3e-05   59207.5385  3.59089  1.36136   6753.57823  48.85186   18.7491  59236.74153    51.07903       44.64624    6.82021  21.99285   28.5    0.55738  -20.92892  0.99912 
  -10.78611   0.2361  1.01127     14.59897  1.84975  1.30652   4.98173  0.06173     0.46795  7174.89808   6777.17643  0.31043         4116.29771     16.05013    1e-05  59205.42563  1.52982   1.1762  11136.07232  48.47949  18.74963  59236.74153     51.0973       44.67984    7.20327  21.47283   36.5    0.45732  -20.61942  0.99829 
  -10.68962  0.18156  0.77202     14.77612  1.69222  0.69675   8.88331  0.04083     0.46793  8147.10422   6837.24232  0.20011         4536.74725      18.3121  0.00114  59205.52213  3.51729  1.61285    2626.0062  49.30275  18.78427  59236.74153    51.12544       44.69106    7.20327   21.6098   38.5    0.44498  -20.63433  0.99917 
    -8.7304  0.15469  0.73615     14.66025  1.92298  1.49284   8.69088  0.02941     0.22309  6242.90477   6711.91087  0.51408         4849.92987     17.22276    9e-05  59207.48135  2.02053  1.34437   4626.14928  49.15367  18.76726  59236.74153    50.94658       44.47506    7.73594  21.86897   30.0    0.48398  -20.84492  0.99959 
  -10.81055  0.09023  0.85486     14.54835  1.69261  1.20189  12.88489  0.02308     0.13332  7163.54679   6748.70442  0.23325         5042.14442     17.61353  0.00023   59205.4012  3.94425  1.16257   9193.26831  48.67014   18.7868  59236.74153    50.97327       44.49785    9.60436  22.40164   36.5    0.45881  -20.63531  0.99881 
  -10.05556  0.09539  0.72349      14.6506  1.77453  0.93966   12.5207  0.02173     0.17808  6659.16133    6648.5431  0.28487         5334.52965     18.25167  0.00099  59206.15619  3.31203  1.19432   4310.88402   49.1645  18.77012  59236.74153    51.18177        44.7915    9.20344  19.60963   35.5    0.48032  -20.67714  0.99946 
   -9.40587  0.12518  0.73078     14.83937  2.09272  0.73846  10.23985  0.02469     0.37374  6799.56355   7004.72938    0.258         5471.36457     19.39929  0.01393  59206.80588  2.82412  1.28187   2174.51906  49.52462  18.76278  59236.74153    51.08811       44.65765    7.20327  21.47283   34.5    0.49574   -20.7267  0.99964 
   -8.62275  0.10662  0.73731     14.68136  1.70158  0.89787  11.87332  0.02493      0.2825  7394.91942   6860.83635  0.34938         4453.34272      17.2624   0.0001  59207.58899  3.87317  1.26591   3726.13983  49.19314   18.7711  59236.74153    51.05877       44.60836     8.4463  21.51128   24.0    0.58702  -21.16736  0.99943 
   -9.01565  0.20249  0.72913     14.72249  1.93481  1.44506   7.90112  0.03944       0.308  7110.21491   6378.18691  0.52557         4300.50714     17.78531  0.00034  59207.19609  2.38277   1.5999    3428.3199  49.29479  18.75734  59236.74153    51.16043       44.76475    6.80235  19.60963   38.5    0.48077  -20.62286  0.99964 
  -11.45359  0.12736  0.83385     14.50207  1.50751  0.90418    8.3318  0.03475     0.47359  7682.70554   6585.83592  0.04428         5400.58892     16.89264    4e-05  59204.75815  2.93356  1.06113   9640.82905  48.62082  18.76491  59236.74153    51.10319       44.66614    9.20344  21.87374   38.0    0.45842  -20.60002  0.99836 
  -10.66626  0.10737  0.70084     14.76823  1.95901  0.78139  12.90823  0.02202     0.28045  7435.84255   6143.17951  0.09891         5324.67612     17.95834   0.0005  59205.54549   4.2575  1.38592    2597.9131  49.45501  18.73375  59236.74153    51.07858       44.65025    7.73322  21.07984   40.5    0.45995  -20.61727  0.99958 
   -9.55694  0.16514   0.7412     14.67556  2.03378  1.30724    8.3027  0.03088     0.28572   6534.3469    6893.5638  0.35749         5101.70446     19.35494  0.01258  59206.65481  2.11471  1.37113   4622.45603  49.17241  18.77126  59236.74153     51.0723       44.64763    6.82021  21.85588   37.5    0.43973   -20.6801  0.99957 
  -12.67988  0.06119   0.7295     14.71523  1.91107  0.79252  18.19102  0.01811     0.40205  7631.71657   6667.99736  0.00474         5503.16849     16.86396    4e-05  59203.53187  6.32017  1.11303   3504.98487  49.27939  18.75592  59236.74153    51.09563       44.67671    6.80235  21.87374   40.5    0.41244  -20.47802  0.99951 
  -10.36224   0.1272  0.82787     14.63452  1.92212  1.26297   9.90153  0.03013     0.42064  7357.39894   6783.96792   0.2347         4621.11849     19.08355  0.00673  59205.84951  3.19726  1.25949   6583.75577  48.89823  18.76006  59236.74153    51.03758       44.58346    7.73322  22.22436   34.0    0.47266  -20.73837  0.99926 
   -9.98528  0.11868  0.72529     14.55536  1.63797  1.08858   9.08388  0.02996     0.49039  6711.35614    6744.3711  0.31388         5249.55943     18.67838  0.00265  59206.22647  2.44073  1.07809   6200.58596  48.96969  18.76091  59236.74153    51.11595       44.70187    6.80235  21.87374   33.0    0.48653  -20.71931  0.99938 
  -11.27495  0.12249  0.70736     14.77639  1.90873  0.82788  12.57817  0.02783     0.41096  7659.29288   6705.85074  0.24466         3895.05136     19.61678  0.02299   59204.9368  4.40172  1.54064     2483.513  49.45524  18.72341  59236.74153    51.11329       44.71486    7.73322  20.94287   42.5    0.40023  -20.52946  0.99957 
  -10.43182  0.12319  0.74438     14.67485  1.92003  1.10435  10.72702  0.02753     0.15067  7096.02586   6265.43716  0.26517         5270.77101      16.2899    1e-05  59205.77993  3.22208   1.3215   4415.72026  49.16357  18.78644  59236.74153    51.01748       44.55146    7.73322  22.59472   35.0    0.48271  -20.70632  0.99951 
   -7.19383   0.0991  0.78583      14.7353    1.875   1.2483  14.15225  0.01705     0.42047  5364.10686   7552.20963  0.92638          4822.8981     18.17877  0.00084  59209.01791  2.42911  1.40244   3638.20732   49.1903  18.74854  59236.74153     51.1625       44.76974    6.80235  19.60963   28.0    0.45361  -20.93763  0.99957 
  -10.40959  0.09507  0.81375     14.85983   1.9116  0.59844  14.44143  0.01861     0.34641  6786.00417   7008.11991  0.28931         5641.91245     19.16262  0.00808  59205.80215  3.96703  1.37293   2241.46786  49.37873  18.77559  59236.74153    51.06784       44.62171    7.20327   21.6098   36.0    0.47134  -20.72628  0.99923 
  -11.17844  0.18926  0.78032     14.65715  2.01666  1.46457   7.42097  0.04452     0.34624  7919.00576   6415.06201  0.10688         4772.32512     17.96117  0.00051  59205.03331  2.77606  1.40452   5529.56473  49.04624  18.74772  59236.74153    51.07549       44.64657    7.73322  21.07984   40.0    0.44052   -20.5762  0.99945 
   -9.67826  0.07084    0.849     14.72132  1.72095  0.78385  18.15444  0.01712     0.15682  6976.59959   7403.17173   0.4437         4562.72151     19.71869  0.02907  59206.53349  5.27105  1.28606   4156.80801  49.02803   18.7672  59236.74153    51.15812       44.76126    6.80235  19.60963   30.0    0.51135   -20.9451  0.99898 
   -10.2863  0.10296  0.71029     14.56225  1.31929  0.67066  12.03636   0.0228      0.2215  7158.72622   7331.11549  0.24074         4701.78266     16.70227    3e-05  59205.92544  3.67954  1.23922   4640.06897  49.01979  18.77184  59236.74153    51.17044       44.76402    7.20327   21.6098   32.5     0.4734  -20.76448  0.99873 
  -10.18012  0.11151  0.80786     14.49025  1.67183  1.37153   9.60329  0.02677     0.40358  6602.09843   6665.22785  0.32799         5104.95651     19.84934  0.03927  59206.03163  2.49696  1.07091  10596.75213   48.6522  18.75491  59236.74153    51.11945       44.71463     8.4463  20.22979   29.5    0.48554   -20.9281  0.99897 
  -10.48755  0.21147   0.7094     14.71358  1.83226  0.86172    6.1673  0.04783     0.27087  7175.29212   6537.83057  0.22709         4727.14982     17.77573  0.00033   59205.7242  1.89409  1.30422   3201.99671  49.32463  18.75151  59236.74153     51.1108       44.69757    7.20327  21.47283   36.5     0.4722  -20.64918  0.99954 
   -11.4277  0.08412  0.76551     14.76969  2.02943  0.85801   13.8881  0.02176     0.22575  6763.66155   6870.19013  0.24802         5373.52293     16.15453    1e-05  59204.78405  3.78995  1.16833   3189.40215   49.3046  18.75462  59236.74153    51.05962       44.62637    7.73322  21.07984   39.5    0.42625  -20.51221  0.99957 
   -8.68193  0.21177  0.76977     14.50562  1.54993  1.41588   5.93952  0.04241     0.24985  6319.91252   7107.45929  0.46532         5237.86898     17.54554   0.0002  59207.52982  1.41514  1.25779   8310.24132  48.76683  18.73619  59236.74153    51.16136       44.76343    6.82021  19.59176   29.0    0.45676  -20.92087  0.99907 
   -9.10721  0.20918  0.70158     14.71482  1.65899    0.812     7.364  0.03969     0.34131   7211.5407   6958.74206  0.38627          4369.2391     17.50035  0.00018  59207.10453  2.28453  1.54043   2819.59716  49.34634  18.77727  59236.74153    51.11797       44.68656    9.20344  21.87374   23.5     0.5374  -21.31942  0.99943 
  -10.88948  0.05444  1.20669     14.82413  1.89475  0.59912  21.94846  0.01355     0.08705  7587.13874   6295.13076  0.24871          3533.9636     18.11352  0.00072  59205.32227   7.5368  1.19494   5758.30352  48.62291  18.75708  59236.74153    51.11696       44.69251    9.20344  21.87374   37.5    0.46188  -20.64271   0.9966 
   -8.82478  0.19899  0.72173     14.78958  1.81041  0.71552   6.42095  0.03846     0.29006  6163.30275   7029.39333  0.47846         5193.08469     16.94709    5e-05  59207.38697  1.45497  1.27773    2307.7749  49.44668  18.76051  59236.74153    51.09059       44.66706    7.20327  21.47283   32.0    0.43224  -20.76518  0.99954 
   -8.99082  0.13702  0.75871     14.56687  1.62278  1.05396   8.70806  0.03083     0.37521  7028.01349   6692.91552  0.31729         4664.24943     18.01651  0.00058  59207.22092  2.56575  1.19318   6375.25675  48.91445  18.78041  59236.74153    50.99799       44.54126    8.62699  22.55877   34.0    0.50827  -20.71316  0.99919 
  -10.53432  0.08666  0.71912     14.63893  1.99386  1.21762   13.4831  0.01899     0.10809  6497.86138   6611.02932  0.27145         5685.08126     19.65839   0.0253  59205.67743  3.39592  1.16851   5049.52801  49.15168  18.76393  59236.74153     51.0288       44.58083     8.4463  21.88164   37.0    0.47364  -20.68305   0.9996 
   -8.39159  0.31455  0.84151     14.67309  1.83533  1.11611   4.71375  0.05765     0.49162  7410.62192   6711.16655  0.38931         4278.73792     16.67143    3e-05  59207.82016   1.5442  1.48273   5438.26498  48.94698  18.75734  59236.74153    51.14424       44.73884    6.82021  21.85588   34.5      0.528   -20.7441  0.99912 
   -9.95927  0.14253  0.74935      14.5964  1.52988  0.87879  10.37424  0.03121     0.41096  7652.07658   6657.44841  0.32799         4264.67169      19.9981  0.05531  59206.25247  3.62361  1.47863   5117.32376  48.99509  18.76497  59236.74153    51.09777       44.66869     9.2213  21.85588   35.0     0.4547  -20.77294  0.99893 
  -11.39573  0.10966  0.72634     14.71308  2.12266  1.29642  12.61215  0.02881     0.24555  8316.77026   6576.02353  0.05964         4003.36845     19.13074  0.00751  59204.81601  5.20386  1.38308   3897.67972  49.28264  18.76828  59236.74153    51.16242       44.76586    6.80235  19.60963   39.0    0.45361  -20.55528  0.99966 
  -13.29541  0.12007  0.74637     14.64441  1.96565  1.04244  11.11849  0.03129     0.33439  8008.42174   7325.41281  0.02253         5888.74633     20.17914  0.08392  59202.91634   4.2537  1.33496   5228.78632  49.09805  18.78956  59236.74153    51.01848       44.55169     8.4463  22.73946   40.5    0.40039  -20.54145  0.99939 
   -9.85665  0.07824  1.33481     14.58661  1.79919  1.22087  15.29902  0.02088     0.43281  8242.39535   6689.75315  0.21403         4121.56582     17.06188    6e-05  59206.35509  6.20008  1.19701  19975.74623  47.97258  18.77746  59236.74153    51.14753       44.72948    9.20344  21.87374   32.5    0.50102  -20.79824  0.99478 
   -9.86423  0.19722   0.7964      14.5899  1.84901  1.43076   6.19825  0.04203     0.29408  6491.51415   6985.20858  0.34548         5341.14044     17.43428  0.00015  59206.34752  1.55807  1.22244   7198.02563  48.87631  18.78376  59236.74153     51.0599       44.61768    7.20327   21.6098   33.5    0.45989  -20.75892   0.9993 
   -9.85534  0.10021  0.75816     14.76501  1.87996   0.7487  10.92171  0.02275     0.25969  5854.77888   6859.94525  0.45134         5441.16725      16.5195    2e-05  59206.35641  2.23326  1.09442   2961.13259  49.31202  18.76784  59236.74153    51.06239       44.61923    7.73322  22.22436   32.5    0.49789   -20.7561  0.99951 
   -8.56636  0.20176  0.73472     14.53301  1.54658  1.47612   6.65072  0.04643     0.46147  7507.16837   6875.26433  0.42148         4038.32051     18.20175  0.00088  59207.64539  2.23588  1.34186   6659.12085  48.90255  18.76128  59236.74153    51.08912       44.66421    7.73322  20.94287   34.0    0.46784  -20.65875  0.99928 
   -8.72673  0.18278  0.90413     14.68419  1.45318  0.69672   8.17663  0.03758     0.46357   7299.1943   6790.42665  0.50898         4274.68565     16.09111    1e-05  59207.48502  2.59867  1.49455   4722.98249  48.84448  18.77192  59236.74153    51.37206       45.01197    9.20344  19.19004   32.0    0.48385  -20.83742  0.99785 
   -9.78598  0.08354  1.10418     14.80889  1.76099  0.63677  16.07164   0.0222     0.18442  8293.58619   7104.96235  0.33816         3687.58509     19.44685  0.01554  59206.42577  6.59435  1.34269   4806.98039  48.74665  18.78346  59236.74153    51.09475       44.66155     8.4463  21.51128   30.5    0.48862  -20.83109  0.99726 
   -8.04456  0.15327  0.71261     14.67381  1.86125  1.36128   9.01583  0.02764     0.38941  6333.13462   7469.44516  0.59789         4667.13936     16.10197    1e-05  59208.16719   2.1571  1.38185   3941.86793  49.23724  18.73816  59236.74153    51.07896       44.65729    7.73322  21.07984   35.0    0.48379  -20.64495  0.99964 
   -9.48436    0.088  0.71536     14.62126  1.83094  1.13867  12.69655  0.01905     0.13555  6040.64506   7489.95783  0.40952         5187.63428     16.06914    1e-05  59206.72739  2.76363  1.11735   4977.70652  49.12544  18.76236  59236.74153    51.10009       44.67397    6.80235  21.87374   34.5    0.49248    -20.683  0.99957 
   -10.3522  0.11736  0.70823     14.64869  1.91544  1.13706  10.35335  0.02437     0.31834  6253.89167   6996.34468  0.34021         5242.44253      18.5394  0.00192  59205.85955  2.41551  1.21508   4498.29751  49.19772  18.79926  59236.74153    51.02491       44.56893     8.4463  22.73946   34.5    0.46231  -20.70372   0.9996 
   -9.53564  0.08291  0.70952     14.55127  1.61612  1.29412  16.08113  0.01829     0.32288  7235.28501   6640.34705  0.35099          4407.0526     19.00076  0.00557  59206.67611  5.02175  1.33322   5965.93284  48.99971  18.76252  59236.74153     51.1101       44.67815    9.20344  21.87374   35.5    0.45834  -20.68031  0.99938 
  -10.07131   0.2462  0.70121     14.54204  1.64873  1.35589   6.04164   0.0511     0.36314  7653.85765   6136.83512  0.22704         3964.13421     16.07304    1e-05  59206.14044  2.11126  1.48743   6202.76689  49.00171  18.78495  59236.74153    51.06643       44.62827    7.73322  22.22436   37.5    0.44181  -20.67816  0.99934 
  -10.94803  0.13248  0.77825     14.65201   2.0584  1.53771   8.82517  0.03177      0.4932  6493.18029   6983.59617   0.3039         4995.41621      16.1393    1e-05  59205.26372  2.21955  1.16917   5748.47021  49.04059  18.76177  59236.74153    51.06049       44.61721    7.73322  22.22436   38.5     0.4197  -20.55654  0.99954 
    -9.9912  0.15265  1.16598     14.72615  1.61639  0.58665   7.79639  0.03637     0.38802  7645.34885   6646.85089    0.219         4679.57196     16.66258    3e-05  59206.22054  2.71841   1.1901   7201.87272  48.48656  18.76234  59236.74153    51.07485       44.64096    7.20327   21.6098   34.5    0.52035  -20.76226   0.9954 
  -10.74683  0.28485  0.72907      14.6482  1.97054  1.23871   4.69638   0.0599     0.40869  6845.26271   6833.56135  0.23312         5494.22051     19.04365  0.00614  59205.46492  1.31272  1.33775   4915.30898  49.14634  18.76067  59236.74153    51.10431       44.67798    6.80235  21.87374   39.0    0.43715  -20.61876  0.99954 
   -9.22269  0.19819   0.7669     14.80343  1.76177  0.57165   6.29647  0.03991     0.29454   6937.8395   7153.30671  0.26019         5803.54356     19.78958  0.03422  59206.98906  1.80789  1.24789   2378.89916  49.36894  18.74774  59236.74153    51.11426       44.69759    7.20327  21.47283   30.5    0.53881  -20.89843  0.99923 
   -9.75247  0.12017   0.8115     14.65414   1.6776  0.78972  10.50691  0.02429     0.35238  6905.38154   7830.65569  0.24839         5921.79998     17.28351  0.00011  59206.45927  2.98867  1.26265   5044.34466  48.97215  18.75389  59236.74153     51.1383       44.73437    6.82021  21.85588   31.0    0.53524  -20.84077  0.99889 
   -9.71264  0.15686  0.76653     14.61488  1.67779  1.17491   9.71907  0.03563     0.47646  8064.09081   6703.99626  0.39735         2907.26312     18.48221  0.00169  59206.49911  3.77019  1.52449   5393.18518  48.99268  18.75034  59236.74153    51.13449       44.71889    6.82021  21.85588   31.5    0.45819  -20.84356  0.99922 
   -9.89981  0.10694  1.14428     14.58191  1.77062  1.25253  11.49289  0.02581     0.24494  7173.09776   6850.01597  0.37607         4026.60902     17.02391    6e-05  59206.31193  3.52752  1.22903  14763.49602  48.23071  18.74199  59236.74153    51.04429       44.60565    8.56451  21.76343   34.0    0.46139   -20.7298  0.99687 
  -11.82601  0.23356  0.72929     14.64279  1.98459  1.34835   6.02523  0.05126     0.47077  7151.76883   6594.24612  0.18252         5206.70329     18.08834  0.00068  59204.38574  1.83835  1.40722   5078.21923    49.135  18.77746  59236.74153    51.13193       44.72028    6.80235  21.87374   44.0    0.39673  -20.50634  0.99953 
