 log(Bfield)      Mns    Pspin  cutoff_power  cutoff_wavelength  fnickel    kappa  kappagamma   mejecta  log(nhhost)  temperature  texplosion  thetaPB     vejecta      A_V        MJD_0   log(KE)      M_Ni  Peak_mag     Peak_MJD 
    14.68433  1.59888  0.79552       0.41389         2530.12654  0.17238  0.02986     0.44015   9.88471     17.14776   5764.31037    -6.36837  0.98962  7436.74249    8e-05  59209.84338  52.34143  11.46882  18.77012   59234.6289 
    14.90763   1.7383  0.76166       1.36043         2427.47323  0.16475  0.03074     0.29636   10.8178     18.48986   8052.21328    -3.99456  0.78434  7929.70582  0.00172  59212.21719  52.40561  11.17637  18.80517   59234.6289 
    14.74612  1.50671   0.7084       0.02025         2263.32693  0.17118   0.0284      0.2906   9.96912     17.62486   4561.69575    -7.56906  0.64788  7381.34851  0.00023  59208.64269  52.33573  11.41005  18.75962  59238.17735 
     14.9091  1.80919  1.14441       0.48447         2131.04881  0.16806   0.0331     0.42686   9.84811     16.72982   9213.46222    -6.95419  0.63078  7901.64137    3e-05  59209.25756  52.39374  11.17228  18.76347   59234.6289 
     14.6925  1.69383  1.04399       0.62149         2001.81114  0.10357  0.01793     0.12767  16.27337     16.23963   6996.23671    -6.78582  0.99648  7392.40086    1e-05  59209.42593  52.38091   7.63759  18.78376   59234.6289 
    14.76325  1.55524   1.1332       0.30509           2377.872  0.16664  0.03245     0.23622   9.42729     18.83299   9554.36699    -7.24979  0.63804  7678.24923  0.00378  59208.96196  52.36469  10.97286  18.77514   59234.6289 
    15.00272  2.03686  1.06324       0.50103         2136.32076  0.15656  0.02969     0.25039  11.02118     17.61279   8926.78036    -7.51043  0.60271  7714.71229  0.00023  59208.70132  52.38345  10.66295  18.78325   59234.6289 
    14.53719  1.35439  0.82635       0.08119         3788.70643  0.23066  0.04281     0.29109   6.67737      18.2494   5399.94573    -7.48916  0.96027  7409.86601  0.00099  59208.72259  52.29958  14.03774  18.80302   59234.6289 
    14.73224  1.73161  1.39073       0.07981         2107.65945  0.13253   0.0245     0.33805  11.74548     16.55845   5342.48055    -7.07728  0.79705  7926.51293    2e-05  59209.13447  52.41281   9.14811  18.77722   59234.6289 
     14.7338  1.79122  0.97144       0.21055         2313.37545  0.12984  0.02223     0.13776   12.5674     17.20047   7633.79394    -7.02373  0.95466  7402.30652    9e-05  59209.18801  52.35949   9.08922  18.75953  59238.17735 
    14.60501  1.87894   1.7964       0.05742         5650.78374  0.12938   0.0253     0.32093  10.77474     16.82866   5630.82104      -9.614  1.26718   7057.1276    4e-05  59206.59775  52.30398   8.76918  18.78128   59234.6289 
    14.52765  1.45668  0.87712       0.18592         2249.99442  0.11749  0.02304     0.21192  12.22143     16.94005    6643.9114     -6.5144  1.18868  7506.44469    5e-05  59209.69735  52.36911   8.17718  18.77436  59238.17735 
     14.7559   1.8583  2.13128       0.81344          3206.1438  0.27038  0.05152     0.43541   5.69285     18.15885   7375.36822    -5.15356  1.02275  7415.43281   0.0008  59211.05819  52.28345  15.83115  18.79149  59238.17735 
    14.72348  1.52596    0.766       0.06949         3361.07091  0.26964  0.04468     0.31715   6.59198      16.7892   7741.14854     -7.7288  0.74436  7508.71517    3e-05  59208.48295  52.30976  16.35993  18.79507   59234.6289 
    14.57566  1.57459  1.08582       0.02705         5349.91389  0.18479  0.03447     0.35359   8.04144     16.62701   8027.73979    -8.70074  1.03678  7067.80278    2e-05  59207.51101   52.2773  11.74293  18.75741   59234.6289 
     14.7853   1.8107  0.75354       0.68991          2105.9885  0.10549  0.01773     0.10675  17.70641     16.37093   6793.40216    -6.05909  1.05163  7770.12881    1e-05  59210.15266  52.43133   7.90799  18.78731   59234.6289 
    14.55844  1.44392  1.46456       0.41401         2468.54925   0.1197  0.02468     0.23081  12.68708     16.66063   5973.46298    -7.02059  0.95998  7710.47458    3e-05  59209.19116  52.39577   8.39599  18.77481   59234.6289 
    14.90636  2.01218  2.59403       0.73485         2636.42006  0.10296  0.02518     0.20893  12.48989     16.79324   4411.38489    -6.49373  0.61546  7576.65083    3e-05  59209.71802  52.37915   7.19857  18.75543   59234.6289 
    14.63943  1.58141  1.22575       0.44251         2574.90431  0.09575  0.01822     0.16687  16.10184     16.04327     8115.224     -6.7469  0.97217  7452.02117    1e-05  59209.46485  52.38699    7.0458  18.77274   59234.6289 
    14.94551  1.62929  0.96029       0.78491         2097.36103   0.1839  0.02975      0.1633  10.02566     19.07681   7383.21734    -6.19475  0.49692  7629.38898  0.00663    59210.017  52.36497   12.2728  18.77615   59234.6289 
      14.419  1.29237  1.15583       0.03743         3578.18168  0.11086  0.02057     0.29146  13.94949       17.251   5720.67806    -7.53777   1.1852  7746.34907   0.0001  59208.67398  52.40821   7.92794   18.7838   59234.6289 
    14.75875  1.45786   0.7871        0.3865         2756.93914  0.17833   0.0304     0.22788   9.85578     19.27243   8042.79281     -6.5986    0.674  7567.47134   0.0104  59209.61315  52.35628  11.85727  18.76435  59238.17735 
    14.80414  1.72706   0.7206       0.13523         2037.27871  0.28475  0.05552     0.31231   5.68462     17.28572   3799.31893    -6.84679  0.75881  7815.56855  0.00011  59209.36496  52.32894  16.66679  18.76439   59234.6289 
    14.83052  1.75987  0.76988         0.021         2777.47805  0.17348  0.03236     0.49122   9.81653     18.40596   5872.90619    -7.67944  0.74427  7790.72432  0.00141   59208.5323  52.38116  11.52482  18.77017   59234.6289 
    14.68788  1.93913  1.31838        0.0038         2205.21928  0.26909   0.0543     0.49029   5.77296     16.42795   9429.22855    -9.36606  1.22346  7483.60196    1e-05  59206.84569  52.29289  15.81028  18.74665   59234.6289 
    14.99625  2.00083  2.10358       1.15801         2038.45524  0.18521  0.04306     0.40478   8.18164     18.54959   5169.20321    -6.41127  0.54023  8059.28966  0.00197  59209.80047  52.39302  11.81566  18.78446  59238.17735 
    14.77489  1.69837   1.1987       0.02636          3863.1477  0.16901  0.03194     0.26378   9.83846     16.08548   5005.21505       -8.34  0.71011  7566.71796    1e-05  59207.87175  52.35603  11.23313  18.77131   59234.6289 
    14.60005  1.52802  0.85718       0.01358          3977.6308  0.21529  0.04195     0.23178   7.48871      18.4133   6476.62449    -7.74425  1.04858  7626.83003  0.00144   59208.4675  52.33632  13.45915  18.74853   59234.6289 
     14.7828  1.82692  1.74882       1.00314         2424.41646  0.14929  0.02802      0.3224  10.83193     18.86422   8748.41944    -5.73818  0.91242  7484.88757  0.00406  59210.47357  52.35558  10.12994  18.76977   59234.6289 
    14.63354  1.52008  0.73546       0.07576         2031.58095  0.15628  0.02825     0.26535  10.30835       16.098   5792.05607    -7.29975  0.95549  7593.72743    1e-05  59208.91199  52.36351  10.49224  18.77316   59234.6289 
    14.66133  1.51128  1.08503       0.01735         4626.35524  0.17969  0.03335     0.48775   8.51685     17.32538   6279.48085    -7.85737  0.74387    7324.817  0.00012  59208.35438  52.31396    11.568  18.78234  59238.17735 
     14.8102  1.77982  2.32652       0.63069         2255.51724  0.13993  0.03774     0.36976   7.92648     16.61142   6154.67015    -7.37951  0.59256   7429.4422    2e-05  59208.83223  52.31921   8.86318  18.76545   59234.6289 
     14.5416  1.45286  0.77611       0.11419         3207.10738  0.09414  0.01686     0.19729  17.70439      16.4119   7747.43593    -7.59313  1.24492  7457.12192    1e-05  59208.61862  52.39561   7.05719  18.75648   59234.6289 
    14.76905     1.72  1.64588        1.1925         2012.27738  0.12885  0.02703     0.46028  11.74397     18.95964   5880.41618    -6.44192  0.77451  7691.13481  0.00506  59209.76983  52.38661   8.89352  18.79645   59234.6289 
    14.76442  1.79063  1.09655       0.72081          2020.1399  0.11835  0.02235     0.33968  13.36361     17.41034   4903.96694    -6.75098  0.88469  7426.57025  0.00014  59209.46077  52.36781   8.39014  18.77144  59238.17735 
    14.52626   1.2893  0.89528       0.30865         2193.62106  0.07559  0.01302      0.1464  22.29604     17.49609   6496.88724    -6.66809  0.91921  7721.30835  0.00017  59209.54365  52.44475   5.91876   18.7453   59234.6289 
    14.59364  1.55488  1.40848       0.79662         2209.91668  0.22683  0.04335      0.3353    6.8617     16.70578   6008.53835    -6.13272  1.10315  7396.26589    3e-05  59210.07903  52.30078  13.89402  18.76841   59234.6289 
    14.68095  1.65507  0.81435       0.10084          3222.0389  0.15197   0.0297     0.22415   9.89709     17.62537   8085.81371    -7.25552  1.00698   7302.8483  0.00023  59208.95623  52.32576  10.11381  18.77678   59234.6289 
    14.59733  1.48186  1.19216       0.39509          2977.2277  0.16898  0.03053     0.48178  10.00664     16.87023   6093.12316    -6.59105  1.08232  7609.36282    4e-05   59209.6207  52.36251  11.27276  18.75768   59234.6289 
    14.75963  1.92465  1.07234       0.78449         2113.49553  0.17161  0.03088     0.25537  10.17483     17.25544   7235.82462    -5.98914  1.22911   7641.4659   0.0001  59210.22261  52.36774  11.48947  18.75751  59238.17735 
    14.66575  1.53008  0.77994       0.97895         2037.37779  0.14633  0.02777     0.40834  12.39857     18.04238   6778.14995    -5.57088  1.16912  8232.22483  0.00061  59210.64086  52.45057  10.21545  18.76224   59234.6289 
    14.71068   1.6459  0.87762       0.27861         2114.03553  0.10943  0.01915      0.1035  14.66631     16.85953    5185.5622    -6.31845  0.89357  7771.63171    4e-05   59209.8933  52.41542   7.90494  18.75091   59234.6289 
    14.65176  1.57018  1.00586       0.05125         4108.91055  0.14042  0.02597     0.28998  11.24599     17.36789   5401.33981    -8.54389  0.87683  7468.77418  0.00013  59207.66785  52.35717   9.60459  18.78257   59234.6289 
     14.7797  1.76401  1.20127       0.64185         2028.11174   0.1201  0.02386     0.23923  12.71685     17.51393   5372.29517    -6.42822  0.80516  7606.43579  0.00018  59209.78352  52.38418   8.42805  18.76646  59238.17735 
    14.66049  1.67565  0.88121       0.34274         2393.03724   0.2159  0.03601     0.39227   8.29274     18.45435   3875.88518    -5.94133  1.20813  7931.50343  0.00158  59210.27042  52.38047    13.816  18.76985   59234.6289 
      14.638  1.52963  1.24505       0.94677         2282.38675  0.24537   0.0449     0.40224   6.73147     19.11195    8096.2071    -5.92167  0.99113   7439.1805  0.00719  59210.29008  52.30384  14.96161  18.76161   59234.6289 
    14.78015  2.08208  1.23994       0.37898         2275.57066  0.19031  0.03286     0.28374   9.48009     19.22885   5228.61311    -6.63661  1.33508  7915.00598  0.00941  59209.57513   52.3916  12.54665  18.80101   59234.6289 
    14.73796  1.79004  0.87064       0.08606         2926.39633  0.22461   0.0425     0.24764   7.32438     17.23793   4424.68116     -7.6635  1.00586  7690.51234   0.0001  59208.54824  52.34131  13.96992  18.80135   59234.6289 
    14.54955    1.371  0.76542       0.59369         2561.77079   0.3294  0.06248     0.47561   5.38435     18.67927     9079.525    -5.82804  1.33634  7968.76367  0.00265   59210.3837  52.33994  19.02192  18.78977   59234.6289 
     15.0891  2.00949    0.741       0.55631         3019.32852  0.18956  0.03111     0.27151   10.4151     17.31317   3870.98547    -5.32504  0.58204  7745.62983  0.00011   59210.8867  52.38168  12.75494  18.77306  59238.17735 
    14.49536  1.37736  0.79511       0.34747          2061.1107   0.3493  0.05725     0.42727   4.86885     17.21649    9460.3763    -6.90427   1.2821  7497.36879    9e-05  59209.30748  52.27589  19.66233  18.76749  59238.17735 
    14.72795  1.42573  1.02321       0.97224         2027.51733  0.13596  0.02531     0.35577  11.07914     16.94001   3451.96348    -5.52329  0.63596  7252.99265    5e-05  59210.68846  52.33033   9.27006  18.78311  59238.17735 
    14.90907  1.61062  0.93526        0.8035         2357.09185  0.31384  0.05537     0.36108   5.61447     16.37555   8932.07306    -5.16358  0.57001  7914.28731    1e-05  59211.04817  52.33851  18.31338   18.7781   59234.6289 
    14.67751  1.54694  1.40637       0.47864         3053.75185  0.37811  0.07352     0.46508   4.35917     17.47687    8175.6053     -6.5512  0.91695   7774.3855  0.00017  59209.66055  52.29488  20.67969  18.77082   59234.6289 
    14.77711  1.80323  0.75567       0.06325         2393.13606  0.17445  0.03081     0.17028   9.56514     18.17924   7046.95973    -7.62424  0.85327  7416.60391  0.00084  59208.58751  52.33596  11.52359  18.75196   59234.6289 
    14.75143  1.58609  0.84463       1.25931         2178.78805  0.17226  0.02719     0.47903  10.68699     18.48345   8401.00092    -4.20149  0.92139  7803.64405  0.00169  59212.01026  52.39056  11.65523   18.7698   59234.6289 
    14.59044  1.45318  0.89824       0.12656          2839.1916  0.17647  0.03228      0.2333   8.82583     17.24122   7864.07169    -6.81085  0.94683  7439.21398   0.0001   59209.4009  52.33088  11.45184  18.75401   59234.6289 
    14.57647  1.60031  1.60339       0.78342         2207.87919  0.28589  0.05507     0.32175   5.14355     18.11211   4664.12529    -6.70038  1.15006  7209.35665  0.00072  59209.51137  52.24794  16.31978  18.77657   59234.6289 
    14.93338  1.75906  0.82414       0.72377         2010.33032  0.24388  0.04361     0.30567   6.94306     18.26291   6877.00906    -6.41697  0.58571  7491.38703  0.00102  59209.79477  52.31309  14.98025  18.78449   59234.6289 
    14.73725  1.79469  1.26674       0.56983         2016.91582  0.13527  0.02483     0.24282  12.33826     17.88581   4830.72888    -5.82856   0.9884   7999.3145  0.00043  59210.38319  52.42521   9.43333  18.79467   59234.6289 
    14.63787   1.5082  1.40531       0.54772         2677.40011  0.12884  0.02495     0.35658  11.68733     17.48067     8947.747    -6.03373   0.8961  7683.63015  0.00017  59210.17801  52.38533   8.88386  18.78208   59234.6289 
    14.79277  1.66431  0.89518       0.08523         2454.71741  0.14561  0.02421     0.21829  11.30925     16.21712   3835.14098    -7.11906  0.65882  7469.61875    1e-05  59209.09268  52.35778    9.9714  18.77566  59238.17735 
    14.68347  1.66753  0.91433       0.33514          3558.5674   0.1153  0.02093     0.12593  14.64627     16.31405   8267.54211     -5.9769  1.18298  7500.79195    1e-05  59210.23485  52.38449   8.32655  18.75559   59234.6289 
    14.64439  1.55459  2.11635        0.4261         3259.94294  0.16173  0.02845     0.28879   9.55747     16.80615   4949.21467    -7.19396  0.82426  7338.05406    4e-05  59209.01779  52.32663  10.68153  18.77412   59234.6289 
    14.55943  1.61384  1.40593       0.13656         5337.14208  0.20742  0.03638     0.26837   7.38809     16.70513   5250.20567    -7.97562  1.18175  7002.95939    3e-05  59208.23613  52.26083  12.92704  18.76419   59234.6289 
    14.79376   1.6429  0.94128       0.87733         2083.20541  0.21344  0.03725     0.45967   7.97208     17.32503    7891.1664     -5.9088  0.75259  7498.37237  0.00012  59210.30295   52.3278  13.53664  18.79879   59234.6289 
    14.85559  1.65248  0.90838       0.04621         2956.80415  0.18618  0.03362     0.37597   8.44673     18.10359   7901.57491    -6.56884  0.57854   7955.5948  0.00071  59209.64291   52.3849  11.96342  18.78512   59234.6289 
    14.81714  1.90107  1.06874       0.77254          2065.9377  0.09157  0.01814     0.18479  18.62394     18.65204   6556.74781    -5.73828  0.99872  8082.53971  0.00249  59210.47347  52.46978   6.93118   18.7905   59234.6289 
    14.93655  1.69635   0.7993       0.66579           2135.546  0.21466  0.03996     0.25564   8.18689       16.263   5844.79761    -6.83785  0.56538  7755.61491    1e-05   59209.3739  52.35973  13.69663  18.77331   59234.6289 
    14.79594  1.88225  1.48075       0.63207         2521.99504  0.14742  0.02757     0.41769  10.87987       17.418   5306.77173    -5.64211   0.9013  7756.01395  0.00015  59210.56964   52.3869  10.01253  18.76442   59234.6289 
    14.83644  1.53909  1.07416       0.63472         2188.47018  0.14214  0.02609     0.24848  11.02854      16.1592   7318.37372    -6.09939  0.53802   7435.2592    1e-05  59210.11236  52.35147    9.6823  18.76477   59234.6289 
    14.68854  1.82475  1.19237       0.18354         2946.07962  0.19599  0.03592     0.24999   7.86757     17.67492   6597.43884    -7.43211   1.0842   7271.6921  0.00026  59208.77964  52.29983  12.39243  18.77365   59234.6289 
    14.73531  2.03936  0.93841       0.22595         2031.98374  0.24565  0.03884     0.36105   6.71832     18.34969   6913.06844    -7.07793  1.38743   7344.7448  0.00124  59209.13382  52.29254  14.97169  18.73482  59238.17735 
    14.89993  1.79937  0.94699       0.35255         2302.27624  0.18212  0.03519     0.24013   9.38073     17.97482   3275.84033    -7.45169  0.65214  7731.21022  0.00052  59208.76006  52.37019  11.97878  18.76173   59234.6289 
    14.57654   1.4869  0.81201       0.82539         2055.11353  0.19167  0.02995     0.22809   9.40247     18.73766   8749.47634    -5.27187  1.38527   7606.6479  0.00304  59210.93988   52.3563  12.61379  18.77304   59234.6289 
     14.6635  1.60823  1.05869       0.19547         3854.41608  0.13806  0.02474     0.12904   11.1177     16.65084   7436.09379    -6.86516  0.92763  7212.62246    2e-05  59209.34659   52.3258   9.42026  18.78741   59234.6289 
    14.65562  1.75566  1.02309       0.30713         2244.67469  0.10868  0.02258      0.1494  15.69329     16.53891   4156.62381    -7.94639  1.45892  8063.62526    2e-05  59208.26535   52.4533   7.95699  18.76297  59238.17735 
    14.94814  1.94195  1.53181       0.47052         2558.15132  0.17263   0.0346     0.25231   9.25687     17.45188   5490.28982    -7.24346  0.59752  7644.61294  0.00016  59208.96829  52.35913   11.3218  18.77681   59234.6289 
    14.70991   1.8775  0.79146       0.32346         2012.62734  0.14199  0.02555     0.28869   9.55723     17.12474   5732.46019    -7.08228  1.02733  6658.59199    7e-05  59209.12947  52.24223   9.37775   18.7483  59238.17735 
    14.42525  1.27829  0.93606        0.1237         2852.89147  0.09664  0.01748     0.14925  17.40543     16.39324   6780.19476    -7.40672  1.37676  7773.38575    1e-05  59208.80503  52.43025   7.22045  18.78332  59238.17735 
    14.62921  1.50612  1.24978       0.75738         2383.49761  0.26772  0.04757     0.37142   6.06741     17.94921     7579.224    -5.19125   0.9953  7718.99598  0.00049  59211.02049  52.32508  15.92209  18.78916   59234.6289 
    14.74486  1.91156  1.09939       0.61824         2096.64215  0.24173  0.04787     0.43614   6.59439     18.75818   8683.88516     -6.7876  1.16642  7690.09984  0.00318  59209.42415  52.33053  14.66762  18.78552  59238.17735 
    14.79531  1.66304  0.74541       0.83144         2003.32269  0.17458  0.03142      0.2706  10.37983     17.81322   7840.97619    -5.77018  0.85446  8252.99842  0.00036  59210.44157  52.43647  11.73871    18.791  59238.17735 
    14.75478  2.13283  1.06668       0.07166         3377.30148  0.13277  0.02294     0.17074  12.79585     16.72569   6883.27799    -7.86074  1.54166  7320.89775    3e-05  59208.35101   52.3515   9.32948  18.77779  59238.17735 
    14.70663  1.82009  1.61572       0.33034         3506.73029  0.13903  0.02568      0.3012  10.56603     16.23944   7323.56995     -6.7026  1.00303  7133.72148    1e-05  59209.50915  52.31154   9.38369  18.80841   59234.6289 
    14.69851  1.76692  1.20044       0.20016         2868.55208  0.22805  0.03872     0.29834   7.29823      18.8111   9028.92483    -6.79208  0.98621  7620.43385   0.0036  59209.41967  52.33299  14.17222     18.78  59238.17735 
