 texplosion  fnickel    Pspin  log(Bfield)      Mns  thetaPB   mejecta    kappa  kappagamma     vejecta  temperature    alpha  cutoff_wavelength  log(nhhost)      A_V         MJD0  kenergy  mnickel             TSD   log(L0)  Peak_mag     Peak_MJD  log(E_rad)  log(Peak_lum)  Rise_Time     E_fold  tau_1  delta_m15     r_peak     frac 
  -18.48529  0.01088  5.05228     13.69228  1.43706  1.36629   8.33887  0.16698     0.01199  5136.43954   3945.97617  0.60797         2379.89017     19.31567  0.01149  59093.85455  1.31238  0.09075  14050624.97537  43.87165  19.21298  59184.38449    50.64128        43.6364   67.38134   74.86816   64.0    0.09383  -20.22098  0.98245 
  -14.95358  0.00611  5.42749     14.04217  1.59204  1.20451  13.16406  0.11577      0.2325  4400.01563   5103.31406  0.38396         4467.86898     18.78974  0.00342  59097.38626  1.52029  0.08038   3586093.82488  44.44698  19.23446    59182.938    50.70395         43.644   59.89452   79.85937   73.0    0.07945  -20.15513  0.98561 
  -13.17686  0.00411  5.24025     14.04798  1.56096  0.85405  31.95121  0.03897     0.01036    4654.636   3893.57476  4.62389         2058.51593     20.38074   0.1335  59099.16298  4.12939   0.1313   3191182.01085  44.51958  19.23143    59184.125    50.69946       43.64558   61.55762   80.69187   74.5    0.08338  -20.26532  0.97738 
  -17.69325  0.00111  5.29634     13.81013  1.60451  1.46023   7.17647  0.19529     0.01016  4651.84325   4717.59071  0.25907         3412.41864     16.32831    1e-05   59094.6466  0.92638  0.00794  10019531.82867  44.02539  19.23278    59184.125    50.66241       43.67315   60.70032   74.06236   61.5    0.09302  -20.23158  0.99858 
  -15.97839   0.0049  5.93787     14.38779  1.90532  0.60501  21.14352  0.07798     0.16912  4580.72619   3184.03634    0.087         2676.88798     18.65804  0.00253  59096.36145  2.64651   0.1035   1045838.79541  44.98209  19.21671    59182.938    50.65495       43.68543   63.07762   69.18946   70.0     0.0829  -20.14522  0.98316 
  -14.92601  0.00297  6.57608     14.07688  1.89129  0.67668   7.93903  0.14673     0.01014  4530.59673   4359.93215  4.42886         3146.01484     18.63166  0.00238  59097.41383  0.97209  0.02358   5330189.03799  44.18293  19.22231    59184.125    50.69738       43.65684   57.39892   77.36376   67.0    0.09047  -20.17364  0.99478 
    -19.574  0.00284  5.97251      14.0417  1.77059  0.68706   8.40941  0.14324     0.01017  4452.91679      5187.27  0.51888         3421.40235     18.53824  0.00192  59092.76584  0.99468  0.02386   4840080.93289   44.2798  19.21228    59182.938    50.82015       43.92671   53.01767   58.96977   70.0    0.08216  -20.16879  0.99526 
  -13.04131  0.00262  5.57378     14.18265   1.8639   1.3289  15.58631   0.1012     0.01128  4521.38645   3712.24197  0.02511         3890.23824     18.12244  0.00074  59099.29854   1.9007   0.0409    2318638.3952  44.68173  19.23152    59182.938    50.70116       43.64216   59.10433   80.76409   62.0     0.0896  -20.13831  0.99393 
  -13.70577  0.00113  5.66609     14.22313   1.7557  0.82924  11.69786  0.14907     0.22065  4560.33574   3948.66678  3.76037         2206.55467     17.58366  0.00021  59098.63407   1.4512  0.01323   1873134.70568  44.73416  19.24061    59182.938    50.70377       43.64474   58.98602   79.17188   71.0     0.0767  -20.12275  0.99775 
  -15.95682  0.00213  4.31551     14.01357    1.113  0.52973  12.29928   0.1198     0.18291  4907.41205   4826.21213  0.22006         2880.59783     17.77369  0.00033  59096.38302   1.7669  0.02626   1808196.67552  44.78803  19.22839    59182.938    50.69924        43.6621   55.80293   77.36376   73.0    0.08671  -20.16441  0.99481 
  -15.32676  0.00211  6.20562     14.17518  1.87202  0.84335  10.33248  0.15278     0.01003  4361.70406   4005.39771  1.67615         3067.89458     16.90711    4e-05  59097.01308  1.17258  0.02178   2987634.20648  44.48026  19.28613  59182.17188    50.68408       43.64605   57.39892   79.85937   65.0    0.07985  -20.16048  0.99591 
  -14.52736  0.07704  5.54373     13.95548  1.63692  1.33789   5.91104  0.20269     0.02229  4734.17406     3148.646  0.10631         2539.03838      20.3327  0.11952  59097.81248  0.79028   0.4554   5734511.42465  44.23677  19.21856    59182.938    50.70985       43.64782    58.9135    82.5509   66.0    0.08699   -20.2784  0.92251 
  -12.06726   0.0044  6.36946     14.27184  2.09728  1.21784  12.01194  0.15083     0.12479  4848.82231   5072.24382  1.85751         2083.13338     17.45181  0.00016  59100.27259  1.68466  0.05286   2259404.72517   44.6283   19.2553    59184.125     50.7915       43.76575   54.73434   74.51995   67.5    0.08675  -20.13196  0.99141 
  -16.33448  0.00806  5.41965     14.45037  1.74324  0.32202   8.78583  0.14648     0.01028  4247.88528   5614.66593  0.64564         3066.62587     20.42831  0.14895  59096.00536   0.9457  0.07083    597561.72257  45.26588  19.22732    59182.125    50.63691       43.64994   60.70032   74.06236   67.0    0.08359  -20.27814  0.98876 
  -15.76632  0.01019    5.485     13.98043  1.59285  1.50534    11.442  0.15694     0.01609  4957.24836   3343.55429  1.32269         2345.84436     18.14814  0.00078  59096.57352   1.6773  0.11661   4869590.45883  44.30517     19.25    59182.938    50.62148       43.61732   64.88573   76.57867   65.5    0.08181  -20.17439  0.97873 
  -14.62391  0.03854  6.42976     13.93235  1.79125  1.55705    6.0842  0.17964     0.01272  4300.44268   4379.36097   2.2044         2783.81684     17.80331  0.00035  59097.71594  0.67121  0.23451   9390080.33565  43.93294  19.20826    59184.125    50.64389       43.66712   60.58201   71.68506   66.5     0.0869  -20.13091  0.95033 
   -13.3349  0.01104  6.23311     14.20344  1.95561   1.1713  15.11137   0.0999     0.12622  4625.74481   3950.73409  0.21646          3047.4463      18.7673  0.00325  59099.00494  1.92883  0.16687   2764519.68573   44.5291  19.24732    59184.125    50.74599       43.70302   57.39892   77.36376   68.0    0.08784  -20.14807  0.97159 
   -7.38174  0.27515  6.50366     14.77942  1.77883  0.68237   15.2491  0.13371     0.01044  5918.39712   4815.48641   2.9787         3152.35738     20.44376  0.15434  59104.95811  3.18625  4.19573     192937.5631  45.60725   19.2728    59182.938    50.70218       43.68692   53.01767   74.25819   69.0    0.06615  -20.33286  0.52697 
   -15.0241   0.0048   6.6167     14.12398  1.98214   1.1159    8.3639  0.16881     0.04309  4883.54528   3077.21398  0.64679         2360.38889     18.57061  0.00207  59097.31575  1.18989  0.04013   4552704.17724  44.26643  19.22015    59182.938    50.72198       43.65811    58.9135   80.84039   72.0    0.08631  -20.18463  0.99214 
  -15.77662  0.00578  6.08816     14.08322  1.75449  0.68444   8.66272  0.14154     0.01217  4969.46833   4947.59821  2.47836         2199.77409     18.27265  0.00104  59096.56322  1.27615  0.05006   4116206.32834  44.32953  19.24895    59182.938        50.7       43.63966   58.98602   79.17188   65.0    0.08911  -20.20132  0.98972 
  -13.92274  0.02246  6.32395     14.31947  2.03491  0.81905  19.35862  0.08282     0.29339  4834.82619   4475.10842  0.04981         3788.23207     20.05933  0.06369   59098.4171  2.69938  0.43484   1735414.13329  44.73601     19.18  59186.21484    50.63531       43.63666   67.38134   74.08306   69.5    0.08565  -20.22774  0.93116 
  -15.35075  0.00435  6.86929     14.02518  2.07961  1.53934   8.26204  0.17305     0.01146  4632.94491   5187.69822  1.99323         2944.80468     17.50272  0.00018  59096.98909  1.05786  0.03594    8114555.3048  44.00374  19.23523    59182.938    50.71096         43.665   57.39892   82.35497   67.0    0.08309   -20.1919  0.99278 
  -15.15222  0.01263  5.63288     14.13684  1.73909  1.11948  20.79158  0.08028     0.18919  4597.68853   3609.46161  0.19368         2150.21537     16.13865    1e-05  59097.18763  2.62176  0.26269   2728531.06082  44.57178  19.26514    59182.938    50.73449       43.69996   54.90331   76.89734   71.0    0.08115   -20.1419  0.95713 
  -15.92041  0.00385  5.63294     14.05353  1.73324   1.1916  10.25861  0.18315      0.0115  4764.80436   4540.31324  0.15496         5178.47576     16.54851    2e-05  59096.41944  1.38933  0.03945   3991080.24862  44.40514  19.16448  59185.84762    50.64536       43.65703   67.38134   72.37255   62.5    0.08421  -20.20021  0.99321 
  -14.95374  0.09285  6.27946     13.90768  1.76434  1.26013   6.86136  0.16349     0.01124  4659.67579   5578.26948  0.04273         4033.82529     18.85209  0.00395   59097.3861  0.88869   0.6371   9883035.83922  43.92469  19.23839  59185.34242     50.6743       43.67136   62.39013   77.36376   66.5    0.09434  -20.18547  0.87716 
  -15.51045    0.006  5.70335     14.10101  1.66819   1.0141  17.71068  0.10239     0.10392  5040.57049   3271.30452  0.07256         3257.37298     17.79932  0.00035   59096.8294  2.68424  0.10618   3164410.11692  44.47854  19.28477    59182.125    50.72728       43.72122   51.28044   73.49982   70.0    0.08223  -20.15551  0.98047 
   -16.2427  0.01056  5.99037     14.06508   1.8878  1.53139   9.62289   0.1489     0.01094  4462.22144   3556.00426  0.12003         2625.98957     17.88091  0.00042  59096.09714  1.14297  0.10157   4661333.83658  44.32138  19.25488    59182.125    50.69853       43.69657   53.10749   71.63857   63.0    0.08271  -20.18681  0.98277 
  -11.70724  0.00454  6.50473     14.29164  1.70116  0.54659  12.47633   0.1187     0.04801  4513.34292   4802.62309  3.30736         3781.19932     16.67192    3e-05  59100.63261  1.51604  0.05666   1744781.80065  44.63139  19.24809  59185.34242    50.62034       43.62496   63.13838   76.61551   74.5    0.08206  -20.16784  0.98655 
  -13.60077   0.0236  5.31045     14.04264  1.64655  1.32781  14.13831  0.10443     0.42294  4769.67013   5223.91578   0.3989          2197.6069     20.25585  0.10013  59098.73907  1.91867  0.33361   3543001.70842  44.48579   19.2452  59182.32437    50.71975       43.71494    58.9135   78.34478   72.0    0.08482  -20.24775  0.94784 
   -16.7086    0.001  5.67796     13.89715  1.63919  1.09557   6.79834  0.14531     0.01086  4304.92252   4699.09122  0.31253         3174.89179     19.48854  0.01711  59095.63125  0.75155  0.00681   7880013.22021  44.07856  19.25979    59182.125    50.60985       43.60764   61.55762   78.19627   65.0    0.08971  -20.15238  0.99865 
  -14.48132  0.02397  5.64899     14.18191   1.6309  0.50197   6.96644  0.14054     0.01026  4451.02486   5372.64596  0.43042         2213.48759     19.74791  0.03109  59097.85852   0.8233  0.16698   2091002.61319  44.65698  19.26401    59182.125    50.69484       43.65411    55.6373    76.9284   65.0    0.09918  -20.18387  0.96817 
  -16.85618  0.00844   5.8166     13.96296   1.7313  1.54134  11.24511  0.14778     0.01141  4824.54247   5058.87294  0.04429         4009.77154     18.74153  0.00306  59095.48366  1.56136  0.09485   6450597.93681  44.16828  19.24845  59182.17188     50.7107        43.6851   54.90331   75.08591   65.5    0.08018  -20.19648  0.98251 
  -16.04418  0.00708  5.14361     14.13491  1.74741  0.85843  11.05984  0.12071     0.01011  4217.93224   4869.47601  0.34898         3330.46076     20.48786  0.17084  59096.29567  1.17375  0.07833   2306353.08616  44.72578  19.22886  59184.38449    50.61122       43.63978   59.96163   71.86913   66.0    0.08002  -20.29022  0.98901 
  -12.28151  0.00191  5.83597     14.05366  1.69841  1.52894  17.79294  0.09339     0.21033  4390.34224   5183.23659  1.78066         3634.74484     19.39455  0.01378  59100.05834  2.04584  0.03395   4195384.43411  44.34389   19.1946  59185.34242    50.66519       43.66331   64.88573   74.86816   74.5    0.07581  -20.16591  0.99356 
  -15.50041  0.00252  5.59483     14.19366  1.66873  0.76299  19.52783  0.07629     0.31954  4543.07933    4345.6053  0.11525          3896.5364     17.05454    6e-05  59096.83943  2.40426  0.04922   1988202.63072   44.6972  19.17413  59185.34242    50.65248       43.65868   62.39013   74.86816   70.5    0.08578  -20.13846  0.99122 
  -16.03211  0.00367  4.66792     14.23843  1.74876  0.65354   7.32889  0.18677     0.41847  4384.91421   5835.41741  0.44297         2081.07698      20.6724  0.26129  59096.30773   0.8406  0.02689   1180159.78891  45.10139  19.25924    59182.125    50.73398       43.69058    55.6373   75.21299   76.0    0.08266  -20.38089  0.99689 
  -10.59412  0.16903   6.6048       14.431  1.85289  1.03956  13.52749  0.12786     0.11923  5475.37587   4503.43945  0.88241         2365.36526     18.82002  0.00367  59101.74572   2.4192   2.2865   1031318.43435  44.88358   19.2271  59184.38449    50.64704       43.66395   64.05323   71.86913   73.0    0.08457  -20.21056  0.67571 
  -15.64607  0.00417  6.41596     14.16023  1.94707   1.2689  21.10066  0.08144     0.26643  4483.39695   3613.95616  1.50149         3210.30088     18.52908  0.00188  59096.69377   2.5301  0.08792   3558428.49949  44.39245  19.21903  59180.02837    50.70305       43.64639    58.9135   78.34478   73.0    0.07785  -20.13166  0.98374 
  -15.84578  0.01177  5.85254     13.99682  1.63805  0.71304   8.48834  0.13406     0.01014  4489.26656   3159.81474  2.74292         2841.50114     17.09488    7e-05  59096.49406  1.02047  0.09995   5286684.08809   44.2253  19.24381  59184.38449    50.72626       43.68345   57.39892   79.85937   68.0    0.08613  -20.16743  0.97897 
    -10.958  0.01128  5.98224     14.08493  1.70853  1.30204  18.83377  0.09478     0.01458  4903.61505   4240.71106  3.28372          2890.7793        18.28  0.00106  59101.38184  2.70145  0.21248   3839695.37474  44.36344  19.22721    59184.125    50.66951       43.72367   57.39892   67.38134   69.5    0.08194  -20.16687   0.9595 
   -7.56973  0.22844  6.02216     14.64541  1.87456  0.98918   14.3869  0.15703     0.07549    6937.127   3551.72111   2.6883         2410.26556     19.34792  0.01238  59104.77011  4.13004  3.28649    323147.08817  45.47284  19.25221    59182.938    50.70137       43.62137   60.70143   84.94328   74.0    0.07617  -20.28374   0.6422 
  -15.22748  0.00586  5.33594     14.03532  1.57961  1.16326  15.70792  0.10266     0.11669  4722.81809    3025.9596  0.12056          4102.2288     17.84643  0.00039  59097.11236  2.09001  0.09202   3549376.15343  44.46282  19.24085    59182.938    50.67673       43.68719   63.07762   74.18067   70.0    0.08317  -20.16958  0.98391 
  -16.60992  0.00623  5.83891     14.18614  1.85613  0.72331  13.63692  0.13069     0.01189  5108.62359   4049.97024  0.99218         2747.67574     20.39611  0.13831  59095.72992  2.12301  0.08497   2493435.59169  44.60799  19.23507    59184.125    50.65692       43.69117   61.40911   68.36236   65.0    0.07746  -20.31383  0.98581 
  -14.63605  0.00298  6.14436     14.19768  1.77019  0.74005  19.64426  0.06057     0.02363  4435.03958   5039.94786  2.34931         2075.42791      17.1538    8e-05  59097.70379  2.30493  0.05864   2497030.41601  44.54249   19.2052    59184.125    50.64194       43.64935   64.88573   72.37255   77.0    0.08522  -20.12186  0.98837 
  -14.68708  0.02824   6.7682     14.33811  1.86037  0.59351  17.14856  0.09243     0.20139   4769.2081   4978.73241  1.11611         3559.16345     17.35833  0.00013  59097.65277  2.32674   0.4843   1667757.97558  44.65536  19.21316  59184.38449    50.63927       43.64495   64.14011   73.11817   78.5    0.08154  -20.16465  0.90123 
  -13.81734  0.02992   6.3412     14.51802  1.84255  0.32151  11.61648  0.13746     0.01085  5075.69321   4966.89603  1.27102         2926.83924     17.45732  0.00016   59098.5225  1.78522  0.34762    633205.81292  45.12838   19.2126  59185.34242     50.6409       43.66766   64.05323   69.29266   63.0    0.08818  -20.24519  0.93406 
  -16.37418  0.00656  5.79835     14.15572  1.77552  0.97578  26.06317  0.05152      0.0387  4267.94709    4679.0601  0.06515         3501.37178     18.61554  0.00229  59095.96567    2.832  0.17085   2705841.94955  44.55926  19.23491    59184.125    50.67562       43.64973   58.29853   77.36376   72.0    0.08137  -20.12449  0.97078 
  -15.59181  0.00767  6.27297     13.90014  1.82186  1.19459   7.76037   0.1574     0.01231   4771.9666   5785.81098  2.58003         2821.17117      17.6317  0.00024  59096.74803  1.05415  0.05955  10543814.81985  43.91142  19.24759    59182.938    50.73608       43.68124   57.39892   77.36376   72.0    0.08465  -20.19254  0.98757 
  -13.68108  0.00942  6.26293     14.03755  1.84351  1.15137  13.20847  0.12781     0.01004  5145.78431   4630.70411  3.31199         2633.74248     17.48326  0.00017  59098.65877  2.08633  0.12441   5648282.61562  44.18902  19.22317  59184.38449    50.68295       43.68651   64.05323   75.70066   63.0    0.08382  -20.24101  0.97588 
  -13.50183  0.00362  5.99966     14.22121  1.76664  0.78633  10.00335  0.16008      0.1273  4658.33695   5401.92734  4.64736         2273.12383     18.25542    0.001  59098.83801  1.29489  0.03621   2132032.74551  44.63095  19.24284  59187.37588     50.6355       43.64753   64.88573   72.37255   76.0    0.08126  -20.12588  0.99315 
  -16.16873  0.01904  4.88349     14.15678  1.38414  0.43136   8.72849  0.14276     0.01278  4752.46663   4921.72452  0.13606         3010.21825     20.15671   0.0797  59096.17111  1.17599  0.16617   1488994.66643  44.85967  19.26293    59182.938    50.70741       43.64948    58.9135   78.34478   64.0    0.08924  -20.25668  0.96993 
  -14.15942  0.01717  6.23499     14.04366  1.80499  1.44227   8.78967  0.16696     0.04652  4865.00203   4779.65999  2.19424         2015.47868     17.28722  0.00011  59098.18043  1.24098  0.15094   5328895.56341  44.20901  19.23537  59184.38449    50.69881       43.66624   57.39892   79.85937   73.0    0.08431  -20.16713  0.97056 
  -13.46072  0.00185  5.02929     14.03341   1.5761  1.50631   8.70982  0.14606     0.03248  3597.61547   4151.08272  0.42704         5570.23107     18.20953   0.0009  59098.87912  0.67246  0.01612   3173907.72039  44.56182  19.24762    59184.125    50.71469       43.65302    58.9135   80.84039   73.5    0.08013  -20.14255  0.99747 
  -12.69683  0.01888  6.40592     14.19812  1.93913  1.07041   9.08079  0.17473     0.13081  4995.55749   4871.30419   1.6803         2001.98162     19.02807  0.00593  59099.64301  1.35182  0.17146   2967176.53591  44.47095  19.26973    59182.125    50.70417       43.65985   57.39892   77.36376   68.0    0.08986  -20.17435  0.96872 
   -13.0982  0.01091  4.98869     14.19143   1.5061  0.81577  34.46733  0.04094      0.0447  4227.81818   7342.08161  0.14955         5042.07138     18.31329  0.00114  59099.24164  3.67509  0.37617   1441399.01872  44.89194  19.22173  59185.34242    50.64824       43.64435   64.79303   77.45647   68.5     0.0854  -20.11007  0.94162 
  -13.44732  0.01893  6.82138     14.34238   2.1725  0.92915  11.96036  0.12275     0.36595  4653.76771   3318.93004  0.08356         3240.88084     18.66373  0.00256  59098.89253  1.54519  0.22637   1939773.04782  44.65031  19.21255    59184.125    50.67138       43.68684   61.40911   73.65219   69.0    0.09079  -20.13853  0.96102 
  -13.47836  0.00592  5.43029     14.07329  1.66965  1.48486  24.82147  0.07337     0.01742   4737.2496   5225.75969  1.72309         2250.84758      17.5388  0.00019  59098.86149  3.32282  0.14693   3262233.71895  44.50831  19.23398  59182.32437    50.72806       43.67863   57.31751   78.34478   72.5    0.08078  -20.14376  0.97587 
  -12.35636  0.07829  4.98411     14.33811  1.96897  1.14258  15.41182  0.08216     0.07385  4004.67068    3962.6727  0.08097         4713.49073     20.29048  0.10845  59099.98348   1.4744  1.20663    957211.75356   45.1869  19.22784  59184.38449    50.63423       43.62208   64.03629    78.2132   72.5    0.08161  -20.20026  0.88385 
