 log(Bfield)      Mns     Pspin  cutoff_power  cutoff_wavelength  fnickel    kappa  kappagamma   mejecta  log(nhhost)  temperature  texplosion  thetaPB      vejecta      A_V        MJD_0   log(KE)      M_Ni  Peak_mag    Peak_MJD 
    13.74654  1.78987   5.33645       1.47237         3878.59214  0.32748  0.14276     0.02129  12.39652     19.22791   4748.38405    -7.54789  1.03692  28820.37205  0.00939  57369.78214  53.53892  22.86047  18.77145  57403.2835 
    14.14056  1.81121   9.19315       3.14873         4670.71811    0.466  0.14731     0.02116  17.01725     20.37169   5888.44982    -5.88226  0.52772   30866.1931  0.13074  57371.44777   53.6261  34.66544  18.87071  57403.2835 
    15.06802  1.70648   8.33496       0.65998         5504.26883  0.42338  0.14002     0.02794   17.4325     16.03211   4008.54438    -4.55986  1.42388  32342.37698    1e-05  57372.77017  53.66871  31.64193   18.6117  57403.2835 
    14.26593   1.6063  14.60562       2.17857         5749.54594  0.49465  0.23701      0.0118  29.37016     16.53808   4344.88033    -7.12699  1.31768  35289.74336    2e-05  57370.20304  53.78623  40.70031  18.80751  57403.2835 
    13.49941  1.59536  29.06033       4.29043         3003.19291  0.31529  0.08645     0.01334  29.65654     18.49522   5206.30114    -5.47141  0.70294  33432.48099  0.00174  57371.85862  53.74001  25.98684  18.95013  57403.2835 
    14.46024  1.80345   6.77668       2.44172         2724.51405  0.49351  0.24594     0.02422  13.92715     20.49511   6982.51087    -6.05767  0.89931  31042.05024  0.17371  57371.27236  53.61378  35.28103  18.92756  57403.2835 
    14.34589  1.36855  14.25616       0.02056         3252.61233  0.48754  0.12274      0.0106  22.87514       17.175   6262.75307    -6.02556   0.4951  30703.17885    8e-05  57371.30447  53.64579  38.35312  18.84757  57405.2781 
    14.56212  1.78902  15.10463       2.03681          2608.0464  0.39329  0.17166     0.01779  27.42402     16.34798   4453.31889    -5.94925  1.45741  38578.67592    1e-05  57371.38078  53.85836  31.97014  19.02342  57402.5719 
    13.56857  1.63839   5.91868       1.16326         5639.36581  0.46115  0.19993     0.01837  22.90822      16.5309    3444.7613     -6.5353  0.50567  35298.55481    2e-05  57370.79473  53.76705  36.28682  18.89852  57403.2835 
    13.56999  1.69244  13.76146       4.20418         3068.23355  0.45051  0.12311     0.02635  18.34778     17.83409   3870.52615     -6.0951  0.12887  32973.85767  0.00038  57371.23493  53.68978  34.00298  19.00271  57403.2835 
    14.31261  1.70062  10.20081       2.05187         4737.62971  0.45213  0.25302      0.0593  14.42674     19.24194   4306.48321    -5.71026  1.30401  41263.52998   0.0097  57371.61977  53.86409   32.5532  19.21207  57405.2781 
    14.27864  1.81116   5.88741        1.2702         2043.98119  0.45921  0.29151     0.01939  23.37764     20.60937    4234.8883     -6.0578  0.93576  41525.53026    0.226  57371.27223  53.90978  36.26874  18.56864  57403.2835 
    15.00252  1.76004   4.84483       1.03083         5741.64267  0.43894  0.21565     0.02017  22.87494     17.35383   4184.81545    -3.48264  1.47966  38516.38105  0.00013  57373.84739  53.84271  34.52994  18.80921  57403.2835 
    14.20034   1.7764   6.59346       2.79609         4165.34294  0.37182  0.17908      0.0172   8.92382     16.90427   3895.86821    -8.16565  0.70661   20489.3687    4e-05  57369.16438  53.21195  24.18808  19.36528  57403.2835 
    14.88999  1.94789   9.63013       3.08601         5792.18378  0.37305  0.17346     0.01214  16.17662     16.96108   3291.10037    -6.05804  0.23882  25178.35629    5e-05  57371.27199  53.44489  27.47728  19.41362  57403.2835 
     13.8259  1.66858    4.9406       0.14385         5777.98293  0.43492  0.26366     0.02515   9.38013     18.24109   4216.71988    -7.61412   0.9708  29549.74662  0.00097  57369.71591  53.53479  28.60662  18.96003  57403.2835 
    14.57162  1.85274   7.13013       4.60065         4888.47115  0.33444  0.25319     0.02286   9.76084     17.12216   3179.72178    -8.34593  0.35768   22599.0506    7e-05   57368.9841  53.30565  22.19012  18.89034  57405.2781 
    14.08051  1.75972   4.15852       1.02667         2303.46549  0.36339  0.27789     0.03236   5.26178     19.05179    4276.4873    -7.73161  0.32169  26170.16137  0.00626  57369.59842  53.37026  20.86347  19.15079  57405.2781 
    14.87959  1.51987   6.05151       1.16655          3410.3138  0.38317  0.32544     0.15012   6.51189     19.05884   3267.95003    -8.10403  0.09517  37126.28239  0.00636    57369.226  53.69672  23.18045  18.81569  57403.2835 
    14.18555  1.66973  14.14464        1.5931         5525.37586  0.49705  0.14902     0.02629  14.66404     18.95862    5204.5075     -5.7627  0.50797  28740.55253  0.00505  57371.56733  53.55137  35.90512  19.15219  57403.2835 
    14.98046   1.6868  14.34743       1.57441         2571.09121  0.43897  0.15588     0.02265  20.68435     19.20998   4198.09346    -5.36483  0.80745  35572.15162  0.00901   57371.9652  53.76553  33.89313  19.20976  57403.2835 
    14.36961  2.06736   11.2651       4.84029         2839.56253  0.39386  0.15599     0.05018  13.22492     18.60103    5738.3374    -5.31226   1.0651  35956.20894  0.00222  57372.01777  53.73685   27.8623  18.84852  57403.2835 
    13.62441  1.90624   6.32047       3.14944         4023.97454  0.39424  0.15342     0.03196  17.45005     20.11721   3879.79278    -5.91839  1.32397  38102.56728  0.07277  57371.41164  53.81116  29.46993  18.75818  57403.2835 
    14.63115  1.71557  13.38698       1.46624         3127.87151  0.42878  0.13919     0.06426  12.80493     18.27453   3741.80343    -5.65572  1.22058  33073.36207  0.00105  57371.67431  53.66139  30.13247  18.91265  57405.2781 
    13.70922   1.9363   6.89685       0.66182         3654.52534  0.41161  0.14271     0.02691  15.75924     19.06981   3955.01843    -6.47048  1.37682    34392.051  0.00652  57370.85955  53.71352  30.16179  18.80637  57403.2835 
     14.6187   1.8043  25.13941       2.85324         3256.71486  0.30947  0.09564     0.01949  25.36936     16.51666   6027.38436    -6.82593  0.99945  32540.89827    2e-05   57370.5041  53.70446   24.8085  18.96618  57403.2835 
    13.14262  1.66204  25.82132       3.64312         2494.61944  0.49671  0.21755     0.01107  36.96775     19.65786    5520.3757    -6.62483  1.14012  41589.68582  0.02527   57370.7052  53.94612  42.52262  19.22333  57403.2835 
    14.49291  1.36421  19.40449       3.99034         3046.20749    0.345  0.13312     0.01038  37.49015     16.59473   4477.39924    -6.85831  0.48946  35816.32397    2e-05  57370.47172  53.81733  29.60512  19.00898  57405.2781 
    14.12362  2.10843   8.06462       3.97855         4875.37887  0.43877  0.20453     0.01322  21.54722     17.63424   5688.48549    -7.46052   0.6511  31555.10243  0.00024  57369.86951  53.66476  34.13681  18.95178  57403.2835 
    12.38016  1.63926   4.45322       2.65053         5217.93244  0.28982  0.09052     0.02413  22.84065     19.97743   6110.86985    -5.85696  1.02234  30686.08279  0.05274  57371.47307  53.64518  22.79324  18.58691  57403.2835 
     14.2612  1.60429   8.25732       3.12827         3700.02476  0.49754  0.20231     0.05172  15.73757     19.20205   5372.35512    -5.51638  0.23413  42001.74207  0.00885  57371.81365  53.88702  36.44891  18.81281  57403.2835 
    13.31191  1.47447   4.02475       0.99648         4485.93595  0.48668  0.11307     0.01322    11.489     16.21115    4783.5702    -6.61385  1.44286  22583.00745    1e-05  57370.71618  53.32019  33.43856  19.00789  57403.2835 
    13.46607  1.88101     6.459       0.69603         4150.05215  0.28561   0.0666      0.0109  25.85092      16.3966   4749.62065    -5.45007  1.19891  28112.76551    1e-05  57371.87996  53.57888  22.97305  18.76231  57403.2835 
     13.8291  1.63738   5.47451       4.94536         2258.85364  0.48594  0.25105     0.01056  34.37177      17.7201   3702.86414     -6.4251   0.8702  42803.52688  0.00029  57370.90493  53.96573  41.08891     19.03  57403.2835 
    14.00974   1.8368  25.52912       1.81591         2091.63417  0.38587  0.10225      0.0271  20.31778     18.97005   4375.36178     -6.6134  1.31274   33186.5343  0.00519  57370.71663  53.70377  29.69335  18.90878  57402.5719 
    12.65351  1.74859   10.8771       3.50403         2790.06328  0.36712  0.08996     0.02278   20.5843     18.77393   4210.99221    -7.10666  0.25803  29741.28948   0.0033  57370.22337  53.60963  28.32007  19.06564  57403.2835 
    13.89288  1.61437  16.13548       1.95609         3286.67226  0.41188  0.17096     0.01395  30.59486     18.64277   3289.54583    -6.84186  0.63328  37732.96817  0.00244  57370.48817  53.84748  34.13338  18.82439  57403.2835 
    13.87164  1.89581   5.02428       3.18747         2264.40238  0.39765  0.14594     0.02733  11.39992     18.57625    5355.8449    -6.69104  0.51375  31191.41159  0.00209  57370.63899  53.59999  27.27672  18.90524  57403.2835 
    13.93611  2.00994  19.35243       4.08855         3309.48982  0.39062  0.11868     0.03213  19.57246     16.44591    4618.4577     -5.1259  0.87683   35682.6902    2e-05  57372.20413   53.7637  29.84763  18.89579  57403.2835 
    14.29762  1.59786  10.06578       0.49677         3491.18391  0.45988  0.17294     0.01586  26.71466     19.21334   6462.65833    -5.64063  0.31932  40153.44834  0.00908   57371.6894  53.89108  37.20962  18.89943  57403.2835 
    13.74979  1.56036  10.56414       4.01855         4129.15035  0.47045   0.1532      0.0414  16.28215     16.41385   4228.84442    -5.56903   0.0688  36312.33932    1e-05    57371.761   53.7635  34.69562  18.86553  57403.2835 
    14.59887  1.13041  17.66296       3.00766         3754.03284  0.29984  0.08175     0.01458  26.01399     18.67514   5058.84125    -5.86537  1.39029  29910.90499  0.00263  57371.46466  53.63322   24.1447  18.77309  57403.2835 
    13.85825  1.26297   2.94563       2.08638         5484.91988  0.31636   0.2595     0.04216   7.57996     19.86087   4817.85158    -8.17298  0.19987  30242.48006  0.04033  57369.15705  53.53408  19.83356  18.78087  57403.2835 
    13.00973   1.8538   7.95634       1.88387         2497.20335  0.40895   0.1295     0.05109  17.75812     17.38819   4024.03271    -5.33355  0.24767   39356.2181  0.00014  57371.99648  53.84074  30.67319  18.77011  57403.2835 
    14.70206  1.57275  29.92213       0.13151         3832.02556  0.43816  0.14349      0.0117  28.88829     18.41665   3292.91505    -6.25546  0.00764  35599.85049  0.00145  57371.07457  53.79256  35.94764  18.64925  57402.5719 
    12.24957  1.59389  15.13023       4.87327         2712.29432   0.3744  0.10699     0.01837  23.74468     17.60795   5264.04501    -6.22367  1.39597  32916.06774  0.00023  57371.10636   53.7092  29.65477  18.79951  57403.2835 
    13.91367  1.67521    6.4145       2.59976           5227.559  0.29428  0.13871     0.01575  13.59884     16.26317   3957.29799    -7.15097  0.94057  24582.34563    1e-05  57370.17906  53.40902  20.93664  18.82675  57403.2835 
     13.9264   1.4784   6.66869       0.35564         3092.16063  0.34003  0.10913     0.01002  19.42381       16.494    4265.0373    -7.72954  1.41522  25077.66945    2e-05  57369.60049  53.45673   25.9446  18.93105  57403.2835 
     14.0659  1.78351   4.23201       4.99559         2640.21544  0.43295  0.29403     0.01179  16.80775     20.32704   4673.59516    -6.97502  0.56578  33359.52095  0.11797  57370.35501  53.69253  32.12927  18.80034  57403.2835 
     12.8375  1.42002   2.03043       4.92715         4323.44491  0.41464  0.30415     0.04487    8.4943     19.33993   4133.07632    -6.57228  1.31287  37582.81365  0.01215  57370.75775  53.73409  26.67792  18.72479  57403.2835 
    15.11028  1.44627  16.83413       0.13954         5772.11653  0.49554  0.16575     0.01514  22.31067     18.12169   5339.37098    -6.57562  1.52982  33292.44503  0.00074  57370.75441  53.71411  38.80368   18.9812  57403.2835 
    13.64933  1.86761  12.00695       4.89994         3868.00413  0.22398   0.0588     0.01174  33.02677     18.41931   5473.10337     -7.0127  0.74243    28085.426  0.00146  57370.31733  53.59676  18.80954  19.06969  57402.5719 
    14.39913  1.98965  11.94345       3.44145         2664.20413  0.40421  0.08067     0.02143  13.99382     17.41743     4305.283    -5.60035  1.33371  25003.30309  0.00015  57371.72968  53.42629  28.92506  18.96371  57405.2781 
    14.57826  1.59613   8.41116       2.07195         3168.54823  0.28918  0.09277     0.01033  23.22742     16.97239   4894.35571    -5.82853  0.54212  26283.87076    5e-05   57371.5015  53.51202  22.81316  18.94119  57403.2835 
    14.38331  1.52296  16.80004       0.97709         2736.18355  0.41219  0.07566     0.02128  17.31301      17.8051   8563.32691    -5.02198  0.44453  28364.11501  0.00035  57372.30805  53.55412   30.7653   19.2403  57405.2781 
    12.22668  1.65005   17.1469       3.20053         4610.30908  0.44394  0.12837     0.01363  23.12897     20.27065   3204.48415    -5.14913  1.31191  31437.09891   0.1036   57372.1809  53.66718  34.99451  18.88619  57403.2835 
    14.43037  1.53753   6.91204       0.88327         4847.37614  0.42628  0.29299     0.03243  18.72696     19.09453   6342.56359    -8.14676  0.41693   40357.2631  0.00691  57369.18327  53.86699  32.30043  18.80644  57403.2835 
    13.48237  1.80846   3.05164       0.64754         4987.28352  0.38362  0.17065     0.03006   14.1969     17.36877   4048.45623    -7.17123  0.36768  34903.44513  0.00013   57370.1588  53.71729  27.53179  18.96928  57405.2781 
    14.46991  1.90064  10.97667       1.77087         5412.17971  0.40542  0.17159      0.0671   9.95757     19.97767   4583.74693    -5.27672  1.11853   29679.5247  0.05277  57372.05331  53.54427  27.01689  18.84431  57403.2835 
     12.5404  1.47674   7.13125       1.27516          4337.8995  0.39843  0.13274     0.03072  21.10938      16.0138   6114.62727    -5.22234   1.3271  37922.35743    1e-05  57372.10769  53.82275  30.87996  18.63835  57403.2835 
    12.95831  1.96275   6.52626       4.52021         3320.23932  0.39135   0.1138     0.02329  20.61834     18.04632   3612.24489    -6.49181  0.86923  32344.10406  0.00062  57370.83822  53.68264  30.19853  18.81445  57403.2835 
     12.1715  2.03112  13.12203       0.93864         4068.33526  0.42497  0.14283     0.01214   28.0957     19.21656   5190.30045    -7.25206  1.56759  33298.49361  0.00915  57370.07797  53.73238  34.69467  18.74747  57403.2835 
    13.48399  1.46772   3.43537       1.13584         3486.63573  0.28687  0.22781     0.01957   8.46454     20.07941   4387.94063    -7.86958   1.1944  27407.63453   0.0667  57369.46045  53.45951  18.44281  19.17408  57403.2835 
    13.08897  1.28355   2.37967       3.24684         3144.18209  0.44168  0.33125     0.04469   9.47799      18.7215   4910.16047    -8.02175  0.93433  39319.57659  0.00293  57369.30828  53.78389  29.11751    18.903  57403.2835 
     12.7253  1.90203  15.31477       3.38751         3667.98882  0.47369  0.19562     0.03448  20.63148     16.20072   4012.55171    -6.24369  0.66283  40996.01489    1e-05  57371.08634  53.88858  36.55661  18.91516  57403.2835 
    14.57317  1.57717   5.62653       3.48575         2552.85502  0.33213  0.20901     0.01193  21.16054     18.47413   5203.04126     -5.5427   0.3525  31738.36496  0.00166  57371.78733  53.66832   25.7534  18.81042  57403.2835 
    13.33342  1.76477  28.42716        1.8877         2474.54922   0.4484  0.08555     0.01035   23.0947     20.19265     3570.403    -6.72525  1.52722  27216.22875  0.08657  57370.60478  53.54184  35.33615  19.06216  57405.2781 
    14.52658  1.82947  27.26709       2.25772         2299.53857  0.40407   0.0791     0.02128  18.67937     19.21349   3119.92856     -6.8348  0.38988   28339.0535  0.00908  57370.49523   53.5597  30.60274   18.8694  57403.2835 
    13.51829  2.07847    3.6798       4.59774          2209.4151  0.32599  0.26419     0.01708  10.88054     17.20062   4079.31987     -6.8587  1.40721  33248.44481    9e-05  57370.47133  53.65117  22.14111  18.83368  57403.2835 
    14.42349  1.79905   8.64809       2.61288         4287.96622  0.46946  0.32653     0.03973  17.82512     19.83293   3913.29355    -7.18456  0.80408   41741.4914  0.03781  57370.14547  53.89217  35.23753  18.79186  57403.2835 
    13.75005  1.38683   10.7647       1.59949         3005.46979  0.36174  0.08131     0.02176  19.32705     16.01335   3331.85906    -6.75025  1.04516  28762.81313    1e-05  57370.57978  53.57541  27.57488  18.96522  57403.2835 
    12.80555  1.89022  16.63979          1.98         2043.06144  0.46923  0.16488     0.05732   16.4958     17.16744   3939.44082    -5.41089  0.21259   41811.1952    8e-05  57371.91914  53.88708  34.69444  18.83823  57403.2835 
    12.52251  1.87533  23.38442       3.84575         3494.70533  0.46445   0.1439     0.04485  16.63745     19.75028   3734.48589    -5.01647  1.55781  38335.84568  0.03126  57372.31356  53.81243  34.39789  18.87505  57403.2835 
    13.84072  1.56355    6.3555       2.00446         5619.24425  0.37563  0.16803     0.03048  15.01752     18.97732   3697.28453    -5.72363  0.67712  33469.20009  0.00527   57371.6064  53.68574  27.26378  18.87594  57403.2835 
    13.64379  1.79776  10.60334       3.64932         3559.93434  0.37017  0.08696     0.01193  22.61449     17.26612   4983.75579    -5.77977  1.48888  27382.65799   0.0001  57371.55026  53.54545   29.0586  18.74368  57403.2835 
    14.49787  1.66284   8.53449       0.56223         3228.47934   0.4869  0.23602     0.02616   16.1699     16.95715   5231.29503    -4.86289  1.09691  35852.00003    5e-05  57372.46714  53.75183  35.86016  19.08796  57405.2781 
    13.81023  1.64672   7.42281       2.11637         5910.16843  0.34896  0.16795     0.02866  14.65337     18.29182   3660.19692    -7.15555  1.55684  30494.43551  0.00109  57370.17448  53.60276  25.20406  18.86802  57405.2781 
    13.92433  1.56908   5.60351       3.09409         5585.40004  0.24239  0.08377     0.01045   29.4595     17.25616   5113.20866    -5.69027  0.16494  27764.77265   0.0001  57371.63976  53.57815  19.95473  18.83217  57403.2835 
    13.19814  1.83357  24.51982        1.9643         5763.39747  0.45827  0.18747     0.05425  16.09778     16.95372    3025.7585    -5.82306  0.27532  38843.55101    5e-05  57371.50697  53.82106   33.7216  18.87881  57403.2835 
    14.45593  1.56277   7.44784       1.65634         4176.82728  0.46355  0.17606     0.02291  15.54584     20.63689   4612.06672    -6.26197  0.57675  31355.81074  0.24078  57371.06806  53.63207  33.87693  18.85049  57402.5719 
    15.04447  2.08287   7.33137        2.5845         4713.85618   0.2361  0.19095     0.05206   6.86189     16.42236   5005.32429    -7.79306  0.09893   24984.2143    1e-05  57369.53697  53.35809  14.46227  18.84141  57403.2835 
    14.65166  1.58671  25.92312       1.51903         4496.42986  0.40993  0.12706     0.01454  22.14546     19.33936    5268.0516    -6.04894  0.04332  29746.68467  0.01214  57371.28109   53.6157   32.0555  18.88018  57403.2835 
    14.60508  1.55476  10.27363       1.46418         2147.49846  0.49549  0.18024     0.04797  13.05931     17.66521   4175.33189    -4.47237  1.29642  35322.98879  0.00026  57372.85766   53.7203  34.96185  19.08114  57402.5719 
    14.30965  1.55243  20.28496       3.51446         5176.86031  0.45008  0.15344     0.02702   15.5391     18.40986    4158.2498    -6.56283  1.47142  29429.98989  0.00143   57370.7672  53.57697  32.88927  18.96178  57403.2835 
     14.8093   1.7126   6.58174       1.47345         5674.04342  0.41618  0.23731     0.01794  24.97448     17.13306   4659.36689    -6.66548  0.08701  39712.23389    8e-05  57370.66455  53.87622  33.26819  18.97152  57403.2835 
