 texplosion  fnickel    Pspin  log(Bfield)      Mns  thetaPB   mejecta    kappa  kappagamma      vejecta  temperature    alpha  cutoff_wavelength  log(nhhost)      A_V         MJD0   kenergy  mnickel            TSD   log(L0)  Peak_mag     Peak_MJD  log(E_rad)  log(Peak_lum)  Rise_Time    E_fold  tau_1  delta_m15     r_peak     frac 
   -4.67375  0.00906   0.7813     14.21952  1.29661  1.11043  11.55656   0.0448     0.09606  11814.13457   4020.90004  0.04151         5099.70418     17.56044   0.0002  57372.65628   9.62187  0.10472    26743.76429   48.1688  18.26182  57404.94902    51.27926       44.87982   10.36461  20.65326   25.0    0.58192  -21.47482   0.9997 
   -6.05618  0.04863  1.20566     14.58488  1.97291  0.84806   6.81275  0.08469     0.35129  11339.75112   3467.06376  0.06242         5847.04903     16.40656    1e-05  57371.27385   5.22585  0.33127    18014.50602  48.14588  18.27427   57403.2835     51.0887       44.60359    15.2295  22.84424   27.0    0.49799  -21.33699  0.99867 
   -5.64495  0.26912  1.13857     14.65419  1.97958  0.66252   6.56631   0.1074         0.5  14806.78215   6873.47171  0.04836         4494.43738     20.83566  0.38053  57371.68508   8.58756  1.76712    11714.43643  48.38398  18.25391  57404.94902    51.22376       44.76175   13.32581  22.62566   27.0    0.51484  -21.74406  0.99387 
   -5.89163  0.00119  1.09834     14.76137  2.03001  0.44459   5.91254  0.07385     0.02446  10833.65159   3232.65033  0.01087          5041.5656     17.18186    8e-05   57371.4384   4.13953  0.00701     6824.10704  48.66083  18.34653  57407.25248    51.20256       44.71232   11.42212  24.74793   26.5      0.537  -21.43626  0.99998 
   -6.04921  0.00136  1.45998      14.2619  1.48759  1.02279    2.0426  0.22552     0.46868  11759.37229   5205.09537  0.02187         2994.26076     17.80769  0.00036  57371.28082   1.68492  0.00277    88142.23796  47.16745   18.2588  57404.94902    51.25079          44.84   10.36461  21.99807   28.0    0.51341  -21.41203  0.99996 
    -4.8501  0.03527  1.56487     14.52788  1.49854  0.51196   4.25077  0.11285     0.49044  12531.76165   3244.29235   0.1062         3815.94577     18.50522  0.00178  57372.47993   3.98216  0.14994    29970.00256  47.57887  18.34589   57403.2835     50.9942       44.43869   17.13318  25.38223   27.0    0.54266  -21.48446  0.99776 
   -5.04521  0.00531   1.4438     14.48035  1.68965  0.76726  11.75278  0.04582         0.5  12239.61361   3129.24051  0.04996         5204.30581     18.94575   0.0049  57372.28482  10.50275  0.06239    35803.63652   47.6237  18.38435  57407.25248    50.98486       44.41144   19.03687  26.65162   26.0    0.55134  -21.46726  0.99939 
   -4.22547  0.00894  1.59453     14.44925  1.90048  1.19712    3.9722  0.13144     0.45964  11488.23335   5478.24997  0.29568         4419.24218     16.82001    4e-05  57373.10456   3.12727  0.03552    56682.71433    47.389  18.27853   57403.2835    51.21502       44.80454   10.36461  21.99807   26.0     0.5165  -21.47466  0.99965 
   -7.16042  0.48931  3.47442     14.58833  1.94857  0.47863   1.58382  0.28262      0.4993  12367.62266   9968.82368  0.18897         2585.16518     17.91527  0.00046  57370.16961   1.44513  0.77498   145424.53078  46.31416  18.27298  57404.94902    51.33853        44.9189    9.51843  22.84424   27.5    0.39914  -21.44529  0.96021 
   -5.92006  0.05692  4.28161      14.3502  1.89175  0.84795   1.79726  0.25591     0.39287  13511.46781   9299.58809  0.37546          5051.5918      20.0663  0.06472  57371.40997   1.95724  0.10231   641925.92705  45.47501   18.3302   57403.2835    51.10284       44.64876   11.42212  22.84424   27.5    0.46172  -21.52977  0.99135 
   -6.13208  0.03054  3.93267     14.10134  1.40351  1.04304   1.79938   0.2471     0.46707  11795.72196   9384.32435  0.59941         5660.35515      19.0454  0.00617  57371.19795   1.49348  0.05496  1263958.74731  45.12495  18.32741  57404.94902    51.08889        44.5837   17.13318  24.74793   29.0    0.43413  -21.42771  0.99383 
   -5.45696  0.00742  1.04069     14.65772  1.98297  0.66015  17.59338  0.03381     0.07615  12818.97408   3266.09799  0.01455         4711.08415     20.24463  0.09758  57371.87307  17.24579  0.13049     9645.89817  48.54718  18.38439  57404.94902    51.03965       44.48018   17.13318  26.65162   24.5    0.55534  -21.62355  0.99966 
   -7.01406  0.01612  3.56742     14.28573  2.06091  1.29098     1.257  0.31177     0.49996  12320.08906   9755.68394  0.03197          5157.4305     16.40541    1e-05  57370.31597   1.13813  0.02026   653329.81965  45.66306  18.36008   57403.2835    50.97684       44.45062   17.13318  24.74793   27.5    0.44034  -21.43925  0.99895 
   -7.49267  0.00137  3.83206     14.36091  1.60819  0.41123   1.14788  0.24861     0.10719  13915.95783   9379.60941  0.11818         2560.15217     18.44945  0.00156  57369.83736   1.32602  0.00157   416103.78978  45.68912  18.25896   57403.2835    51.24509       44.84897   10.36461  20.65326   26.0    0.43753  -21.45928  0.99986 
   -5.98306  0.00488  2.27336     13.90633  1.08625  1.17216   1.18571  0.32758      0.4961  12360.70531    9376.5581  0.12658         5161.56593     18.45332  0.00158  57371.34697   1.08067  0.00579   802464.72884  45.68701  18.30248   57403.2835    51.17173       44.73762   11.42212  20.94056   27.5    0.46586  -21.46201  0.99968 
   -5.70967  0.34976   4.2122     14.63992  1.97699  0.43692   1.34113  0.32391     0.26771  14311.30767   8890.17757  0.24282         2832.60766     19.52741  0.01871  57371.62036   1.63854  0.46907   170997.51484  46.08284  18.34382  57404.94902    50.93896       44.34992   19.03687   28.5553   28.0    0.47211  -21.47075  0.96507 
   -5.21476  0.00548  0.78149      14.4883  2.17193  1.36933  20.68902  0.02279       0.464  10816.87893   3513.90349  0.06611         5239.56658     19.99425  0.05482  57372.11527  14.44013   0.1134      12998.797  48.70594  18.34949  57404.94902    50.95116       44.37047   19.03687  26.65162   26.5    0.55168  -21.51051  0.99991 
   -5.15863  0.01886   1.2543     14.59145  2.04865  0.85557   17.0103  0.03004     0.22565  12162.86465   3266.43998  0.03157         4440.69857     17.10684    7e-05   57372.1714  15.01105  0.32082    19641.86404  48.09033  18.27198   57403.2835      51.218       44.79889    9.51843  20.94056   25.5    0.57392  -21.47245  0.99862 
   -3.73676  0.01137  0.75099     14.59438  1.20557  0.32568  14.00254  0.02868      0.0658  11840.18354   4371.27081  0.10428         2345.70988     16.80506    4e-05  57373.59327  11.70984  0.15917      4088.0928  48.98725   18.4226  57404.94902     50.9649       44.42967   19.03687  26.65162   26.0    0.61545  -21.47843  0.99949 
   -7.32436  0.01137  3.67309     13.95525  1.27779  1.17326   1.75121  0.28669     0.33994  13236.48918   9153.39268  0.55452         3765.33966      18.7638  0.00322  57370.00567   1.83025  0.01991  1967142.72748   44.9514  18.34022  57404.94902    51.37769       44.99074   13.32581   20.1406   30.5    0.38776  -21.36988  0.99774 
   -6.47826  0.05338  2.67304      14.0156  1.10991  0.75515   1.48107  0.31509     0.17186  13205.78192   9682.39468  0.18519         4075.17396     18.53937  0.00192  57370.85177   1.54075  0.07906   685362.74045   45.6242  18.41489   57403.2835    50.95318        44.4035   19.03687  24.74793   25.5    0.42823  -21.47186  0.99419 
   -5.07775  0.26961  2.20302     14.45192  1.68684  0.62649   4.51545  0.08319     0.49887  12066.23157   9809.76766  0.07352         3322.95816     16.06334    1e-05  57372.25228   3.92167  1.21743    94863.03585  46.83278  18.23637  57404.94902    51.35362       44.95514    9.51843  20.94056   27.0      0.483  -21.48238  0.96898 
   -7.01277  0.47878  2.64312     14.25787  1.28262  0.67245   2.42568  0.25188     0.24155  13289.36097   9561.62466  0.21466         3436.78248     16.72103    3e-05  57370.31726   2.55546  1.16137   253745.05224  46.12831  18.32691   57403.2835    51.21202       44.74339    15.2295   20.1406   26.0    0.43535  -21.43573  0.93709 
   -5.42366   0.0184  1.97399     14.75743  2.13774  0.53665   5.26361  0.10487     0.22546  12936.05152   6619.64291  0.00647         4551.18531     17.93656  0.00048  57371.90637   5.25429  0.09687    23636.77653  47.63452   18.2949   57403.2835    51.11472       44.65901   14.51488   21.4366   26.0    0.55681  -21.47193  0.99867 
   -5.72661  0.00213  1.96643     14.35648  1.76647  1.19813   1.78469  0.27245      0.1742  11537.33818    5912.6755  0.15706         5514.62607       18.879   0.0042  57371.60342    1.4171   0.0038   122836.56506  46.83927  18.33134   57403.2835    51.19085       44.76216   11.42212  20.94056   27.5    0.51693  -21.43345  0.99993 
   -4.72352  0.09215  0.73999     14.62984  2.12857  0.98971  12.22537  0.04227      0.4986  12166.59987   6508.47139  0.00094         3899.48245     16.56394    2e-05  57372.60651  10.79512   1.1266     5952.14857  49.08381  18.31763  57404.94902     51.0222       44.48693   17.13318  24.74793   26.5    0.58683  -21.43464  0.99944 
   -5.51185  0.00465  4.77785     14.26715  2.12603  1.42723   1.66494  0.19667     0.49731  12793.31345   9333.04325  0.47928          4184.9327       19.477  0.01666  57371.81818   1.62552  0.00774  1316877.28357   45.1184  18.33214  57404.94902    51.07096       44.55172    15.2295  24.74793   31.0    0.43734  -21.47857  0.99931 
   -5.26654  0.00215  5.82276     14.36018  2.16347  0.93328   1.29996  0.33583      0.4889  12910.14668   9868.42088  0.87324          4609.1054     18.05926  0.00064  57372.06349   1.29247   0.0028  1296795.48562  44.96087  18.35571   57403.2835    50.98538        44.4352   17.13318  25.38223   29.5    0.43846  -21.44942  0.99964 
   -5.10796  0.05855  2.05225     14.90578  1.82889  0.29352   4.01115  0.13555         0.5  13339.85225   3330.87146  0.14523         2574.34085     17.04997    6e-05  57372.22207   4.25792  0.23486    11038.32675  47.86367  18.35642   57403.2835    51.05126       44.55676    15.2295  22.84424   26.5    0.55865  -21.46564  0.99545 
   -4.71246  0.01341  0.93486     14.81617  1.65007  0.30135  12.15668  0.03445     0.11472  11603.35746   6585.61545  0.05015         4145.14483      16.4529    2e-05  57372.61757   9.76359  0.16303     3122.29644  49.05039  18.34749  57404.94902    51.05667       44.58952    15.2295  22.84424   26.0    0.56579  -21.50944  0.99948 
   -6.29466  0.02462  4.71479     14.40301  1.93465  0.62712   2.06584  0.17604     0.23099  13813.29918   9393.60885  0.59197         2525.68324      16.5425    2e-05  57371.03537   2.35136  0.05087   624186.67428  45.41321  18.32734  57407.25248    51.02651        44.4954   17.13318  25.38223   30.5    0.42422  -21.39878  0.99491 
   -5.28154  0.00554  2.31192     14.16402  1.13232  0.56982   3.40574  0.10938     0.24154  11361.93466   9938.93423  0.36403         3415.44075     18.63071  0.00237  57372.04849   2.62267  0.01888   264055.69699  46.17317  18.31776   57403.2835     51.0933       44.59069    15.2295  22.84424   28.0    0.43875   -21.4235  0.99899 
   -5.15337    0.057  0.75327     14.59589  2.16454  1.46621  25.03883  0.02299     0.22053  12588.20849   3186.47998  0.02407         4254.28253     16.89347    4e-05  57372.17666   23.6684  1.42731      7333.2227  48.98501  18.35956   57403.2835    50.94435       44.38402   19.03687  24.74793   26.0    0.56931  -21.45911  0.99937 
   -5.13191  0.08353  0.70551     14.62019  1.96534  0.80365   8.87664  0.05928     0.48724  11969.09208   5646.49236  0.01266         5365.03468     16.38901    1e-05  57372.19812   7.58574  0.74143     5222.52455  49.14739  18.30868  57402.64555    51.02436       44.53608   11.42212  22.84424   25.0    0.55298   -21.5028  0.99958 
   -6.06161   0.0174  3.89306     14.20899   1.8008  1.14633   1.75285  0.19619     0.49652  13982.18066   9221.22832  0.08736         2319.56389     18.43219   0.0015  57371.26842    2.0442   0.0305    968006.3642  45.35785  18.30183   57403.2835    51.15122       44.70818   11.42212  22.84424   29.0    0.46639  -21.43604  0.99769 
   -5.90344  0.04955  4.43784     14.10583   1.5921  1.26487   1.40738  0.28389     0.39267  14780.42026   8608.27958  0.54637         3879.64824     19.60027  0.02213  57371.42659   1.83405  0.06974  1788401.48868  44.92401  18.27035  57404.94902    51.29135       44.89698   10.36461  20.65326   31.0     0.4882  -21.43956  0.99174 
   -4.37919  0.31574  1.55864     14.41549  1.58071  1.20029   4.24117  0.15122     0.44082  14277.80767   5072.36072  0.21152         3610.47296     16.35514    1e-05  57372.95084   5.15746  1.33909    52622.02515  47.36104  18.31561  57404.94902    51.11389       44.60043    15.2295  22.84424   26.5    0.51898  -21.43542  0.98443 
   -4.78197  0.01299  0.98563     14.49884  2.16026  1.51907  12.24756  0.03931     0.48872  10945.49305    5948.6322  0.17264         3742.05642     16.84918    4e-05  57372.54806   8.75281  0.15908    19591.99822  48.32384  18.37597   57403.2835    50.96629       44.41559   17.13318  26.65162   26.0    0.54251  -21.46074  0.99972 
   -5.21345  0.00134  1.58492     14.46136  2.15992   1.3272  12.96683   0.0332     0.47971  10350.48787    3035.2222  0.24001         4754.00108     19.20743  0.00896  57372.11658   8.28672  0.01739    60192.38883  47.42372  18.40841  57404.94902    51.02394       44.52857   13.32581  24.74793   28.0    0.51587    -21.483  0.99986 
   -5.39276  0.01814  3.99308     14.30179  1.50446   0.5319     1.369  0.26612         0.5  14125.81108   9971.46449  0.44194         3747.15873     18.61846  0.00231  57371.93727   1.62951  0.02484   554912.41198  45.49938  18.30866   57403.2835    51.12246       44.66984    9.51843  22.84424   28.5      0.451  -21.45946  0.99739 
   -4.80915  0.01183  1.68518     14.49944  1.28764   0.3472   3.68909   0.0889     0.35075  10854.26515   9403.15467   0.2437          3585.2554     17.90185  0.00044  57372.52088   2.59267  0.04363    34041.89457  47.39334  18.26049  57404.94902    51.27342        44.8601    7.61475  22.84424   27.5    0.50985  -21.45645    0.999 
   -5.88099  0.23173  2.71463       14.424  1.71377  0.86028   1.65729  0.32572     0.49999  13506.56707   4466.81678  0.07558         5124.20175     18.86176  0.00404  57371.44904    1.8035  0.38404   166412.05814  46.41419  18.21245   57403.2835    51.31798       44.92838   10.36461  20.09438   28.5    0.52294  -21.41482  0.98523 
   -4.85269     0.32  2.48153     14.39028  1.75428  0.79814   2.80189  0.13168     0.47754   11741.1679   9654.26983  0.18286         4025.91331     16.83306    4e-05  57372.47734   2.30409   0.8966   166258.97706  46.50272   18.2518  57404.94902    51.36121       44.97951    9.51843  20.94056   27.0    0.49377  -21.47563  0.97245 
   -5.44039  0.00875  3.02524     14.32432  1.69527  1.19597   1.95882  0.32638         0.5  14924.57362   5415.26028  0.37526          2005.3633      16.6227    2e-05  57371.88964   2.60271  0.01714   323540.60448  46.02664  18.33068   57403.2835    51.01704       44.47841   17.13318  24.74793   26.5    0.51347  -21.42405  0.99915 
   -7.73926  0.02351  4.50283     14.27738  1.88964  1.12261    1.7182  0.33697         0.5  12862.95002    9400.4348  0.31467         5961.87622     17.15615    8e-05  57369.59077   1.69583   0.0404   991772.38963  45.24184  18.31504  57404.94902    51.18023       44.72541   13.32581  20.94056   27.5    0.43135  -21.42044  0.99619 
   -4.67383  0.13754  2.04615     14.55637  2.01325  0.99666   4.90206  0.12696     0.47404  14064.42019   5995.26239  0.06465         3027.63376     17.02386    6e-05   57372.6562   5.78428  0.67422    60373.58415  47.17002  18.26376  57404.94902    51.33079       44.94201   10.36461  20.09438   26.0    0.57343  -21.45693  0.98938 
   -6.19123  0.09749   5.2837     14.32565  1.90582  0.96621   1.67018  0.29083     0.49182  12170.39517   9754.79807  0.66746         5986.31026     17.55904   0.0002   57371.1388    1.4757  0.16283  1102758.44103  45.06057  18.34664  57404.94902    51.13941       44.67643   13.32581  22.84424   28.5    0.42922   -21.4301  0.97942 
   -4.84551  0.02037  1.71754     14.44508  2.00588  1.36005    5.7118  0.09585     0.42303  12329.08797   6181.02176  0.06091         3468.52956     19.37603  0.01321  57372.48452   5.17919  0.11637    70756.40597  47.25157  18.33245   57403.2835    51.03907        44.5346    15.2295  22.84424   26.5    0.52397  -21.43275  0.99873 
   -5.08092  0.05735  1.13814     14.30034   1.5887  1.19922   4.49037  0.10956     0.47541  11891.07692   4742.12543  0.04157         2831.61531     18.62913  0.00237  57372.24911   3.78749  0.25752     47926.0839  47.67692  18.37322  57404.94902    51.08164       44.53434   19.03687  24.74793   26.5    0.51951  -21.48552  0.99844 
   -3.74812  0.05818   1.5345     14.42451  1.47539   0.7513    3.4176  0.16906     0.49788  12980.99962   4793.93198  0.46352          2972.3936     17.59236  0.00022  57373.58191    3.4353  0.19883     45670.4219  47.40619  18.29114  57404.94902    51.30941       44.91647   10.36461  20.09438   26.0     0.5164   -21.4948  0.99718 
   -5.26834  0.07148  1.33867     14.45818  2.02099  1.55876   6.59206  0.07858     0.47991  12246.75788   6390.03723  0.03529         5077.25204      17.6407  0.00024  57372.06169    5.8978  0.47122    40771.76749  47.71071  18.23267   57403.2835    51.42789       45.05493    9.51843   19.8454   26.0     0.5648    -21.466  0.99745 
   -5.34795  0.19545  3.86253     14.48965  2.05148  0.70765   2.16312  0.18672     0.47183  13448.05313   9239.74024  0.22947         2960.76006      16.7895    3e-05  57371.98208    2.3336  0.42279    298071.3223  45.93285  18.38621  57404.94902    51.02155       44.46039    15.2295  27.28592   27.5    0.47098  -21.47319  0.97477 
   -4.98897  0.43421  1.06437     14.61044  1.94163  0.92069   2.79944  0.21343     0.29622  12201.85069   5148.00198  0.14759         3894.88608     16.78499    3e-05  57372.34106   2.48628  1.21556    12282.26682  48.41355  18.35226  57404.94902    51.32067       44.90736   10.36461  20.65326   26.0    0.50104  -21.50418  0.99724 
   -4.83549  0.04015  0.75554     14.52473  1.74011  1.08923  30.44529   0.0207         0.5  12417.97445   3138.44663  0.11997         5552.29706     16.02955    1e-05  57372.49454  28.00585  1.22232     8230.73895  48.83747  18.38137  57404.94902    50.99119       44.41049   20.94056  26.65162   26.0    0.52271  -21.38355  0.99906 
   -4.74135  0.00131  4.32053      14.2144  1.82242  1.42281   1.91639  0.28672     0.49667  14169.99687   9421.35255   1.0517         3114.86645     19.42785  0.01488  57372.58868   2.29536  0.00251  1176872.96879  45.18769  18.29246  57404.94902    51.35361       44.97721    8.46093  20.65326   26.5    0.45991   -21.4947  0.99977 
   -3.77459  0.30071  1.25884     14.54969  1.84759  1.31737   4.58584  0.15607     0.36321  14253.89678   4549.22451  0.13943         5435.38202     18.73439  0.00301  57373.55544   5.55794  1.37901    21626.79218  48.00052  18.31908   57403.2835    51.10529       44.60825    15.2295  22.84424   26.0    0.52213  -21.43329  0.99474 
   -4.36804  0.00561  1.09214     14.59736  2.13958  0.81399   9.95758  0.04189     0.40377  11337.19049   6489.66585  0.17872          2272.4895     16.51947    2e-05  57372.96199    7.6347  0.05591    15134.84833  48.34264  18.30807  57404.94902    51.13466       44.63202   14.51488  23.55886   26.5    0.53004   -21.4675  0.99984 
   -3.90848  0.28485  0.88453     14.44462  1.48617  1.24725   7.14857  0.09612     0.45377  14583.14569   6546.55242  0.08273         4599.60049     16.25673    1e-05  57373.42155   9.06877  2.03625    13933.42933  48.40343  18.25418   57403.2835    51.14116       44.70109   14.51488  19.75149   27.0    0.50527  -21.37472  0.99643 
