 texplosion  fnickel    Pspin  log(Bfield)      Mns  thetaPB   mejecta    kappa  kappagamma     vejecta  temperature    alpha  cutoff_wavelength  log(nhhost)      A_V         MJD0   kenergy  mnickel            TSD   log(L0)  Peak_mag     Peak_MJD  log(E_rad)  log(Peak_lum)  Rise_Time    E_fold  tau_1  delta_m15     r_peak     frac 
  -19.53817  0.16222  1.61269     13.96734  1.54094  0.98693   25.9612  0.13144      0.0175  6427.74834    8283.5193  3.03031         2894.82456     17.76116  0.00032  59170.83317   6.39837  4.21134   432531.50687  46.40551   19.3004  59255.40916    51.33299       44.32299   49.52303  86.12701   75.5     0.0548  -21.61961  0.93559 
  -13.99661  0.00282  1.18368     13.92951    1.638  1.47824  25.70713  0.20981     0.43551  9041.49372   8122.02475  4.76827         2134.14713     17.65269  0.00025  59176.37473  12.53606  0.07253    294829.3659  46.86712  19.26333  59257.41327    51.32693       44.29889   50.15948  88.28018   62.5    0.06076   -21.7781  0.99942 
  -27.30944  0.08517  2.40907     13.94761   1.5229  0.55213  12.59962  0.16871     0.02197   5453.3046    9189.5033  3.05735           3341.786     18.93027  0.00473   59163.0619   2.23514  1.07312  1044608.84865  45.66886  19.29569  59256.27512    51.33958       44.33511   45.42217  83.13467   75.0    0.06296  -21.63132   0.9607 
  -27.45446  0.07758  1.30106     13.97136  1.83529  1.06829  29.55141  0.11953     0.01696  7058.97598   5793.73877  0.35412         3647.15772     20.47717  0.16668  59162.91688   8.78393  2.29256    329153.4206  46.78656  19.22499  59258.33213    51.42428        44.4146   46.23764   85.2868   71.5    0.06148  -21.74313  0.98164 
  -18.39944  0.12001  1.87363     13.91548  1.73627  1.49574  18.04423   0.1938     0.04967  7547.41532   9643.84214  3.72839         2552.22328     19.13138  0.00752   59171.9719   6.13143  2.16542   835300.63563  46.04125  19.26879  59258.33213      51.327        44.3145   46.40756  83.97383   61.0    0.06414  -21.72196  0.96145 
   -35.4123  0.02834  2.66024     13.75971  1.89132  0.96909  11.36214  0.26138     0.01524  6175.14285   9707.59385  3.66947         3049.21107     19.41483  0.01444  59154.95904   2.58453  0.32196  3758443.38702  45.12076  19.21982  59261.37413    51.38562       44.36156   55.98255  86.12701   64.5    0.06744  -21.70065  0.98912 
  -19.90928  0.01703   2.4123     14.07188  2.19562  1.08537  24.62667  0.15484     0.01251   5925.4166   9441.25685  4.23975         3335.12007     17.56632   0.0002  59170.46206   5.15787  0.41936   852060.18448  45.91507  19.26154   59256.2117    51.38267       44.40254   45.29537  79.58879   74.0    0.05245  -21.67135    0.991 
  -22.51665  0.01748  1.13638     13.98116  1.82752   1.4434   22.6553  0.24073     0.05646   7548.2846   9725.15072  0.95463         2696.22012     16.05892    1e-05   59167.8547   7.70005   0.3961   238998.91761  47.04127  19.29585  59260.19158    51.32322       44.29464   53.82938  88.28018   63.5    0.05458  -21.63072  0.99756 
  -32.08819  0.02861  2.86308     13.60562  1.88581  1.54172  13.22526  0.12168     0.01203  6049.70256     9561.016  3.24577         2724.79156     16.67244    3e-05  59158.28315   2.88735  0.37836  8825478.99358  44.68494  19.25574  59257.41327    51.32394       44.30719   45.21668  88.28018   65.5    0.07258  -21.65982  0.98479 
   -8.62564  0.00435  1.22141     14.29032  2.01661  0.70523  44.25321  0.14645     0.09391  8277.56798   8463.20155  3.65437         3165.27363     17.67719  0.00026  59181.74571  18.08746  0.19231    73371.82629  47.53422  19.24022  59256.27512    51.33442       44.33241   50.19684  79.66748   74.5    0.05764  -21.72513  0.99883 
  -23.46645  0.02836  1.79183     13.97915  1.95972  1.50787  20.73627  0.18239     0.05176  6934.02129   9624.51668  2.09793         2662.52102     17.76127  0.00032  59166.90489   5.94741  0.58818   643146.42554  46.24613  19.25706  59260.19158    51.37282       44.37399   50.27402  81.82066   62.0    0.05782  -21.63255  0.99178 
  -11.84299  0.08788  1.53032     14.12151  1.77861  0.87915  35.10698  0.10967     0.01916  6508.62695   9537.73257  3.53829         3304.13805     20.05909  0.06365  59178.52836   8.87155  3.08528   221021.38016  46.80493  19.24729  59257.41327    51.43005       44.45316   66.74843   68.9016   74.0    0.05165  -21.70826  0.96486 
  -17.67516  0.00931  1.34241     14.00065  1.83767  1.37107  24.07309  0.17736      0.1731  7454.61922   8942.52093  1.80695          2543.2252     17.71549  0.00029  59172.69618   7.98013  0.22423   306587.37461  46.79079  19.24238  59261.22815    51.40583       44.35767   45.36072    99.653   62.0     0.0611  -21.68576  0.99807 
  -24.85851  0.03442  0.73028     13.90296  1.54617  1.42277   16.1748  0.33874     0.19921  7975.10349   8474.72025  0.16357         2145.02112     18.64071  0.00243  59165.51283   6.13675  0.55681    119705.9782  47.65301    19.292  59257.41327    51.37945       44.36997   47.36985  86.12701   63.5    0.06355  -21.54033  0.99827 
  -33.16485  0.00256  2.57386     13.91216  1.86273  0.71535  10.89108  0.33129     0.01889  6441.80913   9061.34341  4.62846         3081.80481     17.42126  0.00015  59157.20649   2.69596  0.02787  1717190.84188  45.48301   19.2236  59261.37413    51.39128       44.38506   56.16331  81.82066   67.5    0.06407  -21.68118   0.9991 
  -15.58455  0.07226  1.13616     14.05251  1.78177   1.1783  26.66543  0.19571      0.0249  6760.10776     8483.681  2.26132         3305.35833      16.8503    4e-05  59174.78679   7.26914   1.9268   167697.51252  47.18429  19.21722  59263.27641    51.44537       44.39623   46.04636  96.81419   77.0    0.04588   -21.6423  0.98788 
  -14.53854  0.00181  1.35312       14.136  1.78899  0.75118  31.90578  0.14584     0.04293  6886.59924   7354.96442  2.49966         3044.36766     17.37661  0.00013   59175.8328   9.02622  0.05783    162594.8879  47.04767  19.30826  59258.33213    51.36843       44.36445   49.52303  81.82066   77.0    0.05423  -21.67376  0.99947 
  -10.29409  0.00351  1.05681     14.17119  1.65833  0.67859  31.21804  0.15676     0.03046  6359.98097    6259.2578  2.85593         3433.47054     16.27772    1e-05  59180.07725   7.53259  0.10963    78182.86778  47.54741  19.20106  59258.33213    51.36552       44.38031   58.13573  75.36113   83.0    0.05112  -21.65278  0.99933 
  -20.20536  0.02049  1.64629     13.94887  1.96649  1.37205  28.60855  0.11111     0.01317  6022.50493   6772.04021  3.85947         2542.33001     20.42712  0.14854  59170.16598   6.18981  0.58623   626287.38773  46.33275   19.2685  59255.40916    51.44215       44.46221   42.78683  79.94416   78.0    0.05268   -21.7655  0.99311 
  -23.51996  0.01014  1.13693     14.05058  1.86372  0.94123  21.70111  0.23489     0.06063  7260.09122   9265.45855  2.89052         2267.04118     20.22472  0.09321  59166.85138   6.82328  0.22005   177213.82285  47.17926  19.22359  59256.27512    51.30925       44.30383   65.71171  76.39785   65.0    0.04927  -21.67626  0.99867 
   -27.4172  0.06469  2.16915     13.77259  1.60791  1.11773   8.77857  0.33129     0.03295  6127.26259   8118.17875   3.5471          2756.6924     18.10471  0.00071  59162.95414     1.966  0.56792  2002091.44561  45.50105  19.29073   59256.2117    51.35627       44.34734   38.96264  88.07469   72.5    0.05614  -21.62074  0.98422 
  -15.65786  0.01225  1.66523     14.08251  1.75971  0.77495  17.06152  0.29893     0.05794  7843.02271   8565.16109  3.73435         3091.11821     16.46513    2e-05  59174.71348   6.26054  0.20897    309879.4597  46.58014  19.25925  59258.33213    51.34407       44.32953   56.16331  83.97383   73.0    0.05547  -21.75168  0.99702 
  -10.58642  0.03667  1.50133     14.17071  2.05838  0.97766  13.89705   0.2974     0.31352  7337.83722   9576.23953  3.75178         2669.89608     19.65135  0.02489  59179.78493   4.46361  0.50959    196277.7247  46.93655  19.29249  59254.25373    51.32703       44.31627   58.13573  81.82066   62.5    0.05819  -21.68903  0.99539 
  -25.64336  0.00263  0.78643        13.78  1.32036  1.29986  18.58491  0.31783     0.11563  8089.39697   8742.53783  0.31758         2557.08977     17.29847  0.00011  59164.72799   7.25471  0.04891   208847.72643  47.27839  19.25699  59260.19158     51.3577       44.36183   44.28706  81.82066   65.0     0.0594  -21.56641  0.99977 
  -24.34214  0.01666  2.03682     13.83082  1.67709  1.52398  22.66973  0.15514     0.01237  5770.61049   8321.48064  4.83517         3459.86683     19.76328  0.03221   59166.0292   4.50316  0.37757  1408116.20975  45.72686  19.26145  59261.37413    51.37648       44.35163   45.21668  90.43336   77.5    0.05526  -21.70182  0.99132 
  -11.34745  0.00163  1.37282     14.24773  2.09814  0.77451   20.6735  0.30089      0.1324  8131.00754   9825.89375  3.73565         2963.50954     18.15727   0.0008  59179.02389   8.15323  0.03376   117334.52719  47.24603  19.24304  59263.21326    51.38509       44.36996   46.09598  88.07469   66.5    0.05427  -21.73621  0.99975 
   -28.4718  0.04374  1.56974     13.70144  1.42262   1.3305  14.03218  0.30504      0.0336  6943.32222   9148.65428  2.86373         2359.72379     18.54714  0.00196  59161.89954    4.0354  0.61374  1287289.85278  45.92061  19.27647  59252.54009    51.28675       44.28879   38.75715  83.97383   65.0    0.05308  -21.62897  0.98932 
  -28.92601  0.01748  2.26953     13.84881  1.86408  1.29116  16.74628  0.18427     0.01923  6422.56257   8559.28143  2.25526         2729.76611     16.85399    4e-05  59161.44533   4.12062  0.29274  1788662.01666  45.57491  19.25581  59260.19158    51.36391       44.36005    68.9016  75.36113   66.0    0.05891  -21.62207  0.99283 
  -10.30857  0.00253  0.97362     14.02428  1.73632  1.56815  15.02128  0.28564     0.12184  5647.83213   6649.79509   2.5918         3523.66682     18.12565  0.00074  59180.06277   2.85823  0.03804   136663.85545  47.39605  19.22846  59258.33213    51.36606        44.3592   48.32633  83.76834   82.0    0.05109  -21.58801  0.99982 
  -13.63725  0.01573  0.84048     13.89634  1.48727  1.36092   48.9998  0.13013     0.39852  8886.32865   9168.06939  2.27783         2686.24454     19.95282  0.04984  59176.73409  23.08162  0.77077   157245.53354  47.39561  19.23085  59260.19158     51.3613       44.36949   46.42423  83.97383   64.0    0.05522  -21.81454  0.99655 
   -8.28243  0.04384  0.91326     14.05098  1.68863  1.33171  42.27572  0.11371     0.01799   6525.7874    6646.3376  2.64813         3417.89766     16.86555    4e-05  59182.08892   10.7395  1.85346   103415.29217   47.5606  19.24397  59260.19158    51.38648       44.38143   47.57534  83.13467   84.0    0.05545   -21.6188  0.99222 
  -20.17482  0.02464  0.97501     13.76863  1.32047  1.45036  30.44153  0.16504     0.05245  7889.50963   9667.93618  2.37698         2137.69681     18.38621  0.00135  59170.19652    11.303  0.75013   338294.50845  46.88227  19.28559  59258.33213    51.36983       44.34598   50.27402  88.28018   58.0     0.0568  -21.73403  0.99444 
  -34.99066  0.00376  1.70351     13.69347  1.46176  1.19819  12.47918  0.29086      0.0343  6159.20151   8888.09702  1.22316          3025.9689     17.03254    6e-05  59155.38068   2.82398   0.0469  1616000.04836  45.76259  19.25359  59260.25046    51.34594       44.27722   55.03693  96.89288   69.0     0.0525  -21.56366  0.99906 
  -25.98035  0.00234  1.48356     13.73404  1.38618  1.26282  17.26046  0.22597     0.04594  7804.87274   7871.65718  2.88562         2041.33765     18.89241  0.00434    59164.391   6.27207  0.04035   964221.80432  46.08388  19.24527  59260.19158    51.36807       44.35792   56.05098  81.82066   65.0    0.06537  -21.68091  0.99934 
  -15.00112  0.00903  1.88538     13.90504  1.67578  1.40514  20.20865  0.19131     0.02862  6385.53434   8673.51958  4.38642         3325.38328     16.67962    3e-05  59175.37022    4.9154  0.18256   856555.68986  46.00951  19.26415  59258.33213    51.36325       44.33072   60.22604  86.37063   74.5    0.05545   -21.6473   0.9964 
  -17.73973  0.02055  2.14895     14.00113  2.03589  1.24191  13.66327   0.2855       0.066  7339.93517   9657.73365  4.18313         2989.42499     20.13313  0.07548  59172.63161   4.39103  0.28082   868493.14159  45.97438  19.26099  59260.25046    51.39409       44.39451   43.73731  81.82066   65.5     0.0594  -21.78455  0.99463 
  -22.55649  0.08826  1.16205     14.11545  1.92491  0.81287  14.72581  0.29994     0.08122  7228.87567   9345.16879  2.29347         2229.13064     20.37197  0.13083  59167.81485   4.59037  1.29973   141829.37047  47.27104  19.25896  59258.33213    51.36741       44.38562   51.74463   77.5143   62.0    0.05325  -21.76208  0.99225 
  -34.37356  0.17253  2.21398     13.80769  1.87916   1.3201  13.19528  0.21622     0.02489  6807.24552   8736.41081  1.36294         2127.79633     19.85918  0.04017  59155.99778   3.64744  2.27664  2073715.57096  45.53571  19.29582  59254.25373    51.25753       44.23116   50.70146  89.25492   62.0    0.06208  -21.70727  0.94972 
  -11.20948  0.01438  0.89561     13.97665  1.63436  1.54494  29.03104  0.18853     0.04799  7668.06741   7483.65152  1.80158         3206.84253     17.26484   0.0001  59179.16186  10.18267  0.41746   135547.23312  47.44587  19.22839  59258.33213    51.42899       44.43764   49.78248  79.58879   74.5    0.05677  -21.70362  0.99818 
  -25.01236  0.29249  1.96471     14.05983  1.79498  0.78855  21.78433  0.15559     0.01557  6581.27392   9773.40909  1.67732          2709.9964     19.13682  0.00761  59165.35899   5.62848  6.37176   488438.77598   46.2475  19.23525  59252.54009    51.27023       44.29078   53.52845   74.1827   62.0    0.05284  -21.66761     0.89 
  -12.25977  0.00122  1.10842     13.88689  1.57179  1.55671  20.56611  0.32151     0.07858  9696.57777   8460.15251  4.37782         2516.22552      19.8258   0.0372  59178.11157  11.53496  0.02513   301883.31364  46.89599  19.22777  59258.33213    51.45433       44.47212   43.97214  80.98045   65.5    0.05864  -21.85817  0.99981 
  -14.86541  0.01827  1.31957     14.06469  1.86576  1.12717  34.63668  0.13608     0.02765  7093.00193   9260.96009   1.9447         3259.59626     18.15248  0.00079  59175.50593  10.39498  0.63285   223954.37269  46.94867  19.27485  59258.33213    51.31959       44.29951   58.20416  83.97383   66.5    0.05645  -21.68741  0.99489 
  -17.75106  0.00764  1.02568     14.02741  1.70363   1.0114  25.61494  0.23233     0.34748  7651.46609   8576.85421  2.36536         2799.14469     16.13373    1e-05  59172.62029   8.94561  0.19565   146686.12596   47.3118  19.21456  59258.33213    51.30756       44.29259   60.86583  81.31216   71.5    0.05118  -21.70896  0.99891 
  -11.15534  0.01153  0.98465     14.15728  1.76937  0.82855  20.80621  0.25476     0.12884  7636.05294   6486.98054  2.20192         2929.38885     18.02319  0.00059    59179.216   7.23699  0.23994    77204.84989  47.64246  19.25461  59263.21326    51.35218       44.31331   54.50319  90.43336   76.5    0.05247  -21.68261  0.99887 
   -9.63156   0.0198   0.8315     14.07358  1.84954  1.40318  21.29946  0.30638     0.38383  7383.35969   9099.59666  3.45946         2980.35922     16.16016    1e-05  59180.73978   6.92634  0.42165    84613.17828  47.76874  19.21536  59261.22815    51.37884       44.36886   48.04366  86.12701   75.5    0.05157  -21.66116  0.99875 
  -24.94808  0.00929  1.77691     13.95985  1.86777  1.08651  16.14048  0.29412     0.03326  7017.01497    7094.8705  3.26785         2719.64344     18.63008  0.00237  59165.42326   4.74076  0.14994   658821.73936  46.22207  19.26134  59255.43611    51.28729       44.25795   54.00021  87.16372   77.0    0.05179  -21.64994  0.99777 
  -13.45471   0.0419  1.74714     14.11721  1.94752  1.02816  14.30783  0.23891     0.05493  5368.74698    4901.5846  3.26808         3514.85482     18.28913  0.00108  59176.91663   2.46007  0.59943   321767.01214  46.56613  19.26254  59257.41327    51.35899       44.36157   51.74463  79.66748   82.0     0.0505  -21.57657  0.99199 
  -14.34074  0.00135  1.61119     14.00386  1.80053  1.15292  22.61412  0.16209     0.01876  5052.28196   9072.11809  3.93125         3378.54261     16.89204    4e-05   59176.0306   3.44336  0.03059   426380.69499  46.48015  19.24661  59258.33213    51.32009       44.29766   59.33537  82.84262   79.5    0.04633  -21.57015  0.99961 
   -28.4381  0.01822  1.43378     14.03247   1.4365  0.41907  23.07824  0.14525     0.01892  6864.24175   4882.49253  3.77677         2075.36542     20.51226  0.18071  59161.93324   6.48657  0.42057   236129.31104  46.74003  19.25886  59257.41327    51.36554       44.35602   53.89781  81.82066   76.0     0.0577  -21.82001  0.99395 
  -26.16986  0.05876  1.90209     13.70561  1.35818  1.01863  15.40835  0.21516     0.03155  6909.58789   4911.50119  4.55864         2589.66217     17.27617   0.0001  59164.20148   4.38821  0.90538  1770195.68519  45.59532  19.26212  59258.33213     51.3533       44.31773   46.42423  92.58653   76.0    0.05868  -21.66337  0.97536 
  -13.09122  0.04061  1.45984      14.0366  1.99607  1.44325  22.72108  0.29313     0.04131  8267.30856    9391.5775  4.97466         2914.63537     19.66646  0.02577  59177.28012    9.2637  0.92266   333731.91349  46.71701  19.27237  59254.25373    51.32218       44.31478   63.62051  78.48905   73.5    0.04809  -21.76759  0.99174 
  -10.85805  0.08124  1.18702     14.13523  1.78296  0.90495  42.93803  0.10267     0.01823  7698.58618   5045.19356  3.80641         2571.10119     19.77575  0.03315  59179.51329  15.18068   3.4883   125145.14764  47.27365  19.25385  59258.33213    51.31777       44.29348   59.32061  85.01055   76.0    0.05814   -21.7283  0.97632 
  -17.20626  0.00227  1.16052      13.8779  1.46914  1.17844  26.89375  0.19217     0.10157  7924.46348   8111.60375  2.89071         2689.97101     16.36278    1e-05  59173.16509  10.07438  0.06099   322382.86222  46.79823  19.29279  59257.41327     51.3472       44.34171   42.11788  86.12701   70.5    0.05568  -21.71661  0.99945 
  -11.39061  0.00631  1.00361     13.97322  1.60937   1.1968  22.29784  0.28114     0.20547  9810.66624   9627.79309  3.87333         2225.94022     16.27821    1e-05  59178.98073  12.80227  0.14067    170279.9782  47.24121  19.23429  59257.41327    51.34761       44.32274   47.36985  88.28018   59.0    0.06745  -21.80573  0.99919 
  -12.58756  0.00459  1.04849     14.02366  1.76001  1.28696  32.74965   0.2031     0.04956  7938.05111   8180.85525  2.87925         3287.34448     16.82561    4e-05  59177.78378   12.3101  0.15037   161119.56546  47.26608  19.21937  59260.19158    51.39299       44.39891    60.2889   77.5143   77.5    0.04867   -21.7143  0.99918 
  -23.20794  0.01042  2.16371     13.93914  1.87615  1.16383  22.83368  0.13343     0.02722  6453.74828    9928.4039  1.23703         3483.27393     17.85235   0.0004  59167.16341   5.67319  0.23784  1079425.00176  45.83852  19.27592  59260.19158    51.44114       44.45007   58.13573  75.36113   61.0    0.06615  -21.64821  0.99477 
  -11.15486  0.39339  1.62873     14.19316  1.71063  0.85243  18.92331  0.19103     0.01775  7073.87008   9811.67083  2.94651         3403.66228       17.238   0.0001  59179.21648   5.64857  7.44419   173122.57744  46.83995  19.26037  59257.41327     51.5174       44.56283   39.47559  74.64269   68.5     0.0595   -21.6789  0.90493 
  -27.04662  0.01651  2.25579      13.8908  1.69598  0.85568  11.34425  0.28277      0.0331  6347.53152   9498.24662  4.32748         2827.20411     18.51459  0.00182  59163.32472   2.72655  0.18727   1325067.0965  45.66943  19.26543  59261.37413    51.41512       44.38985   73.20795  79.03381   67.0    0.05829  -21.63574  0.99475 
