 log(Bfield)      Mns     Pspin  cutoff_power  cutoff_wavelength  fnickel    kappa  kappagamma   mejecta  log(nhhost)  temperature  texplosion  thetaPB     vejecta      A_V        MJD_0   log(KE)      M_Ni  Peak_mag     Peak_MJD 
    12.81414  1.33073   7.95393       3.50644         2541.54905  0.35891   0.0307     0.46228  17.71396     18.56711   5156.19571    -8.83443  0.97926  4560.79959  0.00205  58782.36557  51.96859  26.90737  19.53309  58849.33055 
    13.40914  1.67671  27.63812       0.74423          2864.6782  0.23533  0.02262     0.43769  27.17768     16.03057   7917.67833    -8.56927  0.42204   5313.2004    1e-05  58782.63073  52.13568  19.09902  19.53239  58846.11207 
    14.95884  1.45888  13.95943        2.0568         2630.61312  0.18364  0.01939     0.42067  31.39114     16.67853   4403.15145   -10.78743   0.1349  5041.46171    3e-05  58780.41257  52.10109  15.28649  19.56255  58850.14944 
     12.1262  1.79793  14.43824       0.73849         3209.48996  0.26945  0.02156     0.09384  24.01256     19.48283    3745.4946    -8.41617  0.35212  5006.84745  0.01689  58782.78383   52.0744  21.38626  19.49157     58850.16 
    14.26946  1.53351  25.55528       0.40045         2272.72808  0.16851  0.01441     0.02409  39.09029     18.40755   3495.27217   -10.41182  1.25741  5126.99621  0.00142  58780.78818  52.13195  14.56236  19.54077  58849.33055 
    12.67599  1.64975   6.05832       1.32112         2294.41522    0.221  0.01966     0.02369  29.58429     19.06828   4219.13175    -9.20321  0.16325  5293.69187   0.0065  58781.99679    52.139  18.20722  19.53708  58852.58697 
    13.12515  1.11187   19.5596       4.92164         3194.53002  0.11001  0.01256      0.0864  55.51501     19.75144   3520.00246    -9.35778  0.41624  4592.63868  0.03134  58781.84222  52.06112  10.06477   19.5055  58849.33055 
    12.81824  1.55074  18.81183       4.30305         2261.67479  0.21603  0.02155     0.23515   30.8772     18.87566   4251.54383    -9.25024  0.30667  5217.49857  0.00417  58781.94976  52.12966  17.93196  19.49779  58849.33055 
    12.37689  1.86312   5.08516       0.44992         2251.15594  0.34481  0.03171     0.03535  19.27772     18.30615   5001.89561    -9.21083  0.87482  5555.90552  0.00112  58781.98917  52.14705  26.27221  19.53405  58849.33055 
    14.20841  1.54568   18.2117       4.28642         2579.27453  0.20395  0.02103     0.11243  32.49821     16.08289   3544.78508   -11.97908  0.06893  4779.11359    1e-05  58779.22092  52.05728  17.08009  19.51718  58852.58697 
    13.27904  1.84843  21.74325       1.33885         2257.90855  0.27387  0.02196     0.11113  24.16911     18.89327   4491.59363   -11.00103  0.69807  4929.72158  0.00435  58780.19897  52.06143  21.76259  19.50037  58849.33055 
    12.95477  1.82616  12.70992       3.00196         2058.36791  0.21341   0.0193     0.31031  29.55464     16.37042   5677.10457    -8.53157  0.69593   5610.6541    1e-05  58782.66843  52.18943  17.57884  19.51341  58849.33055 
    12.87211  1.57081  23.12075       4.69089         2011.67365  0.41166  0.03828     0.22902  15.68148     16.52212   6430.11712   -10.71229  0.59974  5373.53296    2e-05  58780.48771   52.1007  30.13602  19.52763  58846.11207 
    14.19106  1.77371   13.9723       4.17911         2452.12794  0.15067  0.02145     0.03206  35.18565     18.00708   3476.82709    -9.98209  1.37617  6251.28893  0.00056  58781.21791  52.29644  12.79057  19.49121  58849.33055 
    13.74472    1.756  11.18718       4.37547         3345.34103  0.19403  0.02396     0.14889  28.29499     18.84777   5693.09289   -10.09603  0.60809  4444.73377  0.00391  58781.10397  51.98376  15.86009  19.47063  58852.58697 
    14.33993   1.7716  26.12097       4.67654         2848.39458  0.10219    0.012     0.13877  59.89392     16.13303   5401.46738     -8.7133  0.44433  5201.16666    1e-05   58782.4867  52.17438   9.46168  19.52908  58849.33055 
    12.23254   1.6303  29.69209       0.91438         3315.05016  0.19746  0.01893     0.02293    31.625     18.23915   3814.98105    -9.93002  0.86595  5090.64098  0.00096  58781.26998  52.11008  16.45875  19.49885     58850.16 
    12.40829   1.8746   3.80677       4.26253         2485.40005  0.36586   0.0379     0.05418  16.92334     18.88773   4057.98875    -8.62051  0.73216  5268.31426  0.00429  58782.57949  52.09001  27.18657  19.50532  58852.58697 
    14.13158  1.66138  28.74637       4.99677          2720.5229  0.17299  0.01612     0.07503  34.73696     17.20416   3710.07381   -10.68296   0.9506  4095.64173    9e-05  58780.51704   51.9282  14.65337  19.48151  58852.58697 
    13.84412  1.79579  27.12137       4.75067         2802.78684  0.10629  0.01282     0.01969  58.10723      19.2201   4180.42318    -7.43664  0.06223  5760.73317  0.00922  58783.76336  52.26107   9.79422  19.47284  58852.58697 
    13.03347  1.45148  17.53267       1.92644         2045.92326  0.21047  0.01921     0.01878  30.64875     17.93792   4514.56896    -8.61642  0.57669  5537.21502  0.00048  58782.58358  52.18075  17.44714  19.47438  58849.33055 
    13.01676  1.59587  10.79757       2.55005          3354.1958  0.43221  0.03916     0.14968  16.34697     20.34524   6237.76026   -12.19339  0.01969  4303.97856  0.12302  58779.00661  51.91147  31.90006  19.51448  58849.33055 
    14.07738  1.62329  10.84723       0.39893         3282.11218  0.30503  0.02671     0.01733  17.70667     19.35672   5692.45516    -9.29617   0.8249  5067.70058  0.01263  58781.90383   52.0601   22.8661  19.50273  58849.33055 
    12.27524  1.73732  28.56332       0.04016         5014.55904  0.25119  0.02452      0.0237  27.67505      18.3573   3521.30576   -13.58646  1.33202  5479.31349  0.00126  58777.61354  52.16382   20.4523  19.47792  58845.24552 
    12.42012  2.05795  13.81206       4.88107         2039.26254  0.34363  0.03343     0.30457  19.96869     16.97307   4839.72613   -11.92033  1.37243  5035.35387    5e-05  58779.27967  52.06449   26.3572  19.48128  58846.11207 
    14.60286  1.61989  15.22918       2.83981           3237.856  0.30467  0.03041     0.02908  20.95642     20.12926   5155.00978    -10.8925    0.085  4716.72185  0.07482   58780.3075  52.01165  23.58142  19.48395  58846.11207 
    13.61533    1.549  28.32886       3.07145         3255.76261  0.18086  0.02328     0.36525  33.66889     18.87248   4108.71226   -13.54161  1.47379  4611.01051  0.00414  58777.65839  52.02882  15.23877  19.52765     58850.16 
    12.39228  1.47061  26.70818       4.00201         3428.58737  0.19782  0.02387     0.20041  28.55148     18.10981   4159.91383    -8.24151  0.63272  4776.40025  0.00072  58782.95849  52.04697  16.19602  19.50952  58849.33055 
    14.40708  1.50253  14.87367       1.24647         3480.82016  0.13628     0.02     0.06855   41.1662     17.36197   4253.77724      -9.676  1.41361  5656.12438  0.00013    58781.524    52.221  11.87866   19.4786  58849.33055 
    12.76775  2.14566   6.29033       3.66309          2025.7769  0.19106  0.02161     0.06288  36.22972     17.11365   3276.09676   -11.61301  0.18001  5421.82497    7e-05  58779.58699  52.17495  16.30035  19.53098  58849.33055 
    12.00559   1.4499     9.435       0.38107         2166.80472  0.30999  0.03126     0.06584  21.37269     16.84883   5992.81244    -9.29884  0.99197  6082.84866    4e-05  58781.90116  52.23417  24.08103   19.4791  58849.33055 
      12.689  2.11612  13.34496       1.74184         2545.68101  0.16535  0.01642     0.11571  41.56687     19.96077   4472.51119   -11.27406   1.0931  5840.90741  0.05076  58779.92594  52.24962  14.43599  19.47596  58849.33055 
    13.91356  1.65118   8.99866       3.90835         2370.15106  0.22849  0.02911     0.04989  23.10933     18.42284   4168.15388    -9.29849  0.66809  5991.74005  0.00147  58781.90151  52.22734  18.00849  19.48129  58849.33055 
     13.1016  2.01022  25.65579          0.97         3404.86986  0.14486  0.01505     0.03884  46.35202     19.78815    3616.6516    -8.38476  0.92287   5588.9539  0.03411  58782.81524  52.21909  12.87536  19.51562     58850.16 
    14.42359   2.1634  12.54862       2.99712         2020.41729  0.13184  0.01692     0.24212  41.66054     19.07071   4689.93784   -12.52354  0.44721  5481.55161  0.00654  58778.67646  52.19463  11.51478  19.50504  58846.11207 
    13.40882   1.6435   9.51066       4.51269         2933.07237  0.23541  0.02638      0.3223  25.92367     16.22439    5908.0365    -9.99467  0.31002  4842.72565    1e-05  58781.20533  52.05147  18.94513  19.49475  58846.11207 
    14.01589  1.97338  21.93119       2.35333         2388.41193  0.19604  0.01973     0.27099  31.40398     16.21792   3877.61696     -9.2015  0.89521  5491.73809    1e-05   58781.9985  52.17543  16.32023  19.50171  58846.11207 
    14.74529  1.22541  11.48144       3.03712         2764.33772  0.24354  0.03324     0.01054  23.43293     17.22924   5002.50185   -10.99856  0.35765  4877.89487    9e-05  58780.20144   52.0498  19.24312  19.50399  58849.33055 
    12.13733  1.82988  19.55448       2.24778         2254.02265  0.26046  0.02907     0.40436  25.83476     16.18865   6114.75489   -11.09666  0.00168  5469.26552    1e-05  58780.10334  52.15688  20.94815  19.47106  58849.33055 
    12.41062  1.67076    8.3265       0.31156         3151.43693  0.14722  0.01378     0.32376  45.03885     17.21003   4803.36892    -9.29848  1.35734    5594.187    9e-05  58781.90152  52.21787  13.02365  19.51285  58849.33055 
    14.63013  1.62056  19.71711       1.82194         2734.79327  0.25997  0.02875     0.20854    23.365     18.33508   6262.92671   -10.76363  0.99626  5384.17348   0.0012  58780.43637  52.13535  20.53032   19.5042  58849.33055 
    12.15805  1.67362   6.86419       0.11437         3456.67044  0.47488   0.0391     0.01309  13.92864     18.85923   3994.30674    -8.99368  0.65382  5487.51113  0.00402  58782.20632  52.10864  33.95025   19.5295  58849.33055 
    14.48203  1.52946  10.66956       0.15685         3726.21627  0.07638  0.01051      0.0554  66.83896     17.94484   3410.11571    -8.76717  0.52668  6292.48665  0.00049  58782.43283   52.3472   7.19297  19.48955  58846.11207 
    14.19219  1.60989  19.06923       4.03097         2124.80251  0.20061  0.02053     0.01742  33.25009     17.78445   3075.17395    -9.24202  0.01601  5393.69433  0.00034  58781.95798  52.16407  16.86655  19.47342  58846.11207 
      14.702  1.56798  19.61446       0.87251          2925.5688  0.27059  0.03175     0.05968  22.12955     18.19361   3346.70007   -10.10079  1.02008   5492.7521  0.00087  58781.09921  52.14834  21.15693  19.49182  58846.11207 
    13.89342  1.54954  17.28184       2.95654          2695.9361  0.29081  0.03129     0.03028  21.88739     16.37361   6371.72358    -9.21424   0.6239  5275.26725    1e-05  58781.98576  52.11237  22.69166  19.48972  58849.33055 
    12.42832   1.6106  25.62598       4.97483         2623.06358  0.12047  0.01303     0.01131  52.45058     18.22839   3393.24582    -9.98215  0.49984  5202.79755  0.00094  58781.21785  52.16555  10.92302   19.4814     58850.16 
    13.01864   2.0212  28.02711       3.16029         2639.18474  0.11407  0.01092     0.02225  58.52007     20.03968   3803.80284   -10.50124  1.39597  5011.52015  0.06087  58780.69876  52.14054   10.5234  19.49652  58849.33055 
    14.90516  1.82424  20.89233       0.98203         2919.75175  0.12042  0.01423     0.04347  49.90627      16.0806   3086.23301    -9.71107  0.66757  5666.70753    1e-05  58781.48893  52.23628  10.83177  19.50055     58850.16 
     12.2783  1.59208  25.40123       0.83529         2120.71498  0.31456  0.02627     0.12675  21.97985     17.81404   4606.43949   -10.54573    1.208  5231.75337  0.00036  58780.65427  52.10551  24.56411   19.5016  58849.33055 
     12.1587  1.70182  28.81218       3.83703         3333.03445   0.1954   0.0262     0.42291  31.61334     16.22187   4370.84584   -11.67096  0.94816  4816.98735    1e-05  58779.52904  52.06206  16.28595  19.47338     58850.16 
    14.10842  1.95431  22.47008       4.13084         2863.85046  0.27127  0.03008     0.04941  22.92987      17.5718   3646.68409    -9.17339  0.21702  5054.84465  0.00021  58782.02661  52.07903  21.34966  19.46096  58846.11207 
    12.44583  1.58153  21.31612       0.00208         2892.68418  0.33599  0.03093     0.01226  19.95087     18.66799   3757.21504   -10.79807  0.38808  5629.06999  0.00259  58780.40193  52.16123  25.76635  19.51057     58850.16 
    14.60216   1.6216   28.7473       4.85935         3116.41753  0.12196  0.01468     0.01624  47.18245     17.20314   3582.65891    -8.36585  0.42656  4833.32748    9e-05  58782.83415  52.09418  10.87102  19.51805  58849.33055 
    14.09206  1.56329  19.41326       3.95987         2192.52283  0.14179  0.01447     0.02178  44.72759     19.36536   3435.38552    -8.37681  0.57116   5955.3202  0.01288  58782.82319  52.27171  12.52943  19.54297  58852.58697 
     13.9803  1.60505  14.56212        0.0123         3859.05532  0.16798  0.01749     0.30206  38.16238     16.84737   3503.39818   -12.97075  1.16223  5941.80632    4e-05  58778.22925  52.25831  14.45794  19.52866  58849.33055 
    14.96788  1.73711  29.16706       1.06649         2156.96471  0.24421  0.02421     0.04861  27.63848     18.12277   4615.43131   -13.12104  0.25972  5398.10249  0.00074  58778.07896  52.15075  19.87892  19.51897  58846.11207 
    14.56777  1.65165  12.60027       3.02032         2316.48559  0.26028  0.03112     0.05369  20.80888     19.38867   6292.71533   -11.59614  0.51143  5145.96938   0.0136  58779.60386  52.08673  20.11902  19.52798     58850.16 
    14.40366  1.68033  15.07708       3.17019         2815.57056  0.21533  0.02637      0.1086  25.84036     17.26507   4793.09528    -9.10628  0.56069   5343.3254   0.0001  58782.09372  52.13667  17.31904  19.54017  58849.33055 
    14.05816  1.68951  10.51821       2.77783         2037.01251  0.23599   0.0216      0.4518  28.67722      17.5866   4972.76368   -12.62815  0.03254  4938.59919  0.00021  58778.57185  52.07631  19.33609  19.52192  58849.33055 
    13.99783  1.82935  11.17382       0.07582         2936.49294   0.2449  0.02008     0.04758  26.62571     18.37627   3329.46085    -9.90335  0.02714  5392.22871  0.00132  58781.29665  52.14691  19.80298  19.51082  58849.33055 
    12.80132  1.69751  27.37868       0.08384         2151.55932  0.27942  0.02209     0.30987  24.34422     16.20334   4264.07568   -10.69664  0.46865  5104.13053    1e-05  58780.50336   52.0922  22.23222   19.5184  58852.58697 
     12.0937    1.519  13.23191       3.05806         3274.89255  0.25624  0.03284     0.47688  23.27943     16.01861   8450.59529     -8.2535  0.74266  5543.01499    1e-05   58782.9465  52.16031  20.22248  19.49834  58849.33055 
    14.65178  1.57876  24.76531       3.58945         2340.75192  0.11954  0.01419      0.0531  53.11144     16.49865   5674.68317   -10.32968  1.09609  5320.93906    2e-05  58780.87032  52.18592  10.85983   19.5331  58849.33055 
    13.46036  1.44321  17.44294       4.30741         2914.00286  0.45531  0.04025     0.02514  14.44895     20.24585   6462.78271    -8.99629  0.53938  4779.10447  0.09785  58782.20371  51.99179  32.79284  19.51627  58845.24552 
    13.25715   1.8068   4.36668       0.18622         2778.57653  0.20118  0.01481     0.08191  33.96551      19.8334   4313.42658    -9.54675  0.18793  5167.23116  0.03786  58781.65325   52.1284  16.97616  19.51732  58845.24552 
    14.00833   1.7379  19.21981       3.26015         2175.75793  0.22504  0.02124     0.12148  28.01821     17.82968   4495.62923   -10.70361  0.74772  5007.59994  0.00038  58780.49639  52.08658  18.36282  19.45988  58849.33055 
    12.70555  1.56191   7.65698       1.98371         2817.78721  0.14866  0.01309     0.01818  41.45234     18.61683   8621.10313     -8.8498  1.23569  4822.32767   0.0023   58782.3502  52.08298  12.97246  19.45513  58852.58697 
    12.12527  1.66784   5.84789         0.056         2787.14824  0.11984   0.0112     0.10202  58.10569     18.44348   3316.06133   -16.06183  0.51182  5018.52556  0.00154  58775.13817  52.14127  11.04337  19.48436  58849.33055 
    14.80648  1.51204  24.62447       1.33346          3112.6774  0.12102  0.01098      0.0106  50.37276     16.31673   5850.72923    -7.24601  1.52639  4581.53204    1e-05  58783.95399  52.05229  10.90151  19.49028  58846.11207 
    12.06607  1.85017  26.08413       0.05986         3573.02043  0.39401  0.03453      0.2313   16.5011     18.91181   3961.42433    -8.95489  0.52789  6049.39553  0.00453  58782.24511  52.20795  29.13441  19.51174  58849.33055 
    14.16343  1.49818  10.20314       0.33573         3817.63661  0.10659  0.01498     0.07017  49.14651     19.65699   3964.35326   -11.47925  1.11331  5755.20871  0.02522  58779.72075  52.24867   9.56356  19.48571  58846.11207 
    13.85083   1.4591   8.24322       4.12626         3481.56415  0.09996  0.01659     0.06429  43.83505     17.88417   4494.83931   -10.20841  0.80499  5258.05039  0.00043  58780.99159  52.16212   8.80359  19.50798  58846.11207 
     12.0928   1.6356  21.99052       3.23259         2230.56718   0.2838  0.02844     0.03175  22.99365     16.01133   3258.53961    -9.27282  0.06648  5670.31184    1e-05  58781.92718  52.17904  22.34665  19.54694  58849.33055 
    12.05017    1.729  13.69904       0.54259         2524.62748  0.39446  0.02848     0.01511  17.40232     16.75362   6361.28806   -13.53441  1.00226  4321.99971    3e-05  58777.66559  51.92039  29.47129  19.56724     58850.16 
    14.78732  1.52961  28.22215       0.12126         4380.25613  0.31656  0.02325      0.1385  20.56415     17.24461   3787.89046   -11.50161  0.87833  4583.28785   0.0001  58779.69839  51.98519  24.41517  19.47906  58849.33055 
    14.40402  1.63934  22.16164       3.71654          2046.4956   0.2599  0.02018      0.0264  24.88786     17.13919   6601.12069    -8.55078  0.76022  4528.61076    8e-05  58782.64922  51.99003  20.76255  19.51271  58849.33055 
    13.39051  2.06027  23.18721       0.09797         2792.24782  0.14542  0.01352     0.01716  49.39185     18.47972   5200.62773   -12.99345  0.89668  5141.08501  0.00168  58778.20655  52.15101  13.05863  19.50636  58850.14944 
    14.65394  1.98549  22.61639       0.19898          3816.7369  0.18047  0.02013     0.02845  33.93044     16.22051   3633.77778    -9.75766  1.54391  5642.52372    1e-05  58781.44234  52.20475  15.22573  19.51916  58849.33055 
    14.02802  1.52856  17.99217       1.79791         2836.75115  0.16548  0.01593     0.02575   39.9857     19.65126   3276.11847   -11.71658  0.03885  4914.02856  0.02489  58779.48342  52.09674  14.35439  19.46769  58849.33055 
    15.11107  1.71326   18.7186       0.05773         3417.36372  0.24448   0.0253     0.17833  25.06128     18.19017    4240.1738   -12.26716  0.25085  5372.22838  0.00086  58778.93284  52.13895  19.55483  19.49508  58852.58697 
    13.74949  1.70032   21.0818       3.40847         3583.42588  0.28311  0.02905     0.37174  19.27809     16.18535   5390.72042    -6.59169  0.62305  4475.13775    1e-05  58784.60831  51.95915  21.57089  19.51006  58846.11207 
    12.32242   1.9641  21.51718       2.27204         2965.63666  0.22562  0.02414     0.05483  28.86551     20.01441   5048.91882    -7.97741  1.36119  5762.38518  0.05743  58783.22259  52.21081  18.50815  19.53003     58850.16 
    15.09128  1.60925  22.78406       0.04099          3719.9603  0.17239  0.01764     0.12971  36.93263     18.98551   3473.39356    -8.73835  1.19865  6072.95131  0.00537  58782.46165  52.27487  14.75577  19.48906  58846.11207 
    12.38146   1.7706   25.2526       4.06607         2788.62105  0.20357  0.02225     0.05837  31.46578     16.05167   5451.33211   -14.09362  1.24049  4417.91524    1e-05  58777.10638  51.98659  16.95259  19.45685  58849.33055 
