 log(Bfield)      Mns    Pspin  cutoff_power  cutoff_wavelength  fnickel    kappa  kappagamma   mejecta  log(nhhost)  temperature  texplosion  thetaPB      vejecta      A_V        MJD_0   log(KE)      M_Ni  Peak_mag     Peak_MJD 
    13.19449  1.46678   1.4538       1.07635         3201.64547  0.28522  0.28478     0.01473  18.39962     19.57421   6872.44683    -5.44038  1.33639  20814.31445  0.02084  53759.15962   53.2904  21.53945  22.08353  53847.91504 
    13.79401  2.08502   3.0763       1.40027         3819.97491  0.01508  0.14772     0.02865   9.37222     17.05513   6762.65865    -4.43245  1.47371   9979.61597    6e-05  53760.16755  52.59183   0.99184  21.73154  53854.20175 
    13.63711  1.61282  1.52987        0.6197          3873.2527  0.11436  0.32661      0.0173  11.07524     20.70648   5472.22713    -4.93456  0.62862  14897.96677  0.28263  53759.66544  52.95552   7.79639  22.12927  53844.77168 
    13.61321    1.486  1.98206       0.12998         2694.87461   0.0046  0.13439     0.01669   7.72466     17.22605   6592.00304    -3.29362  1.54562   8894.63666    9e-05  53761.30638  52.47299   0.28964    21.505  53844.77168 
    13.06893  1.58951  1.49439       2.36778          3064.3911   0.3686  0.30322     0.05958   8.68992     18.04181   9124.44203    -4.55977  0.99503  20906.10618  0.00061  53760.04023  53.22687  23.83676   22.4311  53857.34511 
     13.4254  1.85653  1.59147       0.02912         2775.56812  0.00289  0.33456     0.01173   5.11887     18.97822    3670.6043    -2.94211  0.67898  11715.91369  0.00528  53761.65789  52.66917    0.1649  22.17575  53854.20175 
    13.37241  1.47664  1.97906       0.82002         3196.50748  0.07589  0.31903      0.0838   4.86133     16.13389   3232.17768    -5.81608  1.37169    16393.473    1e-05  53758.78392  52.95524   4.27045  22.00827   53851.0584 
    13.62087  1.86075  2.42042       2.52786         3086.43186  0.00276   0.2126     0.01702   6.49538     20.30439   6483.82686    -4.08602   1.3476   9681.23037  0.11197  53760.51398  52.52895   0.16678  22.02249   53851.0584 
    13.73768  1.80713  2.00552       1.05438         5834.73314  0.18989  0.32009     0.02952   4.00889     19.14347    6513.4802    -5.12943  0.37843  10431.94576  0.00773  53759.47057  52.54055  10.15564  21.94452  53857.34511 
    13.27418  1.66957  1.91312       3.81979         3463.01197  0.00214   0.3333     0.03247   4.73031     18.70447   8024.59011    -5.68737  1.44578  14227.78864  0.00281  53758.91263  52.82911    0.1194  22.23007  53847.91504 
     13.8333  2.13942  2.35153       0.31753         3594.97252  0.15042  0.20934     0.01289  11.78029     17.09304    3880.6282    -5.31831  1.55383   12147.9091    7e-05  53759.28169  52.78392   10.3896  22.05163   53851.0584 
     13.8759  1.74854  1.43549       0.12747         5086.13438  0.01425  0.30018     0.03219   5.10646     18.91594   5884.92143    -2.70874  1.01246   9037.68052  0.00458  53761.89126  52.44347    0.8121  22.25807   53851.0584 
    13.08977  1.58416  1.63512       0.15956         2498.17317  0.31485   0.1807     0.05472  15.11127     18.78976    3720.5661    -4.06971  1.42528  29325.04719  0.00342  53760.53029  53.57146  22.88026  21.93841  53844.77168 
    13.40345  1.51265  1.88647       4.06245         2391.92577  0.09906  0.18373     0.02142  18.91474     16.40214   5796.11485    -6.14531  1.24275  14855.61485    1e-05  53758.45469  52.99975   7.52072  21.67809  53844.77168 
    13.28788  1.47554   1.4026       1.14399         2749.39155  0.07985  0.31429     0.02157   9.48786     18.31489   4955.06307    -3.83445  0.62515  17089.89511  0.00115  53760.76555  53.06025   5.26502  21.80918  53847.91504 
    13.64201  1.74871  2.05793       1.44749         5129.11877   0.0672  0.20003     0.01719    8.5073     19.91964   4922.73576    -4.73737  0.69975  11539.06047  0.04617  53759.86263   52.7086   4.32505   21.5648   53851.0584 
    13.57682  1.54925  1.97348       3.75622         3513.92694  0.05052  0.23926     0.01478    6.2489     20.32104   6531.33302    -7.11424  0.86602   8497.01645  0.11635  53757.48576  52.41159   3.02591   21.8128   53851.0584 
     13.1151    1.458  1.36108       0.69552         3086.56408  0.48291  0.30135      0.0244  24.53663     16.84238   7072.34693    -4.09032  1.30471  28166.45701    4e-05  53760.50968  53.57645  38.47865  21.71565  53854.20175 
    13.32432  1.78557  1.63784       4.36162         2601.77833  0.26386  0.13951     0.01442  39.47479     20.43514    5653.3163    -4.09532  1.09534  25484.30436  0.15131  53760.50468  53.52548  22.83865  22.19547   53851.0584 
    13.35431  1.71792  1.70313       0.25502         3552.97295   0.1899  0.28144     0.01013   7.72021      17.1178    3126.3243    -4.71392  1.46771   12418.7115    7e-05  53759.88608  52.76283  11.95586  22.15657      53847.0 
    13.69802  1.51221  1.89996       0.45917         2477.13926  0.20775  0.13227     0.01037   7.02462     16.68381   3579.89449    -5.58666  0.56325   9032.19984    3e-05  53759.01334  52.47674  12.79613   21.9269  53857.34511 
    13.44709  1.97083   2.0875       1.75564         2569.95189  0.12612  0.24842     0.01757  12.54961      17.4565   5117.06709    -5.66398  1.20881  16111.78101  0.00016  53758.93602  53.03492   8.82623  21.71315   53851.0584 
     13.8525  2.06624  2.47495       1.53223         3453.71115  0.41363  0.32165     0.16072  21.64304     18.00214   9500.34431    -3.53833  0.73812  33819.91149  0.00056  53761.06167  53.72532   32.2075  22.05602  53844.77168 
    13.39839  2.04138  2.21641       0.03877         2419.28739  0.12727   0.3074     0.05429   7.05263     18.41922    5554.1664    -4.41721  1.45174  18504.56983  0.00146  53760.18279  53.10012   7.84647  21.73192  53847.91504 
    13.26302  1.59468  1.49233       0.57835         2261.12527  0.09693  0.22938     0.02606  13.12881     19.38166   3845.57242    -4.09408  0.75803   20280.7733  0.01338  53760.50592  53.23883    6.8466   21.9007  53838.48496 
     13.1991  2.11506  1.54487       1.55175         2069.35512  0.11794  0.26738     0.01491  19.50146     16.57076   4250.53856    -4.92451  1.40332  21534.08033    2e-05  53759.67549  53.32474   9.00553  21.72537  53847.91504 
    13.65335  1.73029  2.08371       0.81063         3398.21811  0.38502  0.31229     0.02561   5.40757     16.83294   4617.47213    -3.24054  0.51131  13017.10999    4e-05  53761.35946  52.76665  22.25769  22.52582   53851.0584 
    13.49485  1.58407  2.05872        0.0596         5505.13706  0.36079  0.22207     0.21838  16.35325     16.99399   7550.56161    -5.90251  1.03168   18323.2329    5e-05  53758.69749  53.16976  26.63074  21.68965  53857.34511 
    14.19227  1.33265  1.77151       0.62905         2489.17685  0.13157  0.24401     0.04374  10.24771     18.62177   3421.09444    -5.32719  0.11646  17211.00848  0.00233  53759.27281  53.07366   8.82206  21.86267  53860.48847 
    13.38936  1.51648  1.59891       0.75545           3349.755  0.44513  0.25826      0.0171  18.52633     19.70784   5512.07475    -4.57794   1.2831  22657.22668  0.02835  53760.02206  53.36466  33.65929    21.821  53854.20175 
    13.45306  1.59395  2.08495       1.42341         4277.55794  0.05588  0.17013     0.02004  10.38756     20.05463   7846.15717    -3.48221  1.34484  11428.82687    0.063  53761.11779  52.71932   3.75799  21.75208   53851.0584 
    13.66104   2.0671  2.36385       0.14862         4879.30153  0.06838  0.23956      0.0123   5.15443     18.65585   3103.16026    -2.88172  1.19622   8726.53167  0.00252  53761.71828  52.41407   3.90578   22.2019  53854.20175 
    13.68824  1.82494   1.9544        0.4433         3252.59406  0.07083  0.19451     0.01949  13.89293     20.35944   4349.18573    -3.57951  0.57701  16992.49554  0.12711  53761.02049  53.09017   5.06148  21.46309   53851.0584 
    13.45263  1.94716  2.03301       1.99347         2349.11612  0.32677  0.12347     0.01359   41.3013     20.03174   6041.30215    -4.00457  1.30071   25244.4835  0.05977  53760.59543  53.52053  28.49807  21.87015  53854.20175 
    12.95149  1.59185  1.23681       2.73266          2213.2208  0.17091  0.29301     0.01439   8.09791     16.83315   3773.89434     -5.4066  1.31859  14823.74038    4e-05   53759.1934  52.92133  10.87833  22.05929   53851.0584 
    14.34715  1.81691  1.90841       1.00939         2814.25544  0.10981   0.1797     0.01757  15.42798     17.37283    3495.8765     -5.6059  0.09105   17730.8995  0.00013   53758.9941  53.13624   8.01305  21.49116   53851.0584 
    13.42129  1.59688  1.61927        3.5241         2811.77931  0.01281  0.26705     0.01277   4.61947      16.0918   5786.36523    -4.09444  0.53897  10020.09579    1e-05  53760.50556  52.52191   0.71113  21.87615  53847.91504 
    13.20665  1.55794  1.86841       2.94182         3268.92989   0.0826  0.15659     0.02375   7.99367     18.63898   8143.68295    -6.68197  1.56575  10939.09381  0.00242  53757.91803   52.6561   5.24197  21.68815  53841.62832 
    12.98434    1.342  1.13846         1.206         4414.03043   0.0928  0.31554     0.01753  13.27835     17.89006     5238.552    -6.39123   0.9716  19494.32689  0.00043  53758.20877  53.20548   6.57027   21.5392   53851.0584 
    14.00417  1.85863  2.15367       0.11533         2062.62476  0.38626  0.26757     0.03717  14.17828     17.20661   4480.92077    -4.15853  0.32949  21964.60636    9e-05  53760.44147  53.31489  27.71374  21.48034   53851.0584 
    13.54044  1.99951  2.15839       0.41741          2548.0732   0.0613  0.13736     0.01222  17.15512     20.05846   3518.62952    -4.67484  1.28882  14345.05627  0.06356  53759.92516  52.96122   4.56703  21.74766  53857.34511 
    13.32996  1.58748  1.76845       0.00594         2807.64732   0.0991  0.21004     0.02817  12.34126     17.67035   8796.34108    -4.10197  1.18591  17709.62961  0.00026  53760.49803  53.11554   6.91146  21.87069      53847.0 
    14.07127  1.80983  1.59915        0.9598         3546.19321  0.09619   0.1973       0.018  14.82652     17.93765   4548.93936    -4.73427  0.11577  20390.30403  0.00048  53759.86573  53.25419   6.96366  22.48083  53847.91504 
    13.74599  1.87521  1.70827       0.86257         2564.19279   0.2287  0.28064     0.01152  28.11842     18.49175   5594.43034    -3.21905   1.3632  17383.04701  0.00172  53761.38095  53.16784  18.67356  22.13562   53851.0584 
    13.52106  1.89438  2.07012       1.19884         3226.44198  0.10102   0.3266     0.02839  14.53377      18.3463   3208.05316    -4.22983  1.25576  20773.69045  0.00123  53760.37017  53.26863   7.28433  22.57044  53838.48496 
    13.17744  1.95991  1.42404       3.24156         3320.07988  0.16378  0.22863     0.01283  25.31987     18.87859   5319.25447    -5.67515    0.994  24507.39493   0.0042  53758.92485  53.45805  13.12443  22.00837      53847.0 
    13.52481  1.93773  2.20776       0.83416         3579.59539  0.05452  0.21184     0.02004   11.8016     19.08601   9119.73397    -3.65367  1.13958  15773.67039  0.00677  53760.94633  53.01094   3.76723  21.90876  53854.20175 
      13.456  1.72504   2.1809       3.49167          2445.1555  0.05563  0.28865     0.02138   7.07303     16.42615   6515.15123    -5.20102  1.28199  12463.45883    1e-05  53759.39898  52.75713   3.43166  21.99104   53851.0584 
    13.14921  2.00647  1.40226       0.97327         3394.28376  0.22309  0.15951      0.0116  43.51254     16.54229   9064.54611    -3.49512  1.15335  27222.85427    2e-05  53761.10488  53.58981  19.62465  21.76875  53844.77168 
    13.89845  1.82044  2.38034       0.77398         2164.26922  0.05317  0.29241      0.0362   5.57059      18.7153   4276.95966    -3.76848  0.50601  15100.32689  0.00288  53760.83152  52.89881   3.09673  22.10674  53860.48847 
    13.03249  1.19694   1.2809        3.0206         2500.95302  0.05499  0.32204     0.03368   8.57239     16.89811   6629.40449    -6.85943  0.98267  17518.20596    4e-05  53757.74057  53.07198   3.54544   21.9916  53838.48496 
    13.96061  2.06017  2.05146       1.34921         2433.79159  0.18172  0.21157     0.01182    7.3876     18.95958   4079.31733    -4.03806  1.33397   7356.24483  0.00506  53760.56194  52.30358  11.32518  21.84462  53844.77168 
    14.22852  2.19606  2.72514       1.59817         3888.38065  0.00389  0.22373     0.02157   5.79817     16.15543   3041.42134    -4.78053   0.1977  10376.37715    1e-05  53759.81947  52.57723   0.22876  21.85507  53854.20175 
    14.24712  1.73689  1.91869       0.68009         5672.97503  0.18047  0.07992     0.01348  62.40492     16.75047   6239.57081    -3.86241  0.15898  19533.34316    3e-05  53760.73759  53.32651   16.8159  21.55066  53857.34511 
    12.98805  1.64677  1.22947       2.92447         2503.44478  0.00225  0.25172     0.02657   3.15719     18.83557    8988.6041    -2.99309  0.72842  12559.53486   0.0038  53761.60691  52.67278   0.11261  21.64321  53847.91504 
    13.75354  1.66116  1.68985       0.41029         4824.13665  0.13427     0.29     0.03048  11.42572     18.18744   5200.89976    -5.07427  0.29586  20113.57403  0.00086  53759.52573   53.2191   9.21473  22.07227  53857.34511 
    13.88538  1.58977  1.71295       2.55685         3363.66389  0.21618  0.33542     0.02669  18.05444     18.28949   3210.04219    -5.57036     0.34  19915.23363  0.00108  53759.02964  53.25047  16.26632   21.8589  53844.77168 
    12.70812  1.76895  0.91624       1.95898         3614.70356  0.25684  0.31285     0.01554  13.71599     16.91355   7765.17339    -6.23789  1.10152  20807.08281    5e-05  53758.36211  53.26495  18.30498  21.92962      53847.0 
    13.64622  1.83352  2.35208       0.67971         2752.67563  0.30358  0.14676     0.01091   9.89009     16.53976   4182.86645    -4.31594  1.11152  11760.31144    2e-05  53760.28406  52.73955  20.20054  22.27646  53854.20175 
    12.91676  1.42857  1.17952       1.64573         3180.36141  0.19724  0.16295     0.01036  28.83154     19.63661   3712.64175    -5.08623  1.50292  19450.19994  0.02406  53759.51377  53.26736  16.17607  21.81908  53854.20175 
    13.57083  1.82786   1.9998       0.48769         5276.74251  0.00324  0.19746     0.01059   5.66587     16.97134   6197.82385     -2.9412  0.93457    8914.9097    5e-05   53761.6588   52.4429   0.18955  21.67183  53844.77168 
    13.60447  2.00384  1.82036       0.08013         3963.27755  0.40079  0.30438     0.01702  30.27968     19.83392    3429.9727    -3.99764  1.31463  23359.54758   0.0379  53760.60236  53.43018  33.15424  21.77275   53851.0584 
    14.18392  2.18389  2.55032        0.2284          2007.5049  0.09528   0.1226     0.01288  14.47014     18.04301   8411.62867    -2.62783  0.30202  13293.81429  0.00061  53761.97217  52.88052   6.86436  21.78101   53851.0584 
    13.98922  1.55488  1.64269       1.30161          3629.7627  0.01507  0.16891     0.01227   8.70517     18.93461   5745.80407    -5.60752  0.13549  11352.83775  0.00478  53758.99248   52.6967   0.97519   21.9288  53854.20175 
    13.72654  1.56394   2.1856        0.2998         2784.68244  0.01403  0.24605     0.03086   3.89405     17.80461   6552.24116    -2.50183  1.07625   9441.77486  0.00035  53762.09817   52.4505   0.74463  22.05208  53854.20175 
    13.73409  1.76447  1.97885       0.27742         4333.64955  0.19551  0.16908      0.0287   8.20973     16.37616    3576.4625    -3.78579  0.34947  15108.76604    1e-05  53760.81421  52.93923  12.48267   22.5219   53851.0584 
    13.79926  1.98569  2.68154       2.10651         2671.63422  0.14017  0.33181     0.05774   4.81785     18.73482   7367.83359    -3.88345  0.67179  14158.31692  0.00302  53760.71655  52.82692   7.86902  21.63387   53851.0584 
    13.73068  1.66905  1.90276       2.00285         2654.61928  0.23612  0.10586     0.01165  46.53252     17.57312   4749.16371    -4.97708  0.54195  19663.36334  0.00021  53759.62292  53.31202  20.99994  21.45873  53841.62832 
     13.5194   1.7719  1.66209        0.7738         4667.34442  0.28017  0.23235     0.01983   25.6435     16.86326   6139.77588    -7.29756  0.68672    19982.215    4e-05  53757.30244  53.28173  22.50318  21.92141  53847.91504 
    13.59529  2.04809  1.92374       3.54731         2329.83136  0.10047  0.33827      0.0119  13.25618      17.7792   7664.25278    -3.95592   0.8875  16499.75086  0.00033  53760.64408  53.06047   7.11079  21.51593   53851.0584 
    13.68235  1.70554  1.82539       0.26513         4002.71266  0.21217  0.15271     0.01014  29.62321     18.42227    9208.3097    -7.00894  0.47183  17312.63202  0.00147  53757.59106  53.16831  17.48392  21.99333   53851.0584 
    13.56824  1.98434  2.45218       1.31046         4478.04407  0.38423  0.25648     0.03637   3.75627     18.27136   9943.18917    -6.53864  0.91234  10205.61291  0.00104  53758.06136  52.51379  20.18722  22.78867  53854.20175 
    13.43818   1.6644  1.61916       0.06319         4266.42929  0.02928  0.32355     0.02439   5.60715     20.81861   5888.61321     -6.5794  1.08688  13803.49079  0.36588   53758.0206  52.82152   1.70774  21.65165  53841.62832 
    13.62188  1.82216  1.92159       0.21916          2604.2546  0.18238  0.19616     0.01352  29.37599     17.71083   4749.85789    -4.30888  0.75902  22426.03816  0.00029  53760.29112  53.39245  15.00705  21.64496  53847.91504 
     13.2335   1.5951  1.72619       1.66797          2157.5219  0.18171  0.28373     0.05737   9.64761      18.6781   4714.13512     -4.4172  1.38048  20933.62089  0.00265   53760.1828  53.23805  12.02569  21.72129  53854.20175 
    14.14883  2.07165   2.2172        0.4074         4831.69056  0.03131  0.24977     0.02264   6.95917     19.98355    6755.8609    -2.88556  0.24639  13869.17356  0.05349  53761.71444   52.8483   1.92435  22.07642   53851.0584 
    13.27338  1.64612   1.6024       0.08014         3912.93287   0.1653  0.31439     0.01752    7.2163     18.06922    4024.7169    -3.91309  1.01643  14955.12274  0.00065  53760.68691  52.91747  10.24541   21.3772      53847.0 
    13.29178  1.66048  1.74868       4.23729         3132.43502  0.14038  0.24482     0.01251  13.21667     17.75282   3531.28748    -4.74245  1.40897  16319.36556  0.00031  53759.85755  53.05066   9.92965  21.88994  53854.20175 
    14.12183  1.60712  1.89128       0.38696         2947.10382  0.33732  0.29378     0.01816  12.30743     18.82953   3008.83748    -7.30619  0.19501  14635.66075  0.00375  53757.29381   52.9497  23.51218   22.6606  53844.77168 
    13.20083  1.83303  1.80542       0.36232         4484.73622  0.11499   0.0836     0.01506  16.81275     19.97968    3260.4285    -3.60089  1.56002  15663.35579  0.05302  53760.99911  53.03588   8.53381  21.86526  53854.20175 
    14.74149  1.71712  2.50869       1.19129         5683.83757  0.00224  0.10382     0.01567   9.42732     16.78239   3113.27765    -6.25295  0.08557   7310.75351    3e-05  53758.34705  52.32209   0.14743  21.74375  53854.20175 
    13.49663  1.80139  2.07418       0.70504         2386.56903  0.04602  0.33483     0.02887   7.65812     18.81197    9115.8609    -6.34848  1.23002  16042.85403   0.0036  53758.25152  52.98444   2.89191  21.88904  53854.20175 
    13.36301  1.81419  1.34287       1.20377         3439.75677  0.49446  0.24169     0.02339  10.49949     18.60251   9929.88368     -4.6722  0.39275  22683.42807  0.00222   53759.9278  53.31574   33.3288  21.90753   53851.0584 
    14.05359  1.53595  1.72986       0.03546         4013.56374  0.07772  0.19636     0.02188   12.7902     17.82781   4725.22509    -5.54369  0.16111  18485.18602  0.00037  53759.05631  53.15598   5.46086  22.04205  53860.48847 
    12.62245  1.59421  0.82937       0.91711         4771.97693  0.49591  0.10726     0.02007  62.30583     20.59367   4513.45042    -4.31922  0.98089  39855.01835  0.21797  53760.28078  53.94581  46.19813  21.89467  53854.20175 
