 log(Bfield)      Mns    Pspin  cutoff_power  cutoff_wavelength  fnickel    kappa  kappagamma   mejecta  log(nhhost)  temperature  texplosion  thetaPB      vejecta      A_V        MJD_0   log(KE)      M_Ni  Peak_mag     Peak_MJD 
    13.76825  1.54423  1.73779       0.07224         4114.76432  0.26023  0.11527     0.01227   8.70163     16.59808   7282.90114      -8.209  0.58876   10022.8609    2e-05    58884.051  52.58844  16.83424  18.72359   58948.0724 
    13.51889  1.68094  1.83228       0.06831         5136.14719  0.01382  0.08515     0.01102  10.02886      17.4141   9591.94473    -7.97363  1.36729  10485.10739  0.00014  58884.28637  52.64117   0.92229  18.74464   58948.0724 
    13.58211  1.52477  1.69549       0.01795         4955.92306  0.06208  0.10545     0.01402   9.95457     19.78083   5955.64498    -8.68053  0.90739  10973.44737  0.03354  58883.57947  52.68001   4.13673  18.68151   58948.0724 
    14.37663  1.73256  2.00317       0.91509         3118.93922  0.00101   0.1442     0.01424   6.45259     17.89819   6104.09882    -7.85258  0.13989   9776.72634  0.00044  58884.40742  52.53679    0.0611  18.66429     58945.87 
    13.39684  1.38993  1.53451       0.01794         5238.17741  0.01896  0.11683     0.01167    8.1989     18.66121   9074.12704    -8.75174  1.43183  10118.83164  0.00255  58883.50826   52.5909   1.21021  18.73056     58945.88 
    13.95523  1.97911  2.08782       0.00998         4947.90874  0.03909  0.04468     0.26179  26.16907      16.3408   4221.30962    -7.48115   0.7484  10662.48625    1e-05  58884.77885  52.73775   3.15124  18.70723   58948.0724 
    13.62953  1.57844    1.193       0.10853         4559.24524  0.00982  0.10911     0.28183  11.94126     20.72558   8484.54101    -7.02195  1.27611  10323.13772  0.29533  58885.23805  52.64377   0.68035  18.71167   58948.0724 
    14.15285  1.44735  1.56764       0.02065         3613.27035  0.03765  0.11112      0.0139   8.53397     17.15581   7873.50029     -8.6412  0.12709  12524.17538    8e-05   58883.6188  52.78006   2.42466  18.74615  58951.27934 
    13.89725  1.92083  1.94023        0.0023         4714.65402  0.06925  0.03637     0.23071  33.69527     16.08687   8862.36285    -6.41385  1.00261  10535.26262    1e-05  58885.84615  52.74658   5.83575  18.70769   58948.0724 
    14.24723  1.82555  2.03203        1.5861         2400.02945  0.00423  0.17779     0.01584   5.89267      16.1844   7501.99639    -7.87195  0.21886   9643.22241    1e-05  58884.38805   52.5153   0.24954   18.7079   58948.0724 
    13.74261  1.77907  1.95987       0.05072         5620.73843  0.06652  0.07445     0.01113  12.56764     16.79642   6553.37743     -7.8879  0.82541   10431.8251    3e-05   58884.3721  52.65748   4.65642  18.66829  58948.31064 
    13.76095  1.96371  1.99168       2.08581         2000.94193  0.02293   0.1235     0.01157  12.65246     19.85266   3778.57837    -6.06929  1.21644  11568.64729  0.03957  58886.19071  52.74793   1.60751  18.71689  58948.31064 
    14.48442   1.8757  2.02262       0.42955         4258.64001  0.00106    0.092     0.01009   9.96138     16.45713   6502.15421    -7.13684  0.16865   8622.47323    2e-05  58885.12316  52.47065   0.07058  18.76599   58948.0724 
    13.81244  2.00144  2.16385       0.30358          3025.6017  0.18695  0.12707     0.01491   7.11845     16.39973   9315.82552    -7.76192  0.74171   9961.84569    1e-05  58884.49808  52.56319  11.55038  18.73098     58945.88 
    13.68314  1.53978  1.72672       0.16954         5037.67754  0.09328  0.06036     0.08486  15.01543     19.44167    4952.2078    -6.59262  1.10121   9590.77373  0.01536  58885.66738  52.60014   6.76981  18.65681     58945.88 
    13.69447  1.77366  1.86642       0.15187         5715.66426  0.07242  0.10657     0.01033  10.89488     16.71103   9405.96063    -7.69867  1.18887   9800.80121    3e-05  58884.56133  52.59027   4.92034  18.70452     58945.87 
    13.68702  1.65786  1.84862       0.98002         2012.95699  0.09102  0.12196     0.01197  10.63981     17.82035   7298.12887    -8.07476  0.77344  11329.15562  0.00037  58884.18524  52.71395   6.15246  18.67093  58948.31064 
     13.7149  1.71903  1.83185       0.01128         4092.25677   0.1252  0.13198     0.01522   8.18008     16.21943   8988.26543    -7.68149  0.95789  10270.76904    1e-05  58884.57851  52.60362   7.98732  18.76503   58948.0724 
    13.68351  1.79158  1.94242        0.0048         4489.61853   0.0743  0.07128     0.01021  14.50029     19.05142   5249.65707    -8.51691  0.95216  10984.14766  0.00625  58883.74309  52.71494   5.35498  18.67902   58948.0724 
    13.56659  1.77218  1.99305       0.17949         4448.92669  0.12653  0.10121     0.01333    8.3056     17.67062    3984.0214    -8.14691  1.13413  10465.14691  0.00026  58884.11309   52.6214   8.09993  18.78068     58945.88 
    14.01116  1.39005  1.61449       0.11942         3700.09507  0.03381  0.10742     0.01282  10.12134     18.25269   4467.63913    -8.79484  0.22406  11409.77132  0.00099  58883.46516  52.71544   2.26086  18.72202     58945.88 
     13.5732  1.41296  1.58252       0.36697         5417.73373  0.00501  0.06732     0.21143  12.59612     19.45609   9454.88668    -5.98245  1.44916   8590.94302  0.01588  58886.27755  52.48904   0.35058   18.7653   58948.0724 
    13.68104   1.6753   2.3143        2.9917         3107.08744  0.05487  0.04076     0.34344  25.11738     16.89243   5361.14801    -7.59465  1.05277   8944.51036    4e-05  58884.66535  52.58193   4.39047  18.66212     58945.88 
    13.92386  1.70708  1.86258        0.0209         2488.56852  0.05701  0.06816     0.16628  22.75258     18.09448   5488.08184    -7.12447  0.69391  11623.11349  0.00069  58885.13553  52.80163   4.48044  18.68947     58945.88 
    14.56666  2.11854  2.00218       0.04846         4232.51925  0.08981  0.12141     0.15303  10.39138     20.56361   6698.62216    -7.91053  0.15097  12659.21089  0.20339  58884.34947  52.80817   6.04038  18.67121     58945.87 
    13.94144  2.16974  2.27575        0.0187         4531.78168  0.09558  0.09703     0.36733  15.18146     17.10642   8213.82083     -7.0999  1.09323  11686.87211    7e-05   58885.1601  52.77278   6.95263  18.68383     58945.88 
    13.67225  1.57985  1.82303       0.06463         5265.71916   0.0203  0.07754     0.25589  12.75561     18.56378   8116.71514    -6.22807   1.1708  10983.10624  0.00203  58886.03193  52.70354   1.42536  18.66968     58945.88 
    13.42921   1.2611  1.43142       0.00701         5789.58696  0.03184  0.10917     0.01028  10.24445     18.36856   5813.64058    -7.74727  0.91654  10996.31686   0.0013  58884.51273  52.68452   2.13499   18.6298     58945.88 
    14.49906  1.73061  1.79927        0.0107         5160.65252  0.00233   0.1109      0.0595    7.3167     16.03954    5648.9673    -6.75268  0.15231   9682.03724    1e-05  58885.50732  52.54122   0.14514  18.75684   58948.0724 
     13.6332  1.76913  1.89053       0.01836          4746.6645  0.08443  0.10739     0.01077  12.00245     18.85347   9146.35561    -8.13225  1.18499  11304.10551  0.00396  58884.12775  52.72308   5.85428  18.68605  58948.31064 
    13.95869  1.46211  1.71151       0.11557         4993.50185   0.0208  0.07273     0.01022  14.51825     18.20227    6265.0415     -8.6046   0.2985  11213.62483  0.00089   58883.6554    52.733   1.49935  18.68328     58945.88 
    13.72077   1.9148  2.67711       4.39234         3056.64217  0.03407  0.03413     0.28498  21.58675      16.9427   4544.35381    -6.97909  1.27917   7416.77326    5e-05  58885.28091   52.4072   2.65146  18.76428   58948.0724 
    13.86922  1.58921  1.88882       0.50396         3277.78538  0.04222  0.05197     0.09687  25.67639     16.87449   5097.47052    -7.82323  0.63855  10290.55757    4e-05  58884.43677  52.70542   3.39202  18.78092     58945.88 
    14.18539  1.59247  1.74702       0.20512         3369.36098  0.04275  0.11063      0.0107   8.50915     17.77807   6529.95306    -8.30006   0.1735  10548.37415  0.00033  58883.95994  52.63065   2.75193  18.74988     58945.87 
    13.93287  2.11595  2.01834       0.00833         4292.12138  0.01987  0.08703     0.16826  12.55435     18.61007   3537.19784    -6.51917    1.008  10052.85389  0.00226  58885.74083  52.62524   1.39079  18.69839     58945.88 
      13.679  1.62501  1.96323       0.49878         3484.92545  0.33248  0.08982     0.01005  11.32564     17.71905    8125.8091    -8.15891  0.78848  10238.67853  0.00029  58884.10109  52.63181  22.77485  18.69161   58948.0724 
    14.19411  1.65669  1.69735       0.03693         4246.39315  0.02573  0.09633     0.01007   9.69134     18.87236   4050.52074    -9.10469  0.13912  11720.75098  0.00414  58883.15531   52.7347   1.70472   18.7015     58945.88 
    13.69761  1.91486  2.10975       1.37534         2355.20893  0.03467   0.1181     0.01195   9.09263     18.62448   3619.73545    -7.54626  1.20499   9799.65865  0.00234  58884.71374  52.57312    2.2647  18.70333     58945.88 
    13.67654  1.60141  1.61483       0.14803         5333.26796  0.02055  0.07328     0.01111  15.83293     20.39017   8004.67336    -7.44566  0.87768  11044.58571  0.13642  58884.81434   52.7273   1.50756  18.71439   58948.0724 
    13.58161  1.80844  5.00779       1.73054         2896.00684  0.44205  0.02698     0.16144  90.94165     18.44272   3883.38079    -9.28405  0.93815  20220.09543  0.00154  58882.97595  53.38119  43.59833  18.72317   58948.0724 
    13.78126  1.68401   1.9516       0.03147         4982.74825  0.06297  0.02899     0.32165  42.73806     16.17692   4059.18805    -6.96939  0.99038  11760.01075    1e-05  58885.29061  52.85947    5.5225  18.74207   58948.0724 
    14.26436  1.81744  1.96576       0.07849         4057.61725  0.04197  0.08313     0.01128  12.68792     19.92762   7327.69782    -8.21707  0.19752  11987.19343  0.04703  58884.04293  52.77905   2.94378  18.69549  58944.75115 
    14.17503  1.53499  1.71046       0.46592         2628.17351  0.03002  0.14713     0.01233   6.62157     17.42604   4285.82593    -9.22362  0.18277   9519.96246  0.00015  58883.03638  52.51636   1.82341  18.74633   58948.0724 
    13.97283  1.79336  1.83916       0.14529         5957.20557  0.02859  0.03632     0.46676  34.61111     19.71457   7836.06044    -6.77685  0.63917  10316.32068  0.02879  58885.48315  52.73033   2.41997   18.6765     58945.88 
     13.7867  1.63801  1.62239       0.01243         5471.60028  0.03743  0.05388     0.32692  23.85121     17.82356   9590.98278    -6.20732  1.06675  10217.44065  0.00037  58886.05268  52.69343   2.96733  18.77967  58948.31064 
     13.6686  1.79573  1.46693       0.07133          5911.6481  0.01483  0.05235     0.15196  16.21716     20.67017   7977.73295    -6.52594  1.17253   10166.2933  0.25996  58885.73406  52.65737   1.09272  18.70177  58948.31064 
    13.68262  2.01648  2.23592       1.16722         2595.28867  0.11519  0.11912     0.01335  10.18442     19.45292    4028.5048    -7.90282  1.06476  11784.15418  0.01576  58884.35718  52.74407   7.71338  18.74253     58945.87 
    13.67659  1.40945  1.53663       0.61249         2424.30256  0.28058  0.15469     0.01111    5.9489     17.03535   5417.49303    -8.55741  0.51213   9098.64607    6e-05  58883.70259  52.46582  16.60743  18.70834   58948.0724 
    14.19416  1.68461  8.69255       2.86029         2864.90988  0.49752  0.02668     0.19224  80.80451     19.04605   5666.84137   -10.14011  0.76587  17452.14736  0.00618  58882.11989  53.24573  48.21873  18.73503     58945.88 
    13.57919  1.80923  5.41627       2.83001         3144.29343  0.49607  0.02283     0.15427  71.65097     18.67211   5328.99119    -9.09154  0.68261  15808.77696  0.00261  58883.16846  53.15196  47.21548  18.69442     58945.88 
    13.76253  1.79637  1.97164       0.66103         2067.16375  0.20035  0.11042     0.01143  10.28404     17.35449   6438.59784     -8.9016  0.60596  11419.54284  0.00013   58883.3584  52.71768  13.44458  18.71223   58948.0724 
    13.67924  1.53998  1.68699       0.04767         3368.96826  0.09627  0.08311     0.16703  16.77485     18.86554   9825.11363    -6.27445  1.43439  11440.63257  0.00408  58885.98555  52.76282   7.14116  18.75012   58948.0724 
    13.70646  1.95281  2.46893       2.71211         2906.14963   0.0387  0.07304     0.43905  15.57452     18.01551   5130.10036    -7.76802  1.20562  10470.72973  0.00058  58884.49198  52.67954   2.82931   18.7045   58948.0724 
     13.7875  2.08857  2.15557       0.23096         5845.56666  0.01702  0.12095     0.46316   6.55565     19.06211   3893.63438    -7.11875  1.53778   8784.35101  0.00641  58885.14125  52.44547   1.03101  18.66795     58945.88 
    13.98512  1.52598  1.85584       1.10482         3395.88148  0.00586  0.13107     0.01404   5.49451     16.42438   4432.83332    -8.58997  0.28878   7849.39215    1e-05  58883.67003  52.32902   0.33993  18.67346     58945.88 
    14.06942  1.71972   2.0127       1.70444         2868.86712   0.0023  0.14309     0.01158   7.76323     17.57192   5836.12429    -8.85792  0.28617   9376.94513  0.00021  58883.40208  52.51936   0.14494   18.7543  58948.31064 
    14.58084  2.08917  1.97157       0.35025         5893.88108  0.00131  0.07207     0.08966  12.37139      16.2532   7147.52238    -6.36636  0.18622   7840.08855    1e-05  58885.89364  52.40798   0.09113   18.6957   58948.0724 
    14.04318  1.40844  1.50016       0.09894         3314.92295  0.17944  0.09564     0.01025   7.66122     19.90042   5792.83141    -7.85251   0.1874  10411.94289  0.04417  58884.40749  52.60898  11.27732  18.71369     58945.88 
    13.84858  1.72988  2.03678       0.73264          3203.2671  0.32751   0.1228     0.01179   9.06914     17.96337    6898.7204    -8.47229  0.53609  10226.62716  0.00051  58883.78771  52.60992  21.38205  18.67362   58948.0724 
    14.10167  1.79774   2.0314       0.91509         2843.71446  0.03831  0.11762        0.01  10.58006     16.27236   5128.95497    -8.08215  0.33254    9874.4519    1e-05  58884.17785  52.59406    2.5868  18.65541   58948.0724 
    14.10126  1.51749  1.66421         0.083          4506.9303  0.02009  0.08465     0.01161  13.90306     16.25839   5527.98888    -7.85222  0.29669  10069.46223    1e-05  58884.40778  52.63574    1.4361  18.76207  58951.27934 
    13.62922  1.57372  1.78657       0.06869         5276.75457  0.14383  0.09727      0.0113  11.40241     18.79084   6635.42591    -8.28161  0.92511  10743.61724  0.00343  58883.97839  52.67424   9.86644  18.69057   58948.0724 
     13.6429  1.63432  1.96659       1.14784         2619.71331  0.06041  0.10958     0.01232  10.86674     16.67439   8382.83831     -8.8309  0.85767  10792.15676    3e-05   58883.4291  52.67373   4.10166  18.71743   58948.0724 
    13.75037  1.71635  1.99811       0.26438         2998.80341  0.01909  0.06432     0.27552  17.78391     18.41861   3780.03717    -7.29876  1.06066  10581.86422  0.00146  58884.96124  52.69996   1.43215  18.72289   58948.0724 
    13.84463  2.06261  2.60216       3.22417         2746.14962  0.03821  0.07963     0.34712  15.99503     17.85135   6030.23133    -7.42092  1.00252  10833.51202  0.00039  58884.83908  52.71141   2.80834   18.7172  58944.75115 
    13.62431  1.84375  2.01355       1.36985         3014.86013  0.01961  0.09958     0.01002   8.22987     19.15169    3154.6873    -9.58262  0.67177   9243.51024  0.00788  58882.67738  52.51268   1.25258  18.67575   58948.0724 
    14.19528  1.88215  2.00705       1.43504         2700.61777  0.00155  0.16642     0.01089   6.22909     16.62333   3990.15176    -9.07898  0.21933    8893.1504    2e-05  58883.18102  52.45083   0.09304  18.73066     58945.88 
    13.77137  1.84981  2.04612       1.56123         2393.65418  0.18127  0.13669     0.01135   8.61826     17.00008   8315.15188    -6.97589   0.8053  10288.50635    6e-05  58885.28411  52.61022  11.70109  18.72604   58948.0724 
     13.2301  1.76685  6.66412       4.11711         2919.18821  0.49275  0.02472     0.30266  80.65426     19.45314   4581.79967     -6.2006  1.01639  18853.60983  0.01577   58886.0594   53.3127  47.74289  18.75298   58948.0724 
    13.72975   1.6158  1.85686       0.36416         3070.51822  0.16013  0.09516      0.0102  11.36726      19.0492   3617.15311     -8.7691  0.63378  10392.17536  0.00622   58883.4909  52.64507  10.97712  18.69723  58948.31064 
    13.79511  1.70236   2.1538        3.8528         2480.28293  0.03628  0.08494     0.14835  17.70526     18.03919   6746.49577    -7.15074    0.795  11519.22523  0.00061  58885.10926  52.77331   2.71926  18.76982   58948.0724 
    13.97374  1.79202    2.183        2.0486         2046.74924  0.15107  0.07588     0.25993  16.13434     16.98291   8016.84756    -7.59505  0.52163  11391.86864    5e-05  58884.66495   52.7558   11.1212  18.66391     58945.87 
    13.69856  1.71606  1.78264       0.05873          5177.6091  0.10725  0.09697     0.01033  10.46764     18.64578    7251.9412    -7.60777  0.97534   9640.80806  0.00246  58884.65223  52.57226   7.22418  18.72084     58945.87 
    13.68498  1.72451  1.76643       0.07434         5617.39055  0.24931  0.11762     0.01074   7.48417     16.67225   6633.69347    -7.70956  0.92018   9283.91934    3e-05  58884.55044  52.50703   15.5844  18.75921   58948.0724 
    13.73665  1.93262  2.10722       0.88894         2082.48853   0.1226   0.1177     0.01402  10.04969     18.46799   5714.75289    -8.61926  0.77122  11836.29962  0.00163  58883.64074  52.74665   8.18644  18.66213     58945.88 
    14.48052     1.77  1.52594       0.26153         5244.03735  0.01257  0.09489     0.14348  10.26981      17.0098   9726.78577    -5.66407  0.20946   7753.30556    6e-05  58886.59593  52.38123   0.84331  18.70926     58945.88 
    13.56135  1.67979   1.7868       0.03138         5016.42896  0.46119  0.13043     0.01007   8.73245     18.27557   7234.11021    -8.56649  0.97213  11030.41481  0.00105  58883.69351  52.67198  29.85717  18.66782   58948.0724 
    13.78289  1.68895  1.70477       0.00854         4823.35058  0.08992  0.09148     0.36188  10.04221     19.55688   6605.71138    -6.71539  0.98394   9659.30616  0.02003  58885.54461  52.57004   6.00339  18.73098     58945.88 
    14.01029  1.25593  1.45086       0.00326         4223.46211  0.00582  0.10375     0.01481   7.15816     16.84729   7155.79581    -8.83146  0.16902  10718.45435    4e-05  58883.42854  52.62734   0.36015  18.72812     58945.87 
    13.73451  1.81133  1.92556       0.18624         3609.40348   0.0363  0.09094     0.34378  10.39853     16.94744   4838.72025    -7.40186  1.27881   9235.45858    5e-05  58884.85814  52.53433   2.44142  18.75128  58948.31064 
    13.33181  1.26752  1.39069       0.56578         2777.81694  0.06024  0.12413     0.01542  10.30506      20.4688   3121.01077     -7.8293  1.36908  12234.39728   0.1635   58884.4307  52.77774   4.04415  18.72287   58948.0724 
    14.30267  1.59174  1.73075       0.27936          5783.3116  0.00194  0.08312     0.01043  10.94559     16.33482   6423.30512    -6.78851  0.20029   9158.91722    1e-05  58885.47149  52.53187   0.13217  18.75654   58948.0724 
    13.42362  1.53857  1.72685       1.11655         2474.24121   0.0699  0.15523     0.01452   7.60162     18.63781   9916.20826     -9.4606  0.96618  11644.97292  0.00241   58882.7994  52.70541   4.38512   18.7415     58945.88 
    13.44083  1.49994  1.74683       0.14874          2680.6272  0.06808   0.1332     0.02054   7.24412     17.93519   9727.52058    -8.32527  1.30441  11536.14027  0.00048  58883.93473   52.6924   4.22374  18.67392   58948.0724 
     14.2638  1.42249  1.63478       1.24234         2219.09392   0.4243  0.15952     0.01209   7.72286     16.18053   3720.44958    -7.45001  0.14446  10431.84001    1e-05  58884.80999  52.61143  26.71495  18.75953     58945.88 
