 texplosion  fnickel    Pspin  log(Bfield)      Mns  thetaPB   mejecta    kappa  kappagamma      vejecta  temperature    alpha  cutoff_wavelength  log(nhhost)      A_V         MJD0   kenergy  mnickel             TSD   log(L0)  Peak_mag     Peak_MJD  log(E_rad)  log(Peak_lum)  Rise_Time    E_fold  tau_1  delta_m15     r_peak     frac 
  -32.53484  0.04906  1.89749     13.40014  1.50729  0.49491   6.96423   0.2135     0.04664  13319.70816   7587.69144  1.03503         2998.37023      16.3539    1e-05  55570.06516   7.37037  0.34166   7981766.46825  44.98858  22.63178  55675.30768    51.37086       44.42228   54.08744    69.541   63.5    0.12929  -22.12624     0.99 
  -19.05225  0.16271  2.79358     13.71967    1.832  0.77298    7.4118  0.22043     0.02221  10836.96182   8782.14551  1.45855          3965.8223     17.43776  0.00015  55583.54775   5.19237  1.20597   4827426.12598  44.95573  22.66564      55676.6     51.4061       44.44826   57.39892    69.541   46.5    0.16482  -22.10995  0.95303 
  -35.64793  0.06102  2.71013     13.65197  1.73788  0.88095   9.36806   0.1669      0.0234  10069.72885   8782.44061  1.15324          3816.5383     18.33417   0.0012  55566.95207   5.66647  0.57167   5886851.42512    44.873  22.64543  55672.78765    51.28275       44.40827   50.77597  55.19127   51.5    0.13498  -22.03194   0.9768 
  -31.43642  0.17105  2.28502     13.41574  1.94681   0.7366   8.98304  0.17652     0.02562  12528.80564   7807.47821  1.67938         3043.69262     19.16273  0.00808  55571.16358   8.41143  1.53651  13913588.66265  44.69695  22.72638  55680.34775    51.37002       44.45832   58.50275   60.7104   60.0    0.13599   -22.1124  0.95715 
  -32.20797  0.05187  2.46876     13.87421  1.64268  0.33682   7.95016   0.2156     0.02679  10322.29864   8494.28316   0.9772          3826.8285      18.2294  0.00094  55570.39203   5.05307   0.4124   1659214.05048  45.47954  22.41253  55665.22755    51.32677       44.47479   44.15302  55.18718   54.0     0.1243  -22.00489  0.98422 
  -22.98299  0.07659  2.42492     13.81773  1.67441  0.42844   8.21599  0.21734     0.01678  10886.37217   8593.41413  1.19913         3614.73285     17.85462   0.0004  55579.61701   5.80836  0.62928   2116469.40772   45.3977  22.70135  55680.34775    51.29878       44.42498   52.98362  55.19127   46.5    0.15841  -22.04184  0.97801 
   -45.4053  0.00483  2.69369     13.82936  1.95948  0.53917  16.69463  0.01424     0.01226   6221.17807   9021.89834  2.16556         3691.71927     20.36813  0.12968   55557.1947   3.85433  0.08063   2896860.84131  45.23836  22.67648      55678.6    51.30395       44.40854   57.39892  57.39892  101.0    0.10929  -22.05741  0.99721 
  -31.96888  0.04502  2.41787     13.87339  1.62614   0.4231  11.50334  0.15342     0.01279   9201.41052   8966.57055  1.21658         4330.07553     18.84897  0.00392  55570.63112   5.80979  0.51786   1581471.04766  45.51408  22.78412      55675.6     51.2884       44.37245   57.39892  61.81422   50.0    0.13896  -22.11123  0.98154 
  -35.62249  0.04684  1.95481     13.23579  1.54649  0.76174  10.34843  0.08169     0.01548   9509.55402   8696.26852  0.55255         4464.31127     17.29797  0.00011  55566.97751   5.58241  0.48471  18526564.28824  44.60819  22.67738      55675.6    51.33456       44.46364   51.87979  55.19127   65.5    0.10447  -21.92902  0.98524 
  -38.27966   0.0164  2.31011     13.56354  1.57558  0.61159   6.37491  0.14845     0.02993   9887.01769   8751.39214  0.87127         4158.34627     17.80138  0.00035  55564.32034   3.71734  0.10452   5826881.57984  44.97358  22.57333      55673.6     51.2943       44.44061   48.56832  52.98362   58.0    0.12469  -22.05382  0.99617 
  -39.59918  0.06252  2.38521     13.49015  1.62775  0.81991  11.66176  0.13989     0.01807   9716.34484   8321.49763  1.39026         3626.82475     19.17319  0.00828  55563.00082   6.56745  0.72904   8998442.12956  44.77121  22.69891  55682.86778    51.29468       44.45726   47.46449  50.77597   59.5    0.11854  -22.02746   0.9736 
  -49.96491  0.06062  2.09266     13.26808  1.42983  0.99658  11.41183  0.12966     0.01824   8843.80889   7822.38299   1.0938         3546.29679     19.22851   0.0094  55552.63509   5.32428   0.6918  16917284.87421   44.5544  22.59937      55672.5    51.35968       44.42879    60.7104  64.02187   70.0    0.09855  -21.91702  0.97561 
  -45.62421  0.03858  2.51319     14.13467  1.61126  0.28568   8.98389  0.26145     0.02843   8586.10196   6274.22012  1.20001         3509.49379      19.3266  0.01178  55556.97579   3.95079  0.34662    508261.78204  45.96947  22.46468  55670.26761    51.36957       44.45925   48.56832  62.91805   63.5    0.10119  -21.86011  0.98669 
  -43.78787   0.0283  2.67555     13.86484  1.74078  0.60494  12.38293  0.16906     0.01649     8460.146   7691.76357  2.35211          3414.5953     19.56874  0.02058  55558.81213   5.28696  0.35046   2156318.43574  45.32105  22.66594      55675.6    51.35658       44.45361   51.87979   60.7104   59.0    0.11061  -21.93646  0.98637 
   -49.3963  0.04751  2.15965     13.38897  1.74977  0.74794  12.66532  0.15166     0.01525  10277.43299   7835.07111  1.51816         2888.86738     18.77714  0.00333   55553.2037   7.98018  0.60172  12636371.24537  44.74144  22.56452      55672.5    51.34201       44.43223   50.77597  62.91805   63.5    0.11413   -21.9795  0.98254 
  -40.51363  0.00464  2.56738     14.03208  1.85377  0.44018   9.87887  0.20538     0.01274   7870.16128    8567.6918  1.16844          3950.7448     20.02737  0.05917  55562.08637   3.65007  0.04582    978769.66253  45.72724  22.68497      55678.6    51.33443       44.42552   54.08744  61.81422   51.5    0.12076  -21.96315   0.9985 
  -29.70597  0.02649  2.68861     13.66944  1.81648  0.87138  11.45108  0.16419     0.01343    9512.9601   8654.56721  1.33582          3762.4215     19.46946  0.01638  55572.89403   6.18166  0.30329   5587484.64526   44.9218   22.7179      55676.6    51.28577        44.4096   49.67214  57.39892   50.5    0.13202  -22.00194  0.98854 
  -37.99706  0.13091  2.44729     13.56391  1.63391  1.07218  12.28466   0.1724     0.01348   9266.37373   8807.90528  1.12266          4013.8163      18.0351   0.0006  55564.60294   6.29231  1.60823   6769990.18431  44.87412  22.66725      55675.6    51.32429       44.41049   54.08744  61.81422   51.5    0.12633  -22.04573  0.94416 
  -34.03225  0.03592  2.74243     13.69472  1.80408  1.00907  14.09085  0.10541     0.01211   8211.22948   9329.31776  1.49016         4276.31311     19.42964  0.01494  55568.56775   5.66736  0.50611   5139220.23715  44.93793  22.66126  55680.34775    51.49337       44.65527   49.67214   50.2725   54.0     0.1217   -22.0863  0.98043 
  -42.23789   0.0643  2.67917     13.69392  1.81653   0.9886   9.40247  0.22259     0.02257   9575.26151   7952.86145  1.37567         3764.32253     18.44733  0.00156  55560.36211   5.14245  0.60463   4956956.67402  44.97687  22.67232      55677.6     51.3495       44.47986   51.87979  55.19127   54.0     0.1207  -22.04943  0.97798 
  -19.86335  0.01177  2.83649     14.23098  1.96517  0.29315    9.2734  0.20946     0.02427   9958.29691     8632.133   1.3818         4958.54653     18.26625  0.00103  55582.73665   5.48575   0.1091    506776.28287  45.95187  22.80191  55670.26761    51.31167       44.36828   61.81422   65.1257   50.5    0.13652  -22.29706  0.99599 
  -38.11961  0.00613   2.3441     14.26931  1.62413  0.13589   5.66584  0.31682     0.02687   8820.60206   6403.92298   2.0092         3479.95872     20.03017  0.05955  55564.48039   2.62959  0.03475    239752.33558  46.35975   22.8959  55680.34775    51.26963       44.37238   55.66958  58.02443   63.0    0.12075  -22.02484  0.99878 
   -25.9727  0.01404   2.4605      14.0084  1.67075   0.4633   9.80755  0.20624     0.03257   9506.69666   7467.62814   1.9703          4113.6946     19.88865  0.04299   55576.6273   5.28746  0.13774    903584.33976  45.75374  22.74791      55678.6    51.30828       44.39928   57.39892  59.60657   56.5    0.11131  -22.24461  0.99522 
  -37.38242  0.06536  1.78685     13.35322  1.61422  0.47931   8.29129  0.17532     0.04975   13821.8706   6367.10694  1.89492         3009.79058       17.178    8e-05  55565.21758   9.44894  0.54195   9408504.47815  44.99911  22.57727  55682.86778    51.34577       44.43441   54.08744  61.81422   76.5    0.11265  -22.25598  0.98658 
  -27.80488  0.08659  2.48907     13.51879  1.63503   0.9393   7.56993  0.17452      0.0206  10335.97553   8734.83822  1.26856          3766.2851     18.57533  0.00209  55574.79512   4.82416  0.65547   8626585.88712  44.75446  22.61693      55674.5    51.33285       44.43481    56.2951  58.50275   50.0    0.15319   -22.0476  0.97492 
  -32.28452  0.13349  2.51595     13.56511   1.6461  0.83412   8.02158  0.19701      0.0279  10937.34466   8156.77552  1.25449         3610.32698     18.24601  0.00098  55570.31548   5.72415  1.07083   7168825.01933  44.82845  22.57702      55675.6    51.28462       44.40009   50.77597  57.39892   52.5    0.13656  -22.07981  0.95926 
  -29.82977  0.05015  2.21646     13.48643  1.51631  0.67991   7.11734  0.20617     0.03968  12462.14087   7774.98092   1.1359         3419.63899     18.06841  0.00065  55572.77023   6.59372  0.35695   7363214.77372  44.89125  22.70653      55672.5    51.26938       44.41102   49.67214  52.98362   57.0    0.14217  -22.13903  0.98731 
  -32.56336  0.02361  2.59355      13.5407  1.75522  0.94142   8.55895  0.13441     0.01414   8590.88022   9346.42889  1.29814          3793.5366     19.15941  0.00802  55570.03664    3.7681  0.20208    9089384.1054  44.72685  22.68067      55673.6    51.38035       44.41608    56.2951  71.74865   51.5    0.13699  -21.94552  0.99225 
  -32.53161  0.09511  2.03507     13.35343   1.7878  0.65127   7.86625  0.15354     0.04288  13974.41274   7529.89504  1.76238         3257.08469     18.26832  0.00103  55570.06839   9.16351  0.74819  13503105.39343  44.77357   22.6013      55672.5    51.34614       44.44495   52.98362   60.7104   66.5    0.12713  -22.25235  0.98017 
  -28.26872  0.10298   2.9567     13.78594  1.81732  0.88471   8.97878  0.17901     0.02355    9812.4528   8959.25336  1.31192         3836.33533     17.62178  0.00023  55574.33128   5.15703  0.92466   3953476.63613  44.98968  22.61373  55680.34775    51.32522       44.45696   49.67214  55.19127   49.0    0.13713  -21.99559  0.95992 
  -34.37015  0.04838  2.63032     13.58226  1.71944  0.95992  11.35703  0.11599     0.01051   8077.47139   9425.19838   1.1973         3914.25374     19.63665  0.02406  55568.22985   4.42021  0.54951   7562954.95888  44.78552  22.69665      55673.6    51.36493       44.42718   59.60657   65.1257   51.0    0.12805  -21.91149  0.97841 
  -36.93874  0.00747  2.15802     14.13439  1.44562  0.32394  15.08736  0.15824      0.0195   7633.84923   6929.32766  1.62532         3864.75747     18.74678   0.0031  55565.66126   5.24478  0.11269    336671.52254  46.23358  22.67008  55677.82771    51.27814       44.39848   54.08744  55.19127   64.5    0.08637  -21.91196   0.9963 
  -25.19927  0.06377  2.81281     13.75953  1.76115  0.61757   7.51733  0.13552     0.03395   10515.4784   9070.01814  1.27969         3996.74968      17.4543  0.00016  55577.40073   4.95848  0.47941   3915825.23567  45.02354  22.72468      55678.6    51.31051       44.43159   54.08744   56.2951   53.0    0.13542  -22.07399  0.97912 
  -39.01864  0.04788   2.5315     13.73164   1.6524  0.53405   12.9175   0.1344     0.01713    9656.6104   8429.39535  1.63343         3481.67096     19.25433  0.00998  55563.58136   7.18547  0.61847   3383855.97649  45.15079  22.80388  55680.34775     51.3163       44.38818   58.50275  62.91805   57.5    0.11494  -22.00043   0.9759 
  -45.06627  0.01586  2.26174     13.64045  1.58459  0.95577  12.69879   0.2267     0.01313    8723.5842   7248.16739  1.47471         3537.26739     19.12589  0.00742  55557.53373   5.76474  0.20139   3941964.07094  45.16416  22.54978      55676.6    51.32759       44.45271   51.87979   56.2951   57.5    0.11454  -21.93596  0.99356 
   -27.9893  0.00862  2.57849     13.75489   1.8083  0.84978  11.09154  0.15717     0.01114   8674.53067   9613.03462   1.5224         4017.29214     20.20376  0.08881   55574.6107   4.97864  0.09565   3451807.12986  45.16534  22.68767      55678.6    51.29155       44.40385   55.19127   56.2951   47.0    0.14627  -22.10784  0.99672 
   -30.6629  0.07272  2.44084     13.77948    1.587  0.48005  11.34917  0.11885     0.01361   9284.74925    9317.0477  1.14321         4431.59683     18.18802  0.00086   55571.9371   5.83622  0.82526   2423868.94513  45.30983  22.66782      55676.6    51.29385       44.42444   51.87979  55.19127   50.5    0.13845   -22.1077   0.9689 
  -24.49212  0.03609  2.00505     13.36909   1.5938  0.63827  10.65321  0.07917     0.01458  10945.92838   9172.25365  1.33154          4250.9471     19.19684  0.00874  55578.10788     7.614  0.38445  10872458.04236   44.8307  22.58657  55665.22755    51.33256       44.43375   49.13438  61.24816   56.0    0.14493   -22.1901  0.98873 
  -26.22931  0.00645  2.72676     13.78211  1.88325  0.84421  10.63717  0.13249     0.01106   7825.29679   9750.02343  1.63544         4125.09701     20.16218  0.08071  55576.37069   3.88557  0.06861   3546431.36974  45.12267  22.79622      55672.5    51.32906       44.35631   67.33335  68.43717   49.0    0.13278  -22.09376  0.99751 
  -37.87036  0.09517  2.64401     13.63402  1.74972  0.92953  10.18039  0.15442     0.01711   9832.16288   8464.51435  1.29644         3651.62515     17.81255  0.00036  55564.72964    5.8707  0.96889   6127287.15967  44.88002  22.50977  55665.22755    51.34911       44.45721   50.01042  59.26829   50.5    0.13606  -22.04718  0.96355 
   -26.6979  0.02855  2.74415     13.91576  1.76058  0.76089  11.60523  0.15583     0.01704   8951.41085   8639.01492  1.97739         3520.87311     19.24885  0.00985   55575.9021   5.54707  0.33137   1814559.56922  45.37891  22.65592  55672.78765    51.37034       44.42711   57.39892  67.33335   49.0    0.12604  -21.97207  0.98696 
  -29.06883  0.01313  2.79516     13.70786  1.97738  1.03407    9.4873  0.18144     0.02072  10312.73857   8723.25184  1.50809         4274.04704     19.05443   0.0063  55573.53117   6.01891  0.12457   5508033.56475  44.93112  22.53089      55673.6    51.32486       44.46467   50.77597  54.08744   49.0    0.14688  -22.26035  0.99555 
  -37.36359  0.02452  2.43826     14.15728  1.78714  0.28765  12.53758  0.26585     0.01246   9839.76525   7957.71308  1.77079         3484.97918     19.09666  0.00694  55565.23641    7.2412  0.30742    478170.48487  46.06726  22.70809      55678.6    51.29849       44.42587   49.67214   56.2951   53.0    0.12522    -22.016  0.99046 
  -25.43534  0.06163  2.71785     13.68721  1.74897  0.91607    9.8813  0.14584     0.01578    9263.1095   9251.69452  1.10526         4197.61814     18.94068  0.00485  55577.16466   5.05772    0.609   5065534.85164  44.93855  22.60095  55667.74758    51.33787       44.45038   47.46449   60.7104   48.5    0.14485  -22.03869  0.97574 
  -29.46055     0.02  2.73518     13.78894  1.75282  0.79935   9.20839  0.19974     0.02437   9626.60919   8009.33123   1.7276         3451.46988     19.68798  0.02708  55573.13945   5.09047   0.1842   3218458.79844  45.13096   22.6576  55682.86778    51.32734       44.43602   55.19127  57.39892   51.5    0.12832  -22.00905  0.99257 
  -23.50744  0.09161  2.66171     13.85759  1.68193   0.4993   7.06284  0.19962     0.03672  11608.48474   8745.88704  1.00137         4253.04992      17.3102  0.00011  55579.09256   5.67751  0.64703   2131891.28083  45.31557  22.73061  55680.34775    51.28729       44.36843   57.39892  61.81422   47.5    0.15602   -22.1691  0.97363 
  -43.42617  0.03999  2.60108     13.67431  1.79918  0.85502  13.32843  0.13698     0.01288    9131.9334   8296.47042  2.06085         3549.06061     19.26904  0.01032  55559.17383   6.63028  0.53304   5064898.05008  44.98904  22.63226  55670.26761    51.33825       44.42842   52.98362  61.81422   54.5    0.12992  -22.07719  0.98112 
   -45.0928  0.14372    2.913     13.74168  1.89884   0.8566  10.18042  0.16136     0.02822   9165.58094   8697.31169  1.23791         3869.32603     18.48535   0.0017   55557.5072   5.10167  1.46315   4916103.08256  44.92703  22.68366  55680.34775    51.27394       44.40833   52.98362  54.08744   58.5    0.10746  -22.01242  0.94244 
  -28.43202   0.1138  2.26277     13.35841  1.54008  0.96998   8.25666  0.17854     0.03319  11752.64205   8196.54021  1.35537         3560.47232     17.85596   0.0004  55574.16798   6.80303  0.93958  14054738.17071  44.59929   22.6005  55670.26761    51.29697       44.42783   50.77597  55.19127   57.5    0.13119  -22.10824  0.96623 
  -43.47838  0.02124  2.38201     13.68984  1.83481  0.52909  12.96372  0.16696     0.01339   9617.99428   8089.19025  2.06986           3404.428     20.03625  0.06039  55559.12162   7.15362  0.27532   4032779.31635  45.17295  22.64426      55678.6    51.30066       44.44341   51.87979  52.98362   61.0    0.11204  -22.08471  0.99154 
  -20.59319  0.03566  2.70485     14.00217  1.80005  0.55926   9.95754  0.22944     0.01854  10221.20378   8873.12548  1.02939         4116.25629     18.29816   0.0011  55582.00681   6.20559  0.35507   1210730.77586   45.5768  22.61391  55670.26761    51.32099       44.40702   54.08744  61.81422   43.5    0.15152  -22.03118  0.98681 
  -29.02064   0.0102  1.99304      13.6075   1.7731  1.07235   8.41478   0.1859     0.01564   9519.36241   9141.60887  0.99854         4419.07521     20.78074  0.33533  55573.57936   4.54868   0.0858   3986460.81549  45.31796  22.63301  55677.82771    51.28215       44.40734   51.87979   56.2951   46.5    0.14732  -22.52002   0.9982 
  -27.72846  0.09312  2.12984     13.69118   1.6397  0.35872   8.63014  0.22316     0.02865  13116.00084   7336.67072  1.88892         2898.42533     17.63472  0.00024  55574.87154   8.85621  0.80363   2863634.84347     45.37   22.5333  55670.26761    51.30248       44.44194   50.77597  52.98362   57.0    0.14375  -22.15337  0.97596 
  -31.32188  0.13766  2.50609     13.50264  1.66104  0.99593   8.60569  0.19099     0.02509  10193.20611    8499.1703  1.09262         4076.63072     17.93286  0.00048  55571.27812   5.33377  1.18464   9569961.18737  44.71032  22.55099  55667.74758    51.33993       44.44563   52.98362  58.50275   55.0    0.12934  -22.08627  0.95586 
  -43.03672  0.01383   0.8933     12.92034  1.63154  0.32135   20.6446  0.09333     0.01351  15109.85197   6936.66032  1.47603         2851.15205       17.535  0.00019  55559.56328  28.11603  0.28557   17447569.2114  45.33771  22.47538  55680.34775    51.34125       44.44984   51.87979  59.60657   77.0    0.12322  -22.36333  0.99691 
   -35.1753  0.02299  2.66218     13.80937  1.74671  0.71181  10.96744  0.16345     0.01644    8724.9892   8441.43374  1.75496          3725.8565     19.26119  0.01014   55567.4247   4.98038  0.25211   2765521.46986  45.21882  22.64317  55685.38781    51.29407       44.42449   54.08744  54.08744   52.5    0.11989  -22.02957  0.99032 
  -33.40924  0.05211  2.60652     13.84999  1.62252  0.66345  13.10738  0.16784     0.01269    8816.6168    9036.0345  2.15792         3349.45914     19.21114  0.00903  55569.19076   6.07781  0.68306   2042416.79254  45.33677  22.81679      55674.5    51.31228       44.38706   59.60657  62.91805   48.5    0.12328  -21.89768  0.97269 
   -19.0937  0.08226  2.79129     13.74174  1.77017  1.14898  11.77469  0.16214     0.01531   9765.25046   9049.59255  1.26815         4025.15895     18.34703  0.00124   55583.5063   6.69798  0.96863   4206964.95814  45.00128  22.79948      55677.6    51.27542       44.38183   51.87979  58.50275   46.5    0.14831  -22.02698   0.9615 
