 log(Bfield)      Mns    Pspin  cutoff_power  cutoff_wavelength  fnickel    kappa  kappagamma   mejecta  log(nhhost)  temperature  texplosion  thetaPB      vejecta      A_V        MJD_0   log(KE)      M_Ni  Peak_mag     Peak_MJD 
    13.07294  1.98791  1.82414       3.50447         2255.74462  0.31533  0.05894     0.01568  52.26476     17.53392   6275.60902    -28.7448  0.82202  20737.68228  0.00019   55573.8552  53.36635  28.57397  22.78921      55676.6 
    13.42384  1.44502  1.83145       1.46742         2668.19401  0.02795  0.25906     0.01094  18.56689     17.37843   7823.99939   -44.16546  1.41077  10910.43397  0.00013  55558.43454  52.73011   2.11403  22.78025  55677.71504 
    13.51221  1.83035  2.39314       0.20562         2260.87728  0.07122  0.32803     0.09441  11.96572      19.1187   5556.78658   -39.99534  1.53817  16195.56254   0.0073  55562.60466  53.03512   4.93487  22.59894      55673.6 
    14.09382  2.04523   2.6772       0.81124         5410.65177  0.02543   0.1093     0.02001  12.34765     20.51645   9052.89565   -23.12748  0.32891   9311.92577  0.18247  55579.47252  52.55725   1.77388  22.71352      55678.6 
    14.30089  1.61339  2.03238       0.43629         3060.83211  0.14629  0.29339     0.02287  20.03569     17.06132   6940.47318   -28.59143  0.17014  15669.76092    6e-05  55574.00857  53.05083  11.22772  22.82949  55680.74637 
     13.4864  1.57128  1.49529       2.21764         2000.41985  0.03594  0.30103      0.0106  16.98972     17.80931   7415.03879   -40.36527  0.44322  14002.12136  0.00036  55562.23473  52.93938   2.67273  22.56491  55668.62105 
    13.47734  1.63311  2.32476         0.585         2773.80524  0.19589  0.11004     0.02818  27.04461     16.90893   7126.75244   -47.46654  0.83916  14692.91957    5e-05  55555.13346   53.0188   15.8846  22.77874      55675.6 
    13.46482  1.81524  2.37595       3.73746         2125.16108  0.06841  0.24631     0.04051  14.33212     16.23022   6783.74266   -31.04693  1.50662  15623.74783    1e-05  55571.55307  53.01996   4.91927   22.6726   55662.5584 
    13.36136  1.65171  2.04596       0.76423          5498.8436  0.02836  0.08435     0.01024  21.61258     18.50137   8044.68182    -56.1983  0.89141    9255.1915  0.00176   55546.4017  52.59963   2.20735  22.71716  55668.62105 
    13.69092  2.06172  2.60006        0.5376         2184.96574  0.11887  0.13942     0.01267  35.38751     16.60516   7623.36875   -37.06377  1.56413  14039.54288    2e-05  55565.53623  52.99963  10.10091  22.72735  55665.58972 
    13.23058   1.3957  1.75057       2.69849         2244.77975  0.09184  0.14372     0.01536  31.36917     19.68597   6669.09484   -49.65933  1.24995  15089.89234  0.02696  55552.94067   53.0533   7.64421  22.76382  55680.74637 
    13.47654  1.62853   2.3933       0.06696         5728.69345  0.06145  0.05662     0.01289  51.97654     18.68896   7377.56877   -34.49712  1.54929  14893.76221  0.00271  55568.10288  53.07846   5.56316   22.6181  55668.62105 
    13.25897  1.76705  1.54086       2.10822         2359.18289  0.17395  0.09442     0.02882  21.12044     16.62539   6894.65052   -33.29696   0.4064  17521.00543    2e-05  55569.30304  53.15212  13.48315  22.76088  55683.77769 
    13.36493  1.44844  1.93602       2.39641         2029.74367  0.04035  0.31605     0.04999  13.36394     19.83948   7405.76365   -56.78744  1.41398  12657.87034  0.03839  55545.81256  52.83096   2.86023   22.7989  55683.77769 
    13.96181  2.18512    2.442        0.1598          4369.9669  0.05966  0.25011     0.01511  23.94445       18.576   7809.63069   -30.03111  0.70885  13574.88439  0.00209  55572.56889  52.94052   4.73282  22.76696      55678.6 
    13.75811  1.58464  1.60436       0.38841         2695.51943    0.043   0.2794     0.01088  18.40497      19.4484   7529.05754   -38.10501  0.26491  14024.61112   0.0156  55564.49499  52.94748   3.24737  22.72461      55675.6 
    13.75274  1.73829  2.15175       0.12186         3249.66081  0.14889   0.2699     0.16504  22.73537     16.38838   5596.34648   -27.78839   1.1164  17554.62848    1e-05  55574.81161  53.15971  11.69959  22.69227  55677.71504 
    13.12885  1.50053  1.63686       0.84284         3610.07615  0.00209  0.31529     0.01157   9.76341     16.24028   7453.64726   -81.95103  1.14408   7804.73772    1e-05  55520.64897  52.38221   0.13862  22.64639  55668.62105 
    13.29193  1.92739  2.19797       0.29457         3154.95625  0.16938  0.03471      0.0123  44.83618     16.86821   6627.82784   -29.70057  0.79879  16281.29694    4e-05  55572.89943  53.14545  14.97268  22.71643  55683.77769 
    13.47237  1.65202  1.34437       0.54017         2592.86799  0.17382   0.3338     0.10246   3.89081     17.93401   7363.13262    -39.8888  0.18258  14635.50126  0.00048   55562.7112  52.83111   9.22085   22.6921  55671.65238 
    13.22116  1.63542  1.84344       0.42227         4915.25791  0.08063  0.21317      0.0217   8.79578     20.55729   7719.25537   -52.96145    1.538   9858.79546  0.20046  55549.63855  52.57515   5.22857  22.75028  55665.58972 
    13.91259  1.69769  2.31863       1.40532         3649.39967  0.03068  0.25122     0.02881   6.50546     19.35047   7114.93494   -35.59367  0.26717   9772.81081  0.01245  55567.00633  52.53729   1.85549  22.78576  55677.71504 
     13.8559  1.74403  2.66074       0.38309         5190.69099  0.32668  0.08679     0.01042  54.17247     17.12657   7181.04598    -28.5217  1.53372  14008.69325    7e-05   55574.0783  53.02811  29.77225  22.65731      55675.6 
    13.74356  2.01479  2.77628       1.88168         2082.14458  0.33564  0.12808       0.056  15.33458     16.20636   7781.90688    -26.4597  0.51416  16479.11695    1e-05   55576.1403  53.07212  24.46256  22.70129      55677.6 
    13.15236  1.81444   1.9751       0.12816         4040.75918  0.05338  0.20016     0.03337   7.47372     19.80137   7908.38986   -43.09965  1.29783   11752.0882  0.03516  55559.50035  52.71166   3.33575  22.71026      55675.6 
    13.55723  1.96558  2.10433       0.04225          2430.6271  0.08413  0.31854     0.01509  21.62788     18.51441    6580.0507   -33.34758   1.3715  14841.17074  0.00182  55569.25242  53.00986   6.54972  22.84051  55683.77769 
    13.80361  1.98609   2.8776       0.14795         2862.01774   0.0612  0.13125     0.11415  18.22662     16.19124   6060.00637   -30.30442  0.68666  14711.68595    1e-05  55572.29558  52.98822   4.61332  22.85902  55683.77769 
    13.14043   1.3218  1.66134       0.17878         3508.99263  0.02489  0.15816     0.01293  16.66353     20.21114   7161.37436   -64.38907  1.22793   9660.03487  0.09034  55538.21093  52.61531    1.8437  22.60647  55671.65238 
    13.48655  1.44067   1.7848       0.28654         3091.66474  0.03388  0.17921     0.01287  30.69325     16.66866   6370.97512   -53.95769  1.11123  12482.06458    3e-05  55548.64231  52.88685   2.80928  22.68875      55675.6 
    13.38139  2.02545  2.37736       1.08538         2684.54412   0.0324  0.14526     0.02797   14.6962     17.09842   6834.58515   -47.15782  1.15146  13220.98647    7e-05  55555.44218   52.8771   2.34158  22.69426      55678.6 
    13.63561  1.72524  1.92976       4.99108         2065.88657  0.41021  0.29634     0.01283  25.78491     19.92314   7855.15925   -36.30538  1.54053  13738.89034  0.04654  55566.29462  52.95678  32.98027  22.79462      55678.6 
    13.24787  2.01663  2.18096       0.36934         2171.67035  0.08323  0.08803     0.02494  27.64678     19.13792   5874.81362   -46.53871  1.30561  15985.36197  0.00763  55556.06129  53.09373   6.77552  22.76176      55675.6 
    13.82054  1.72706  2.29931       0.95112         2887.10379  0.07999  0.13316     0.01685  21.20676     17.55246   7170.44882   -31.24506  0.37576   13886.4571   0.0002  55571.35494  52.95051   6.20525  22.77229  55680.74637 
    13.51292  1.53146  3.39519       0.56524         2029.73506  0.47212  0.05671     0.01861  54.62181     18.13703   6084.63294   -47.20898   1.1942   16904.1949  0.00076  55555.39102  53.19187  43.08256  22.78918      55678.6 
    13.43737  1.70224  2.40795       1.03891         4915.06487  0.00231  0.28813     0.18337   3.68213     16.99272   7864.82623   -51.33746  1.22443   8440.57764    5e-05  55551.26254  52.34647   0.12072  22.73998      55677.6 
    12.97446  1.38914  1.07243       1.47613         2129.57682  0.26269  0.29142     0.01285  16.82956     20.89876   6686.18323   -53.63647  1.00356    14246.325  0.44004  55548.96353   52.9536  19.49899  22.79718      55675.6 
    13.82839  1.63336  3.29399       0.25425         2723.69188  0.42236  0.07451     0.02475  42.41372     17.86067   8210.19543   -37.10269  1.45582  13247.85119   0.0004  55565.49731   52.9624  36.99692  22.61305      55678.6 
    13.40003  1.63059  2.17382       0.51109         3909.56262  0.10507  0.11825     0.05549   8.33368     19.94018   7521.18449   -35.47759  0.76799   12565.9611  0.04841  55567.12241  52.78063   6.73137  22.63279   55662.5584 
     13.4135  1.70589   2.3932       1.41952          4286.8446  0.00448  0.10344     0.01412   6.76099     20.11174   9553.88222   -40.05548  1.24433   6234.50544  0.07186  55562.54452  52.15084   0.27339   22.5465  55665.58972 
    13.32555  1.58146  2.33272       0.36838         2330.50984  0.14301  0.07254     0.02742  32.47693     18.75209   6613.19101   -29.81913  1.32122  16107.96519  0.00314  55572.78087  53.11262  11.97481  22.79724  55680.74637 
     13.5439  1.68398  2.44851       0.47381         3014.35818  0.04605  0.05667     0.01783  37.66239     17.66697   6744.60236     -53.334  0.87316  11385.57303  0.00026    55549.266  52.82222   3.95434  22.73627      55677.6 
    13.52802  1.97505  2.33439       0.25494         4206.04053  0.49797  0.21214     0.01198  23.69168     19.59366   7570.89001   -40.03916  1.08989  14168.61331   0.0218  55562.56084  52.97686  39.42663  22.69596      55672.5 
    14.42137  1.68759  3.03275       0.81204         3118.35537  0.34357   0.0344     0.01105  70.60953     18.99577   6766.08409   -22.58346  1.43667   12420.2999   0.0055  55580.01654  52.94146    32.628  22.75133      55674.5 
    13.44683  1.80619  2.67064       0.13151         2598.30933  0.35346   0.1211     0.02593  21.35193     16.44263   6817.82036   -44.21035  1.20811  13091.90254    2e-05  55558.38965  52.89989  27.45362   22.4856   55662.5584 
    13.44007  1.47844  1.24802       0.49069         2273.58072  0.20869  0.19085     0.01247  34.92232     21.02058   7173.97523   -33.58707   0.9933  16481.58728  0.58252  55569.01293  53.13795  17.69404  22.68256      55672.5 
    13.53897  1.53351   2.0858       0.65749         4213.05634  0.06379  0.10687     0.01827   15.4816     18.42831   7688.62223   -36.24743   0.5131  11684.28134  0.00149  55566.35257  52.77428    4.6577  22.64801      55673.6 
    13.26829   1.9497  2.36101       1.80471         2607.96558  0.35874  0.13844     0.02131  17.45939     17.70958   7399.28329   -31.39756  1.51051  14504.29565  0.00028  55571.20244  52.97229  26.81924   22.6616      55675.6 
     13.6515  1.17593  1.72916       0.01327         2557.66675  0.10227  0.26081     0.03876  18.25191     18.09046   6449.61302   -18.59151  0.77172  14475.89307  0.00068  55584.00849   52.9743   7.71128  22.78611      55677.6 
    13.80898  1.76593  2.40409       0.87533         2169.74498  0.47893  0.27948     0.03597  19.97577     16.45975   6898.99665   -36.87696  0.80319  16219.58689    2e-05  55565.72304  53.08054  36.73699  22.60772  55665.58972 
    14.14772  1.91812  3.00487       0.08596         4559.50445  0.45031  0.08597     0.05092  49.30092     20.54568   6210.77443   -23.21764  0.38774  22313.66067  0.19517  55579.38236  53.42591  40.42563  22.80491  55680.74637 
    15.02747   1.7871  6.13718       1.44758         5861.43136  0.49262  0.01178     0.01139  56.65487     19.68547   7840.73113      -8.739  0.96259   7224.97543  0.02693    55593.861  52.45606  45.21362  22.70025  55683.77769 
    13.59549  1.66192  2.67478       3.47488         2207.41058   0.2138  0.05849     0.01027  84.53478     18.15868   6396.75712   -40.22674  1.54185  17673.92097   0.0008  55562.37326  53.25961  20.86046  22.73873      55673.6 
    14.18045  1.72191   2.3437       0.07486         4447.64223  0.12283  0.08314     0.02107  55.23538     16.43334   7022.45957   -19.64341  0.47553  13979.91596    2e-05  55582.95659  53.02766  11.22886  22.73911      55674.5 
    13.74754   1.6251  2.85817        0.0256         2520.71322  0.36262  0.09493     0.01732   37.2879     18.02752   7591.59016   -33.18199  1.33314  13248.09239  0.00059  55569.41801  52.95308  31.08832  22.72597  55665.58972 
    13.21989  1.69222  1.57072       1.16164         2516.54963   0.0737  0.12677     0.01296    20.155     20.72337   7430.79937   -46.97733   0.8117  13323.99035  0.29383  55555.62267  52.91046    5.6629  22.84916  55680.74637 
    13.70129  1.62626  2.66867       1.63655         3700.29332  0.03766  0.16653     0.05278   4.71547     17.38442   8984.20572   -36.04943  0.58439   7347.21116  0.00013  55566.55057  52.25473   2.10252  22.69896  55680.74637 
    13.82174  2.14824  2.87851       3.34839         2209.16463  0.30903  0.18693     0.01897  25.93202     17.98371   7065.03139   -50.88134  1.03473  12273.63495  0.00054  55551.71866  52.85927  24.87065  22.70893      55677.6 
     13.9905  1.80075  4.24541       0.77006         2088.89221  0.29743  0.03183     0.01099  85.36048      20.4026   6556.00709   -24.02551  0.78059  16736.88833  0.14039  55578.57449  53.21292  29.06221  22.66925  55680.74637 
    13.14339  1.33475  1.53522       0.64291         2492.82165   0.0616  0.33906     0.02513  16.70178     17.81582   6267.83761   -49.66803  1.38132    15565.868  0.00036  55552.93197   53.0299   4.56547    22.653  55665.58972 
    12.59396  1.80633  0.86563       0.86641         3362.96845   0.0956  0.05006     0.01285  24.77717     16.04388   6338.53041   -38.91058  0.52969  13031.48792    1e-05  55563.68942  52.90774   7.63102  22.72919      55678.6 
    13.85065  1.70306  2.16895       4.04329         2189.38531  0.31195  0.06506     0.01162  42.31839      18.9918   6968.08874   -39.22333  0.20905   15790.6846  0.00545  55563.37667  53.11475   27.3151  22.66442  55665.58972 
    13.56982  1.52636  2.25843       0.72555         2264.74681  0.24067   0.1364     0.04174  17.98735     18.99259   6688.74113   -34.82154  0.57603  15442.61568  0.00546  55567.77846  53.02923  18.09599  22.81982  55680.74637 
    12.69541  1.45916  1.19919        3.0968         2213.63175  0.17606  0.09286     0.01856  29.06028     19.20905   6607.92352    -30.8838  1.13136  18003.84698  0.00899   55571.7162  53.20085  14.45938  22.67834      55676.6 
    13.80686  1.65812  3.22612       1.07343         4289.38287  0.48615  0.07334     0.01129  29.56241     17.90181   8942.28517   -24.76847  1.38262  10946.71906  0.00044  55577.83153  52.76999   40.0472  22.70933  55668.62105 
    13.36958  1.58641  2.50401       1.90119         3393.21159  0.06762    0.116     0.01169   9.12154     17.91313    9386.5466   -32.63099  1.53867   7499.77818  0.00045  55569.96901   52.3411   4.42026  22.78516      55677.6 
    13.10403  1.62887  1.72065        2.0041         2047.32096  0.18284  0.17806     0.02054    16.039     16.62658   7424.07456   -30.67923  1.12611  15531.64274    2e-05  55571.92077  53.02454  13.44447  22.72863      55675.6 
     13.3885  1.55014  2.22664       0.87022         3639.89955  0.03275  0.12182     0.03689   9.97915     19.30944   7031.69962   -51.83616  0.89721   9745.15778  0.01133  55550.76384  52.57713   2.18334  22.76846      55678.6 
    14.14478   1.4984  2.11337       2.95635         2529.03208   0.1376  0.08002     0.01668  72.64843     17.88817   6790.62961   -31.83189  0.30566  17781.26574  0.00043  55570.76811    53.255  13.12382   22.6003  55668.62105 
    13.23008  1.36109  1.30439       0.58657         2675.54372  0.01841  0.33475     0.01569  11.42478     18.09864     7342.231   -55.82112  0.47527  12253.31856   0.0007  55546.77888  52.78863    1.2631  22.78327  55683.77769 
    12.52276  1.18913  0.88388       1.88132          3028.4725  0.02134  0.08795     0.02336   8.80715     19.49777   7644.90653   -26.51138  0.73553  12853.47427  0.01748  55576.08862  52.80567   1.38447  22.77387  55665.58972 
    13.34291  1.67977  2.22073       0.27445         3463.52518   0.1678  0.10301     0.01098  31.79193     18.96619   7268.23478   -50.58693  1.31308  12589.63438  0.00514  55552.01307  52.89696  13.99916  22.54047  55659.52707 
    13.43268  1.26534  1.85989       0.46667         3604.05621  0.07227  0.07104     0.01235  36.86609      19.0153   6936.12347   -31.27575    0.591  14586.46255  0.00575  55571.32425  53.03584   6.18441  22.69047      55676.6 
    13.05281  1.85172  1.86284       0.42189         2376.14328  0.05092  0.03976     0.01291  30.45361     19.39875    6658.5884   -34.38342  1.23189  14168.23749  0.01391  55568.21658  52.99632   4.21655  22.78626  55686.80902 
    13.92296  1.44274  2.25648       0.41492         2097.84613  0.27958  0.04358     0.01942  37.87121     19.61037   6331.06513   -22.86584  0.17988  16833.98441  0.02265  55579.73416  53.16229  24.03204  22.67136      55672.5 
    14.13399  1.57053  1.98816       1.82066          2563.5353  0.06782  0.33686     0.02132  16.00574     19.07575   6616.17528    -30.2079  0.23898  13817.06564  0.00661   55572.3921  52.92276   4.98487  22.74369  55683.77769 
    13.20405   1.5522  2.09735       0.91671         2738.45569  0.24651  0.05772     0.01284  36.16476     16.43438   6496.81814   -40.98474   1.0023  14075.93584    2e-05  55561.61526  53.00348  21.02515  22.58268  55671.65238 
    13.39477  1.57109   1.7269       0.03579         4467.39282  0.07525  0.14946      0.0165  37.36594     20.66123   7070.80608   -40.36513  1.38723  16329.03524  0.25466  55562.23487  53.13485   6.45399  22.64224      55673.6 
    13.50678   1.7313  2.97423        0.2348         2155.84041  0.20048  0.04076     0.03226  67.84716      19.2428   5985.06613   -26.74248  1.54492  19217.28576  0.00972  55575.85752  53.31794  18.92316  22.84681  55680.74637 
    13.40056  1.64075  1.80458        0.2327         2039.20705  0.15336  0.23155       0.017  26.27336     16.39284   4566.96687   -82.25089  0.85824  13071.89091    1e-05  55520.34911  52.91502   12.3717  22.78821  55671.65238 
     13.7671  1.83856  3.41026       0.48515         2627.86721  0.48074  0.10189     0.01627   37.6205     18.72927   6808.22103   -35.48121  1.23578   14324.1812  0.00298  55567.11879  53.02157  41.27687  22.65537      55675.6 
     13.2273   1.5101  1.90372       3.04354         2021.99246  0.05899  0.09595     0.02286  19.87063     19.62218   6628.37936   -38.77757    0.909  14181.40844  0.02328  55563.82243  52.96347   4.52068  22.61733      55675.6 
    13.78948   1.7296  3.00777       0.26221         2568.29199  0.49137  0.07107     0.02531  29.88681     19.88482   7245.91213   -20.79553  0.44168   16427.1394  0.04261  55581.80447  53.12338  40.55425  22.77505  55686.80902 
    13.68226  1.72903  2.31701       0.58473         3637.06147  0.06072  0.28989     0.07547   4.52779     19.61242   7341.73586   -35.36884  0.41183  11435.62516  0.02276  55567.23116  52.63441   3.35438  22.67099  55674.68371 
    13.66415  1.81842  3.44346       2.06122           2113.907  0.44826  0.08633     0.01203  53.51649     18.02296   6706.14575   -26.40672  1.50847  18055.99848  0.00059  55576.19328  53.24771  40.77282  22.69786  55674.68371 
    13.54938  1.70379  1.94883       0.05816         4277.18316  0.06347  0.22656     0.01697   31.1519     16.39056   7100.97266   -37.11554  0.97641  16211.90153    1e-05  55565.48446  53.11507   5.27624   22.6855  55668.62105 
