 log(Bfield)      Mns     Pspin  cutoff_power  cutoff_wavelength  fnickel    kappa  kappagamma   mejecta  log(nhhost)  temperature  texplosion  thetaPB     vejecta      A_V        MJD_0   log(KE)      M_Ni  Peak_mag     Peak_MJD 
    13.82253  1.91489  29.54281       3.42054         2024.88086  0.11351  0.01005     0.26078  13.42944     16.68044   6097.06725   -17.31371  0.23688   4703.1388    3e-05  59421.13284  51.97144   8.05494  19.54966  59454.38817 
    14.22055  1.98262  18.91006       0.14017         4398.01015  0.12791  0.01528     0.15528    8.7324     16.03569   5698.08155   -11.96873  0.83109  4502.58887    1e-05  59426.47782  51.89372   8.28105  19.56092   59451.9136 
    14.06205  1.62709  10.39943       4.24707         2065.88484  0.25849  0.06405     0.39222   6.07656     20.89554   5574.70572   -17.38554   0.4854  5937.48239  0.43678  59421.06101  52.09732  15.37919  19.56951  59443.45741 
    13.26783  2.08264   7.01009       4.35131         2157.14311  0.12464  0.03872     0.20733   8.97825     16.43342   5975.57821    -7.95175  0.93132    5309.053    2e-05   59430.4948  52.03952   8.11906  19.70423  59474.41713 
    13.96224  1.75998  15.90176       3.29497         2166.72454  0.08417  0.01191     0.28222  14.68467     20.25498   6411.87605    -8.65817  1.21727  5186.97554  0.09993  59429.78838  52.06433   6.08148  19.47682  59448.28244 
    12.67594  1.53299   3.71184       2.57873         3821.59207   0.1509  0.05451     0.33361   8.41698     20.61097   5097.27383   -10.37462  1.28567  5806.78655  0.22683  59428.07193  52.11109   9.68919  19.64871  59468.45006 
     14.4512  1.77279  17.21224       3.95822         2062.17842  0.10678  0.01581     0.24828   9.46383     17.30779   6420.51392    -7.72687  0.44119  5641.14074  0.00011  59430.71968  52.09727   7.03742  19.64192  59462.47529 
    14.72026  2.16182  16.05334         2.309          2523.8128  0.09137  0.01441     0.30183   7.06318     17.92533   9975.33939   -11.05214  0.29908  3970.15607  0.00047  59427.39441  51.76333   5.63517  19.58626  59469.48371 
    12.57105  1.49918   2.70715       4.25046         3691.80846  0.18865  0.07109      0.4871   7.76805     20.76269    5107.1565   -11.25314  0.79482  6244.90632  0.32167  59427.19341  52.16635  11.89375  19.53499  59469.48371 
    13.64502  1.69037   7.24961       4.19094         2319.41983  0.06616  0.01612     0.05975  17.41825     19.69489   6416.03168     -10.589  0.33664  4759.15382  0.02752  59427.85755  52.00416   4.94377  19.64195  59472.37866 
    13.65104  1.67636   8.09804       4.83949         3372.88925  0.25124  0.07242     0.33292   4.35949     20.78822   5990.61973   -12.96009   0.6821  4891.81733  0.34115  59425.48646   51.8925  13.74126  19.70666  59470.06937 
    14.04014  1.89475   14.2185       3.21219         2078.34533   0.1574   0.0275     0.32755   6.29335     19.79787   7373.71302    -8.78017  0.78512  5170.66422  0.03488  59429.66638  51.98089   9.44451  19.61854  59464.42653 
    14.21819  1.50401  11.96902       3.53658         2072.27716  0.22413  0.04681      0.2447   4.35574     17.92554   6737.63622    -8.19958  0.34163  5660.41902  0.00047  59430.24697  52.01916  12.25543  19.59264  59470.40308 
    13.77807  1.84215  10.38892       3.39296         2224.73874  0.12536  0.03155      0.0816   7.89306     17.04366    6761.4433   -14.44979  0.66632   4587.6952    6e-05  59423.99676  51.90007   7.93274  19.58422  59458.36351 
    14.19283  2.02146   15.8712       1.62792         2422.37423  0.07709  0.01098      0.0971  13.03746     20.54659   6933.06784   -11.17718  1.20071  4908.83261  0.19558  59427.26937  52.00599   5.43756  19.61559  59473.70053 
    13.24573  1.91959   7.09229       3.18377         2570.04871  0.10027  0.03816     0.18286  10.10551     17.53112   5347.87127   -11.68307  1.51828  5718.89743  0.00019  59426.76348  52.11536    6.7034  19.68328  59464.42653 
    13.40501  1.19241   4.38912       2.56194         3373.71686  0.07736  0.02532     0.08723   12.4745     16.73798   6204.77862    -8.99203  0.24345  4928.14127    3e-05  59429.45452  52.00546   5.40726  19.51562  59460.40404 
    12.72445  1.94404  28.64642       0.13575         5287.75718  0.11452  0.01095     0.17667  13.81702     16.68513   5256.92897    -11.7921  0.43802  3776.24839    3e-05  59426.65445   51.7833   8.17387  19.64916  59474.41713 
    13.69619  1.54507   9.36144       2.27544         2150.81756   0.0515  0.01055      0.0605   22.0046     19.62739   6902.39365    -8.40342  0.56532  5025.09154  0.02356  59430.04313   52.0706   4.02278  19.67659    59470.392 
    13.89709  1.87816  13.09953       1.25974         4382.54314  0.04648  0.01315     0.15758  19.48793     16.15574   6466.00377   -10.89774  1.09078  4513.15996    1e-05  59427.54881  51.96739   3.54905  19.63886  59466.38893 
    13.65158  1.46172  10.81744       2.23163         2252.11905  0.09376  0.01992     0.48293  11.46015     19.58962   6482.39492    -7.06016  1.03583  5148.27391  0.02159  59431.38639  52.03572   6.43839  19.60804  59462.80706 
    13.73821  1.86596   9.70833       4.97359          2608.9923  0.17768  0.06694     0.21082   5.00563     20.26185   6245.63355    -6.25411  0.87773  7253.69982  0.10153  59432.19244  52.25027  10.07303    19.616  59469.48371 
    12.56513  2.04145   27.3632       0.01963         5895.64638  0.15791  0.01514     0.23616  10.27936     18.68209   5564.34594    -11.3652  0.00654  3609.91809  0.00267  59427.08135  51.71733  10.59556  19.77134   59472.4189 
    13.71817  1.47805   9.85546       3.92006         2334.19509  0.06984  0.02757     0.15168   8.92008     16.75042   7160.96409    -7.11402  1.31164  6376.69933    3e-05  59431.33253  52.19805   4.54287  19.63099  59473.70053 
    13.90849  1.77794  10.77783       0.05717         5897.76772  0.10892  0.03206     0.32139    7.7905     17.38177   5438.20425   -13.72193  0.64354  5310.58804  0.00013  59424.72462  52.02587   6.87145  19.64195  59474.32731 
    12.81678  1.64555  29.28487       0.07865         4891.78051  0.12157  0.01004     0.34445  14.77843     20.42252   6127.92287    -15.0084   0.4052  4796.21096  0.14698  59423.43815  51.99685    8.7954  19.60911  59455.54475 
    13.17583  1.70918   2.60146       4.46144         2713.46526  0.04378  0.01415     0.12455  29.57881     19.97541   5784.85691   -11.68008  0.13343  5655.51256   0.0525  59426.76647  52.19641   3.60645  19.62651  59470.06937 
    13.19941  1.93754   6.33247        3.9663         2190.40398  0.08312  0.03018     0.18987  14.39571     19.41781   6741.40464   -13.60101  0.96673  5770.15015  0.01454  59424.84554  52.15515   5.98213  19.68236  59455.54475 
    13.36613  1.77523   7.66827       0.12602         5092.99181  0.08003  0.01762     0.10012  15.66108     18.00591   5763.38088   -14.71841  0.69175  4503.62942  0.00056  59423.72814  51.94719   5.85744  19.60714  59465.59567 
     13.7716  1.98028   7.06487         0.086         3750.50527  0.11284  0.03773      0.1774  10.60532     16.62831   4680.11582   -14.87902  0.25409  5380.34249    2e-05  59423.56753  52.06687   7.62223  19.67746  59466.43822 
    13.40485  1.22612   7.05214       4.86574         2069.97883  0.19074  0.04767     0.49697   6.39363     20.03872   6625.89395   -11.61746  0.66996  5403.87974  0.06074  59426.82909  52.02086  11.48865  19.63977   59472.4189 
    12.36759  1.83957  20.04406       0.28388         5889.13112  0.11933  0.01024     0.45003  13.49396      18.5611   5508.84841   -14.17365  0.05332  3493.37437  0.00202   59424.2729  51.71358   8.47624  19.62141  59469.48371 
    13.62451  2.00626  13.18426       0.03885         4882.70001  0.09159   0.0103     0.30906  14.46595      16.1344   6107.91749   -15.02614  0.98067  4830.16791    1e-05  59423.42041  52.00112   6.59809  19.66417    59470.392 
    13.53996  1.49434   8.27735       0.10775         3947.86112  0.06126  0.02324     0.11324  15.91584     20.31454   6275.52596   -22.16613  1.24317  5439.13441  0.11462  59416.28042  52.11251   4.49768  19.65461  59475.50335 
    13.73524  1.37422   8.44306       4.24401         2976.38181  0.13622  0.03366     0.08008   7.23622     18.92933   5900.04132   -13.65537  0.45653  4249.45164  0.00472  59424.79118  51.82484   8.44888  19.61914  59474.32731 
    13.23378  1.67231   6.30883        2.9631         2458.70217  0.09747  0.03728     0.08734  10.31493     16.12682   7245.41556   -11.11848  0.90902  5392.60878    1e-05  59427.32807  52.06626   6.54525  19.66733  59465.59567 
    13.48279  1.66364   8.58081       4.00984         3184.86788   0.2257   0.0632     0.18941   3.72648     17.69619   5515.21372   -11.35281  1.10934   5203.0811  0.00028  59427.09374  51.92768  11.83196  19.66432  59462.47529 
    14.00998  1.59503   9.39963       3.94165         2114.11866  0.21157  0.04913     0.20466   5.44969     16.27016   5855.94212   -12.39396  0.25025  4445.24815    1e-05  59426.05259  51.83426  12.25432  19.59441  59470.40308 
    13.67492  1.88534  10.07812       3.90367         4107.76475  0.06131  0.01896     0.07091  14.05168     19.90276   6167.34793    -7.14992  0.83649  4570.12824  0.04441  59431.29663  51.95051   4.39133  19.62275  59470.40308 
    14.23352  1.50518  13.33115       0.38694         5893.01558  0.07465  0.01376     0.13917  11.19227     16.02823   6215.16586    -7.36275  0.51141  4680.94676    1e-05   59431.0838   51.9509   5.10093  19.59338  59466.43822 
     14.4472  2.17588  28.39546       0.52766          4595.9307  0.11873  0.01045     0.14676  10.29232     16.99394   5575.45157   -11.76117  0.77807  4028.50191    5e-05  59426.68538  51.81274   7.96856  19.62636  59473.70053 
    14.41621  1.64661  23.99448       3.93557         2057.56474   0.1923  0.01322     0.41505   6.88419     16.83714   6134.66534   -15.36662  0.70523  5423.85471    4e-05  59423.07993  52.03171   11.7882  19.60252  59468.39289 
     12.0698  1.53168  21.99479       0.99838         4659.31841  0.16021     0.01     0.25897   10.3079     20.39886   6224.11772   -13.66992  0.56655  3922.39072  0.13918  59424.77663   51.7897  10.75639  19.66602  59466.38893 
    14.27794  1.50621  11.08015       3.93433          2069.2673  0.08757  0.02038     0.10107  10.70018     16.44417   7157.17852   -13.82689  0.27587  5070.60614    2e-05  59424.61966   52.0162    5.9266  19.63987  59473.70053 
    14.35565  2.15462  18.36357       0.51265         5582.93394  0.06879  0.01051     0.07801  15.64178     16.39704   5663.60142    -7.85876  0.47423  3944.04041    1e-05  59430.58779  51.83184   5.03307  19.63772  59470.40308 
    13.70597  1.71694   9.85344       2.64892         2952.48005  0.06899  0.01795      0.0733  15.38063     20.33137   6134.79749    -9.16141  0.82512  5662.08166  0.11915  59429.28514  52.14446   5.03132  19.62848  59464.42653 
    13.88299  1.94054  10.12013       2.97165          4003.9751  0.27686  0.12259     0.30913   3.09726     19.97175   5790.31767    -7.90486  0.60295  5874.83678  0.05206  59430.54169  52.01041  13.77372   19.6308  59466.43822 
    14.27746   1.5706  13.07935       2.91264          2662.9897  0.26395  0.02975     0.41931   6.23998     20.74147   5996.16914   -23.28429  0.35944  4192.10875  0.30633  59415.16226  51.79777  15.80532  19.57322  59472.37866 
    13.39079  1.53372   7.40904       1.05108         4377.45459  0.04432   0.0129     0.05255  21.57907     17.18807   5619.38644   -15.08733  0.86156  4485.03572    9e-05  59423.35922  51.97027   3.44915  19.49679  59455.54475 
    13.62779  1.49296   9.96319       3.06101         2388.32521   0.0605  0.01729     0.11704  15.85894     16.32596   5937.93268    -8.66823  1.06058  5410.49394    1e-05  59429.77832  52.10761   4.43856  19.66706  59465.59567 
     13.3233  1.44333    6.5887       3.96485          2553.1073  0.09711  0.03365     0.14759   10.4073     18.51359   5145.06165   -12.56378  0.80903  5107.43309  0.00181  59425.88277   52.0199   6.53351  19.59345   59467.4473 
    12.39613  1.90548  29.38511       0.19824         5763.96275   0.1533   0.0106     0.30973   9.99845     20.05987   6327.45778    -8.73002  0.45816  3939.46364  0.06377  59429.71653  51.79061  10.22445  19.66147   59467.4473 
    13.13605  1.58607   5.75671       4.19169         2323.83819  0.16768  0.03748     0.42583   7.01572     19.64948    6371.6591    -9.92841  0.71804  4751.20403  0.02479  59428.51814  51.91863  10.32447  19.62942  59460.40404 
    13.43859  1.63334   7.49367       4.32174         3487.84439  0.20671  0.07333     0.28046   4.74339     20.10461   5347.14969    -8.28653  0.84469  5885.49185  0.07069  59430.16002  52.06271  11.55786   19.7015  59464.40756 
    13.64463  1.60968   8.33173        0.7856         3149.54287  0.17875  0.05675     0.28618   5.20965     16.37523   6795.33247   -10.68966  0.60516  5237.99437    1e-05  59427.75689  51.97188    10.237  19.62832  59475.50335 
    13.23828   1.4514   6.06544       3.58474         2411.70531   0.1951  0.05909     0.15591    5.2958     16.00843   6571.48579   -12.35048  0.73825  5263.04973    1e-05  59426.09607  51.97782  11.21974  19.68499  59464.40756 
    14.73406     2.02  15.07682       1.51661         2705.66484  0.15699  0.03115     0.33949   3.64945     16.66035   8794.88016    -10.9723    0.265    5736.059    3e-05  59427.47425  52.00988   8.18266  19.68251  59472.37866 
    13.02806  1.23894   5.57006       3.38512         4186.16465    0.137  0.04193     0.15158   5.75813     18.05244   6156.02901   -11.48711  1.55765  4501.72604  0.00063  59426.95944  51.85115   8.04418  19.62918  59473.70053 
     13.4152  1.30869   3.11381       2.87955         3079.01959  0.04818   0.0147     0.04613  24.71237     20.24671   6060.34344    -9.00506  0.11482  5511.70219  0.09805  59429.44149  52.16011   3.84402  19.57776  59462.40811 
    13.22611  1.37547   6.68132       3.59698         2777.20921  0.20838  0.07833     0.21291   4.70202     17.61341   6351.68109    -8.01214  1.30746  5735.69636  0.00023  59430.43441  52.03933  11.62491  19.65572  59470.40308 
    12.07933  1.84334  28.35138       0.07287         5398.80443  0.13265  0.01016     0.38681  12.11272     20.05014   6231.38929    -8.89497  0.46512  4301.92524  0.06235  59429.55158  51.88476   9.21534  19.66488  59470.40308 
    13.38175  1.74479   4.46139       3.06106         4439.88469  0.04582  0.01116     0.04233  20.44883      18.1828   5966.58669   -14.13017  0.22992   3239.7036  0.00085  59424.31638  51.68338   3.52994  19.60804  59470.40308 
    13.37157  1.76891   8.20962       3.50456         2099.77916  0.27715  0.06447     0.20175   4.20201     19.63846   6522.64639    -7.65185  0.96071  5156.28979  0.02417   59430.7947  51.93399  15.01084  19.59941  59470.06937 
     13.7774  1.72538  11.65185       4.13482           2123.543  0.27914  0.05048     0.30891   4.42459     19.89544   6342.75743    -7.11186  0.71152   4864.8858  0.04367  59431.33469   51.8894  15.32698  19.62966  59470.40308 
    13.34234  1.39993   7.51235       0.43253         3626.98878  0.05822  0.01894     0.07162   15.5861     17.26113   5832.61468    -9.00226   1.2599  5952.91468   0.0001  59429.44429  52.18911   4.25684  19.67683  59473.70053 
    13.59187  1.69087  10.08813       1.21966          4340.3289  0.19531  0.06437     0.33836   4.15966     16.81225   6225.01566    -7.42801   1.4388  5129.89781    4e-05  59431.01854  51.92836  10.54937  19.67803  59468.39289 
    14.08994  1.82164  11.99089       0.23168         3505.91718  0.17481  0.03574     0.15424   6.52496     17.45309    6330.6814    -9.17343  0.35403  4654.21188  0.00016  59429.27312  51.89326  10.58039  19.68308  59473.70053 
    13.46439  1.41986   9.17969       3.10179         2288.29179  0.08048  0.02045     0.08306  14.00932     16.23788   5546.18383   -13.20606  1.06486  4646.60131    1e-05  59425.24049  51.96466   5.76051  19.56924   59472.4189 
    13.66969  1.54458  10.79422       0.14974         4605.03896   0.0794  0.01811     0.45641  11.87493     17.89281   5714.49736   -16.36593  1.52732  4188.27059  0.00043  59422.08062  51.85971   5.49336  19.68516  59473.70053 
    13.93997  1.87943  16.16727       3.10714         2376.63593  0.09475  0.01528     0.44499  11.16311     18.89917   6735.34773     -7.3662  1.20966  4913.49955   0.0044  59431.08035  51.99277   6.47047  19.60824  59473.70053 
    13.61394  1.35785   9.05924       4.09782         2127.42201  0.06031  0.01343     0.10669  17.34042     16.01243   6354.90811    -9.25428  0.73156  5162.86428    1e-05  59429.19227   52.0745   4.50252  19.63289    59470.392 
    13.60823   1.3703  10.01287       3.06581         2493.82116  0.06691   0.0133     0.16234  17.57978     20.37238   7156.68451   -12.20609  1.16293  4642.24934  0.13095  59426.24046  51.98333   5.00898    19.672  59470.40308 
     13.7876  1.52587   9.03939       3.98425          3565.8349  0.03878  0.01015     0.11382  27.85972     20.52555   5169.67536    -7.99939   0.4905  4621.25361  0.18633  59430.44716   52.0164   3.16104  19.66227  59468.45006 
    13.89129  1.49567   7.50688       4.23132         2453.16656  0.16342  0.04729     0.10095   4.70636     18.45334   6347.32715    -6.87227  0.31605  6432.78504  0.00158  59431.57428  52.13906   9.11913  19.67954  59468.45006 
    13.43426  2.08307   9.71124       0.70362         4633.53138  0.04706  0.01105     0.05155  23.83601     17.96464   5576.57121   -10.43561  1.23185  4612.36507  0.00051  59428.01094  52.00254   3.72981  19.60162    59470.392 
    12.40974  1.70651  26.11421       0.30518         5490.09907  0.14443  0.01181     0.43172  10.25758     17.06235   5954.86015    -7.89075  0.19321  3395.72108    6e-05   59430.5558  51.66401   9.68675  19.60054   59467.4473 
    14.57195  1.95091  14.44124       4.43918         2775.69461  0.04511  0.01231     0.18062  22.21244     16.03838   3944.38645    -6.58824  0.20855  4741.05389    1e-05  59431.85831  52.02081   3.52913  19.65567  59472.37866 
    13.92063   1.6822  13.19019       4.74897          2173.2949  0.21007  0.04146     0.38655   4.69149     17.83287   6536.08156    -9.22949  0.85574  5230.98065  0.00038  59429.21706  51.95907  11.71228  19.59005  59470.40308 
    14.32074   1.6121  13.06626       3.74885         2253.24772  0.08312  0.01372     0.12713  12.59966     20.17936   7510.24548   -10.92242  0.35795  5320.24765  0.08396  59427.52413  52.07285   5.82174  19.68796  59470.40308 
    13.11837  1.67539   6.33346       2.28226         4028.18562  0.14219  0.03608     0.07861   6.39255     19.45141   6550.96678    -6.29575  1.21869  4620.02887  0.01571   59432.1508  51.88472   8.56378  19.62316  59470.40308 
    14.05444   1.7124  13.82494       4.01061         2511.07676  0.21051   0.0358     0.13996   6.35113     20.74921   5667.23274    -9.33367  0.73283  4411.39333  0.31185  59429.11288  51.84391  12.65914  19.67495  59468.45006 
    12.66605  1.74314   3.94617       1.65302         3591.16696  0.24005  0.06827     0.25545   4.71026      17.9335   5753.91336    -9.82431   1.1052  4718.80062  0.00048  59428.62224  51.87002  13.39751  19.58416  59459.17591 
     13.3907  1.56415   8.23493       3.99464         2513.46747   0.2444  0.07533     0.27426    4.5956     17.74398   5850.24596   -10.03209  1.00155  5117.14064  0.00031  59428.41446  51.93763  13.55321    19.564   59472.4189 
    13.95049  1.74696  13.18745       0.56069         4762.80661  0.12358  0.01396     0.20982   9.83423     16.82565   6182.83705   -21.05328  0.61999  3630.66884    4e-05  59417.39327  51.71815   8.21269  19.59146  59473.70053 
    13.23645    1.336   6.44524       0.59394         5183.80037  0.06044  0.01378     0.03328  17.66994     16.68999    5642.0905   -11.57355  0.77529   4287.9722    3e-05    59426.873   51.9148   4.52924  19.64626  59470.06937 
