 texplosion  fnickel     Pspin  log(Bfield)      Mns  thetaPB   mejecta    kappa  kappagamma     vejecta  temperature    alpha  cutoff_wavelength  log(nhhost)      A_V         MJD0  kenergy  mnickel             TSD   log(L0)  Peak_mag     Peak_MJD  log(E_rad)  log(Peak_lum)  Rise_Time     E_fold  tau_1  delta_m15     r_peak     frac 
  -33.97312  0.00102   9.75421     14.19579  1.61559  1.27159   9.06526  0.09207     0.27277  3121.24102   7028.07361  0.88162         5419.42414     19.04805  0.00621  59404.47343  0.52682  0.00928   5793663.77281  43.73584  19.58918  59478.76725    50.27939       43.20197   58.93895     80.581   76.0    0.10044  -19.25777  0.99463 
  -23.96514  0.00217  12.55934     14.62812  2.03183  0.60337  20.08249  0.05944     0.38091  4181.10371    6809.0762  4.65639         4325.19964     18.76393  0.00323  59414.48141  2.09424  0.04349   1649677.65194   44.1614  19.56451  59481.68683    50.28147       43.22588   47.81163   81.39344   73.5    0.11014  -19.32189   0.9711 
  -27.00684  0.00218  12.43438     14.27276  1.98102  1.56062  13.79537  0.02888     0.03012  2381.06712   7191.57673  1.52914         4985.67271     16.72657    3e-05  59411.43971  0.46656  0.03012   8099172.43112  43.46805  19.63968  59484.31727    50.30306       43.13414   64.59257  100.76441   84.5    0.10888  -19.19739  0.97904 
  -38.69157  0.00336   8.56975     14.19111  1.72905  0.87807   6.38422  0.15449     0.43299  3971.38372   5775.50759  3.61415         2415.21741     20.82737  0.37333  59399.75498  0.60065  0.02146   4890351.96083  43.95138  19.58635  59481.68683    50.28302       43.22833   49.09035   85.26219   86.5    0.09273  -19.50604  0.99121 
  -20.51415   0.0036  10.70028     14.58819  1.66315  0.39207  16.11576   0.0618     0.26257  5466.42105   6253.84055  0.89949         4810.79545     18.49858  0.00175   59417.9324  2.87266    0.058   1178029.07446  44.35983  19.61756  59481.68683    50.30045       43.19644   59.42516    90.4296   72.5    0.14703  -19.39129  0.96197 
  -27.18334  0.00391  11.08444     14.26985  1.90092  1.43663   16.1669  0.06573      0.3412  4193.65853   6393.65756  0.52811         5454.51459      20.0931  0.06884  59411.26321  1.69606  0.06313   6258996.66167  43.66188  19.64791  59478.76725    50.26376       43.17308   54.25776    87.8459   76.0    0.11115  -19.34254  0.96388 
   -25.3688  0.01303  10.22031     14.04336  1.56783  1.28299   4.92975  0.13639     0.26008  5803.99182   5941.27657  2.58352         2366.54161     18.74469  0.00309  59413.07775  0.99062  0.06426  12454421.15193  43.34989  19.54496  59484.31727    50.28736       43.20958   51.67406   82.67849   86.5    0.15325  -19.31446  0.95669 
    -29.678   0.0041  10.98618      14.3316  1.93662  1.16178   9.46112  0.15819     0.23392  5033.59775   6144.15707  1.23212         3423.11511     18.01644  0.00058  59408.76855  1.42997  0.03876   4713708.84735  43.80083  19.56185  59478.76725    50.32135       43.22268   55.52845   91.74261   76.5    0.10801  -19.30913  0.97862 
  -16.69171   0.0079  12.42295     14.21535  1.81788  1.22206   8.45056  0.07098     0.25308  4686.71343    6080.1302  3.92003         4035.56165     17.20319    9e-05  59421.75484  1.10726  0.06677   9663417.90288  43.35483   19.6119  59478.76725    50.30184       43.21741   60.73015   89.12462   79.5    0.15256   -19.3151  0.94787 
  -21.45812  0.01616  12.16093     14.38333  1.92798  0.73074   8.15282  0.11555     0.25301  5819.78628   5985.62611  0.56329         2938.46353     18.92967  0.00472  59416.98843  1.64721  0.13175    4530965.8252  43.72782  19.56522  59478.76725    50.42724       43.37458   48.62595   80.18933   83.0     0.1432  -19.30142  0.91333 
  -27.43378  0.00169  11.12967     14.30752  1.79101  0.95189   5.19425  0.24943      0.4032   4808.6758    6552.5138  3.06034         4110.76104     17.04217    6e-05  59411.01277  0.71648  0.00876   4998492.25215  43.73014  19.62814  59478.76725    50.33593       43.20482   56.84146     95.597   79.5    0.11372  -19.28683  0.99425 
  -40.65675  0.00422   8.58452     14.16219  1.52602  1.40919  15.56276  0.10376     0.09128  3727.58673   6870.73583  2.24949         3256.27849     17.31599  0.00012   59397.7898  1.28994  0.06563   4948003.60167  43.89054  19.61664  59478.76725    50.30388       43.20361   56.53676    90.7343   83.0     0.0838  -19.14675    0.969 
   -31.7554  0.00201    9.7022     14.59661  1.71132  0.44047  13.19811  0.12151      0.1966  4897.20474   5891.14004  1.03386         2357.89293     16.23734    1e-05  59406.69115  1.88815  0.02649    958663.81097  44.54677  19.54671  59481.68683     50.2988       43.23761   55.52845    81.4078   75.5    0.10493  -19.27468  0.98624 
  -25.12663  0.00475  11.03407     14.43873   1.7719   0.6272  11.61581  0.09784     0.39584  5181.71998   5979.56712  0.72822         4889.42463     18.45695  0.00159  59413.31992  1.86048  0.05519   2656247.87614  44.00754  19.55776  59481.68683    50.35032       43.26855   57.68728   82.67849   74.5    0.12545  -19.33992  0.96494 
  -23.83283  0.00142    9.0965     14.14529  1.56151  1.18188   9.97921  0.13342     0.32845  5629.15228   6384.75671  0.86194         4907.75647     20.53413  0.19004  59414.61372  1.88629   0.0142   6145152.70313  43.75611  19.56626  59477.32229    50.32164       43.22509   56.84146    90.4296   72.0    0.12846   -19.5287  0.99245 
  -30.45605  0.00114   10.7433     14.20699  1.85056  1.25005   13.9198  0.09306     0.38926  5024.09788   5864.76581  0.92441         3882.53683     16.99802    6e-05   59407.9905  2.09593  0.01584   7645698.81866  43.59046  19.63092  59484.31727    50.33611       43.20437   69.75998     95.597   82.0    0.11393  -19.31575  0.99074 
  -25.62334  0.01307  11.26201     14.14915  1.77589  1.12491   7.77118  0.07747     0.14168  4087.76217    5690.1418  0.98563         5509.99592     19.88162   0.0423  59412.82321  0.77461  0.10156  10523786.65333  43.39286  19.57147  59478.76725     50.2946       43.17626   60.66343   91.77504   88.5    0.11931  -19.35604  0.93265 
  -18.31875  0.00286  12.01006     14.21017  1.83732  1.42846   5.82618  0.12325     0.21311  4812.76263    6559.9016  3.30187          4426.3929     16.79236    3e-05   59420.1278  0.80501  0.01665   9348859.85903  43.40318   19.6114  59486.29782    50.29665       43.19918   62.85468    87.8459   76.5    0.14877  -19.40672  0.98766 
  -20.19323  0.00106   8.92947     14.20552   1.2106  0.55977   7.57229  0.10046     0.17168  4202.63757   6520.91525   4.8251         4173.34904     17.99437  0.00055  59418.25332  0.79781  0.00802   3478743.57096  43.90877  19.59479  59481.68683    50.25302       43.14429    62.5988   88.10178   82.0     0.1324  -19.28113  0.99379 
  -32.14772  0.02284  10.96119      14.4985  1.87185  0.64289   8.10638  0.16356     0.14308  4477.47683   6466.77252  0.14689         4649.60219     19.61031  0.02265  59406.29883  0.96944  0.18516   2102858.94812  44.13859  19.64366  59478.76725     50.3121       43.18562   61.70417   98.93585   78.0    0.10454  -19.27293  0.90143 
  -25.78003  0.01674  11.30245     14.39219   1.7759  0.66215   8.72502  0.14265     0.20317  5961.70754   5653.33431  3.99735          2418.7286     18.23987  0.00097  59412.66652  1.84984  0.14608   3460954.39419  43.87272  19.58723  59481.68683    50.45226       43.41282   45.16121   81.44023   80.5    0.12982  -19.29701   0.9077 
   -30.9125  0.00255  10.48531     14.09648  1.65472  1.53207   25.0338    0.033      0.4284  3919.57167   5858.78388  2.98379         4446.25715     19.81388  0.03619  59407.53405   2.2942  0.06372  10832972.01865  43.41166  19.59463  59481.68683    50.27916       43.20888   57.68728   85.26219   85.0    0.11282  -19.37385  0.95882 
  -33.59818  0.00253   9.57942     14.19654  1.66942  1.11652  10.51676  0.15554     0.22681  5376.82435   5688.75366  0.84609         3703.59066     18.16313  0.00081  59404.84837  1.81368  0.02656   5754086.60007  43.76876  19.67744  59481.68683    50.33386        43.2112   62.34825   92.67391   80.0    0.11011   -19.3412  0.98585 
  -25.52538  0.17477  13.80736     14.60576  1.93826  0.84671   4.92352    0.205     0.47275   4631.5729   6378.35135  0.30329         4454.55127     20.39459  0.13782  59412.92117  0.63003   0.8605   2108233.74248  43.95212   19.5702  59484.31727    50.24782       43.19279   54.25776   80.09479   79.0    0.10991  -19.37643  0.57047 
  -25.61852  0.01328   8.67385     14.07505  1.54225  1.21783   7.57649  0.13766     0.42533  4946.29073   6590.09222  1.02101         4345.66724     20.75324  0.31475  59412.82803  1.10574  0.10061   7625883.90186  43.69829  19.56901  59484.31727    50.27728       43.20128   56.37426    83.9915   77.0     0.1166  -19.60156  0.95188 
  -29.05299  0.01047  11.10487      14.3025  1.77462  1.14232  18.30898  0.07143     0.12019  5109.69039   6618.08452  1.57005         3412.94057     18.47271  0.00165  59409.39356  2.85155  0.19178   5046047.85033  43.72397  19.58457  59481.68683    50.23101       43.15684   56.84146   82.67849   74.5     0.1174  -19.30786  0.88812 
  -27.20619  0.00412   9.78832     14.29712  1.59477  0.80366  15.69786   0.0869       0.441  5376.51936   6086.65577  0.72662         4186.67835     18.35811  0.00127  59411.24036  2.70689  0.06469   3611537.09626  43.93244  19.50948  59478.76725    50.26385       43.18853   49.09035   82.67849   75.0    0.11839   -19.3562  0.96254 
  -22.95139  0.02192  11.44485     14.19747  1.79216  1.28294   7.50586  0.13339     0.40078  5935.76153   5780.06339  0.50385         3773.53304     18.52553  0.00186  59415.49516  1.57754  0.16451   8779516.06451  43.46153   19.5675  59481.68683     50.2392       43.12489   60.27098    90.4296   79.0    0.14504  -19.35926  0.89587 
  -18.19833  0.02096   8.63875     14.30675  1.31279  0.43821   4.25672  0.18744     0.35191  6084.32249   6051.23335  1.26747         3147.72433     20.43116  0.14993  59420.24822     0.94  0.08921   2215160.60493  44.16873  19.55939  59478.76725    50.29671       43.22531   54.79887   82.98319   79.5     0.1603  -19.44927  0.94544 
  -28.28783   0.0074  10.34121     14.26489  1.68212  1.19474  14.44745  0.07039     0.05251  3968.08102   6006.48153  0.49021         5401.45504     17.19811    9e-05  59410.15872    1.357  0.10696   4932082.63511  43.77253  19.48987  59481.68683    50.24877       43.18876   47.81163   78.78981   73.5    0.11187  -19.28684  0.93831 
  -24.24928  0.00422   9.88326     14.19398  1.48935  1.04133  18.11607   0.0449     0.17454  3803.08794   6500.48407  0.95914         5787.54474     18.61118  0.00227  59414.19727  1.56302  0.07647   5529161.18709  43.70938  19.56829  59484.31727    50.29509       43.20758   55.91241   85.26219   73.5    0.12228  -19.35325  0.95053 
  -26.72678   0.0096  10.69323     14.26978  1.73505  0.88099   9.90353  0.10826      0.4893  4996.80198   5789.17426  0.35436         5888.49677     17.99601  0.00055  59411.71977  1.47503  0.09506   5318456.92714  43.72415  19.50229  59478.76725    50.27395       43.20225   54.79887   80.39949   79.5    0.12386  -19.35495  0.94233 
  -17.41866  0.00279  12.03293     14.27522  1.67321  0.90621  23.00373  0.02184     0.03255    3254.261   6644.50149  4.98486         4434.55222      16.1881    1e-05  59421.02789  1.45322  0.06414   6333962.47239  43.52998  19.55326  59481.68683    50.28228       43.18911   56.84146    90.4296   78.5    0.12838    -19.312  0.94724 
  -24.70645  0.00118  11.02528     14.56268  1.77598  0.43566  13.89521  0.06041     0.12132   4478.5228   6814.25145  0.79152         5679.56152     19.19616  0.00873   59413.7401   1.6625  0.01646   1502038.62528  44.25682  19.56826  59481.68683    50.31071       43.21523   55.91241    87.8459   75.5    0.12791  -19.38484  0.98931 
  -28.83797  0.00556  10.64027     14.51185  1.65147  0.43137  21.31607  0.04143     0.10198  4749.99822   6106.20811  0.42947         4598.82338      18.9858  0.00538  59409.60858  2.86894  0.11859   1643927.27432  44.21693  19.56163  59478.76725    50.28789       43.20245   58.07972   84.04386   81.0    0.12215  -19.29622  0.92465 
  -19.12569    0.034  13.26417     14.31617  1.58766  1.01328  13.56954  0.06817     0.22759  5494.22277   6829.80595  3.77199         4154.83013     18.92787  0.00471  59419.32086  2.44346  0.46139    6047721.2261  43.44265  19.60898  59481.68683    50.35857        43.2682   54.25776    87.8459   81.0    0.14598  -19.31423  0.65854 
  -19.22071  0.03336  10.86929     14.11657  1.55709  1.39378   4.57745  0.16046      0.1615   5143.1815   6273.43142  3.44043         2511.55265     17.24781   0.0001  59419.22584   0.7223  0.15272   9985931.57475  43.38937  19.54266  59478.76725    50.20833       43.14482   51.67406   82.67849   78.5    0.14535  -19.24534   0.8927 
  -38.32804  0.00152   9.52093     14.15182  1.63885   1.3991  16.71035  0.08679     0.27463  4370.25648   6012.26268  0.79242         4677.07375     19.39233  0.01371  59400.11851  1.90382  0.02543    6855946.9945  43.68996  19.59234  59475.84766    50.30288       43.20982   59.42516    90.4296   82.5    0.10048  -19.26802  0.98629 
  -24.29198  0.00626  12.35321      14.3404  1.94785  1.24266  17.23454  0.06425     0.22747  4751.38806   6513.67113  1.33793         4517.35323     16.06352    1e-05  59414.15457  2.32096  0.10792   5756268.57387   43.6147  19.56488  59478.76725    50.33675       43.24901   58.15921   83.96438   74.5    0.12308  -19.29129  0.92879 
  -31.80416  0.00448  10.02899     14.40676  1.62855  0.57628  26.00372  0.04677     0.17404  4354.68274   5782.40719  1.44614         3154.91916      19.0503  0.00624  59406.64239  2.94155  0.11645   2336697.06111  44.10953  19.57333  59478.76725    50.26472       43.15604   61.70417    88.1506   82.0     0.1002  -19.24038  0.93299 
  -23.64953  0.00968  11.00237     14.27516  1.85183  1.08296   7.57978  0.15592     0.27774  5856.95809   5646.40266  3.44068         2231.89476     17.55019   0.0002  59414.79702  1.55106  0.07341   5862247.24578  43.68541  19.62544  59481.68683    50.28511       43.19204   59.42516    93.0133   73.5    0.13785  -19.39243  0.95699 
  -29.00654  0.01094  10.65944      14.3078  1.79392  0.96919   7.99094  0.17915     0.32267  5102.03867   5707.83405  1.84894         3217.77987     17.15103    8e-05  59409.44001  1.24083  0.08742   4586552.51926  43.80569  19.62082  59481.68683    50.32314       43.21574   60.73015   91.70832   77.5    0.11163  -19.30664  0.95025 
  -18.78917   0.0238  11.33549     14.23034  1.64052  1.11399    7.4108  0.12401     0.33071   6057.6736   6610.96436  0.28979         5966.43645     16.74727    3e-05  59419.65738   1.6222   0.1764   6776434.42384  43.54395  19.59166  59481.68683    50.39514       43.35378   52.51987   74.92738   71.0     0.1606  -19.36284  0.87875 
  -28.86934  0.00167   9.18308     14.08461  1.65958  1.31124   11.5524  0.06983     0.07912   4651.0594   5979.75072  0.32378         5553.79961     20.63411  0.23924  59409.57721  1.49074  0.01932   8801945.76538  43.61829  19.60658  59478.76725    50.31335       43.20359   63.27956   89.15891   80.5    0.12159  -19.53841  0.99028 
  -21.09512  0.02673  11.21718     14.18543  1.57782  1.28032   11.4846  0.08006     0.17107  5074.83873   5958.12897  1.12817         4221.63157     17.65478  0.00025  59417.35143  1.76436  0.30703   7848245.84592  43.47236  19.62262  59481.68683    50.25312       43.13968   59.42516     95.597   79.0    0.12833  -19.33187  0.80047 
   -29.7445  0.00945   8.95481     14.22544  1.40358  0.69053  10.08876  0.15046     0.12518  5917.66142   5674.72202  3.08515         2298.03957     16.24164    1e-05  59408.70205  2.10749  0.09538   3700617.23941  43.94369  19.59561  59478.76725    50.43537       43.36483   50.28536   95.24781   81.0    0.12039  -19.31342  0.94444 
  -22.86627  0.00508  10.12055     14.11803  1.50789  1.12601  19.01396   0.0414     0.19714  4148.51969   5720.45281  1.11612         4546.68206     17.52036  0.00018  59415.58028  1.95203  0.09651   8327779.32167  43.51628  19.57687  59484.31727    50.27829       43.19753   51.67406   82.67849   81.0    0.11468  -19.27407  0.93541 
  -17.59461  0.04132  11.42423     14.11714  1.48447  1.39526   7.62295  0.07707     0.22032  4469.82946   5759.95434  1.14224         4766.54861     19.47647  0.01664  59420.85194  0.90851  0.31498  10489674.51782    43.304  19.53293  59481.68683    50.31181       43.23955   52.51987   80.09479   79.5    0.14513  -19.29638  0.77233 
  -31.80045  0.02384   9.47386     14.39026  1.55076  0.47693   5.49293  0.30715     0.44364  6634.66758   5304.88037  0.13506         4688.40393      18.2583  0.00101   59406.6461  1.44235  0.13094   2142334.84496  44.17545  19.59804  59475.84766    50.20217       43.11831   53.75813   86.60763   85.5    0.12045  -19.36247  0.92704 
  -25.51447  0.00945  10.35909     14.36184  1.70081  0.79485  13.00427  0.11786     0.30731  5602.51051   5751.03501  2.26725         2493.86456     17.86543  0.00041  59412.93208  2.43488  0.12285   3202043.40182  43.96343  19.62984  59484.31727    50.28176       43.22666   53.75813   78.85653   76.0     0.1168   -19.3155  0.93029 
  -23.12073  0.00383   9.46146     14.16926  1.37941  0.99101  15.15077  0.07433     0.11891  4088.37288   6473.35032  4.34746         4324.69286     18.37448  0.00132  59415.32582  1.51065  0.05802    5259093.2021  43.73571  19.64429  59484.60642    50.25814       43.18405   56.84146   85.26219   77.0    0.11129  -19.31331  0.96102 
  -22.76118  0.00484  11.53045     14.33274  1.80406  0.87048   7.20649  0.17318     0.43093  6345.94517   6241.84941  2.44082         3980.94466     19.59346  0.02179  59415.68537  1.73119  0.03489   4811419.83153  43.71913  19.59118  59481.68683    50.31104       43.23598   54.25776   85.26219   75.5    0.15228  -19.34454  0.97607 
  -20.22091  0.00492  10.81906     14.33408  1.54214   0.7079  12.20701  0.07184     0.22005  4355.02974   6945.47841  3.69657         4393.58388     16.64542    2e-05  59418.22564  1.38108  0.06007   3598791.99757  43.83243  19.54905  59478.76725    50.39098       43.35518    42.5438   81.47394   76.5    0.13403  -19.31773   0.9552 
  -26.72908   0.0117  12.82598     14.55822   1.9206   0.5621  16.93172  0.06018     0.08202  4788.68685   6566.04606  2.38728         4384.32544      18.0903  0.00068  59411.71747  2.31612  0.19803   2243890.06805   43.9851  19.57711  59484.31727    50.27989       43.19442   59.42516   85.26219   80.0    0.12302  -19.31587  0.86446 
  -29.93526  0.00264  10.29636     14.53609    1.837  0.44507   7.04906    0.191     0.41029  5761.02736   5928.73017  3.49198         2508.24109     20.37123   0.1306  59408.51129  1.39559  0.01862    1531508.5063  44.32247  19.57669  59484.60642    50.29135       43.19695   51.67406    87.8459   80.0    0.12207  -19.42365  0.98994 
  -24.59962  0.00722   9.66403     14.10387  1.44637  1.01707   14.2424  0.06578     0.44251  4297.73981   5722.56847  2.03068         4290.49416     17.95768   0.0005  59413.84693  1.56924   0.1028   7774501.78707  43.56813  19.55799  59478.76725    50.24933       43.18926   48.78565   77.81579   82.0    0.11364  -19.31077  0.93327 
  -26.37895  0.00706  11.33682     14.34309  1.89052  0.98735  10.08023  0.14291     0.37205  6028.79928   6175.82688  0.35028         4560.41189     18.02894  0.00059   59412.0676  2.18554  0.07113   4647238.64718  43.76925  19.59186  59481.68683    50.26284       43.16029   61.22991    90.4296   74.0    0.13378  -19.35112   0.9573 
  -21.94569  0.04057  14.37272     14.43734  1.84961  0.91808  11.82902   0.0462     0.16781  2715.97393    5836.0936  2.64554         4740.65073      16.0431    1e-05  59416.50086  0.52051   0.4799   4734695.26329  43.54556    19.603  59484.60642    50.29696       43.22441   53.83762   81.36075   84.0    0.09597  -19.26697  0.66555 
