 log(Bfield)      Mns    Pspin  cutoff_power  cutoff_wavelength  fnickel    kappa  kappagamma   mejecta  log(nhhost)  temperature  texplosion  thetaPB     vejecta      A_V        MJD_0   log(KE)      M_Ni  Peak_mag     Peak_MJD 
    14.12776  1.83874  4.16656       1.20072         3613.02235  0.00836  0.08097     0.11289   6.50821     16.71572   5682.65518   -11.95608  1.36763  4005.48899    3e-05  58534.31736  51.76261    0.5055  19.30748  58588.40134 
    14.68542   1.9478  2.91605        0.1515         2710.84156  0.01632  0.05588     0.03262   16.1921      16.3309   3453.67599    -8.82094  0.39956   5713.6788    1e-05  58537.45249  52.15675   1.20266  19.34538  58592.35089 
    14.05253  1.45073  3.63328       1.74911          3407.3713  0.08144  0.10071     0.16591   7.56905     18.28873   5132.85012    -6.25799  1.50284  5161.06231  0.00108  58540.01544  51.99818   5.10394  19.26957  58586.67784 
    14.31113  1.43114  3.97477       3.50074         2974.81242  0.00451  0.08066      0.0217   8.54581     18.53324   8243.38972    -8.15291  0.45973   5693.0016   0.0019  58538.12053  52.09538   0.29048  19.28562  58592.35089 
    14.36891  1.69405   1.5872       1.82414         2071.15549  0.04562   0.0695     0.32881  15.67148     17.37788   5497.72558    -4.37707  1.15023  5633.19339  0.00013  58541.89637  52.14163   3.33957  19.30932  58586.67784 
    14.28335  1.85183  3.09258       0.07308         5185.38528  0.10263  0.08419     0.09211   8.06632     16.44598    8704.7826   -10.15774  0.99239  5351.76206    2e-05  58536.11569  52.03603   6.52625  19.21248  58588.40134 
     14.3666  1.72097  1.72419       2.00839          2982.7025  0.04167  0.07264     0.02102  18.30947     17.84501   9635.84514    -3.19642  1.49436   5740.9203  0.00039  58543.07702  52.17123   3.14371  19.27915  58589.51437 
    14.29941  1.70527  3.64848       0.37996         3684.75536  0.03216  0.03254     0.01968  19.31424     17.90257   5076.17739    -12.0801  0.67826  5255.02311  0.00044  58534.19334  52.09884   2.45105  19.30543  58592.35089 
    14.20447  1.85855  7.23345       2.90177         3226.83724  0.19832  0.01625     0.09745  21.69535     17.99451   6394.02741     -9.3553  1.40995  4954.66172  0.00055  58536.91813   52.0572  15.44915  19.24964  58592.35089 
    14.14903  1.92943  2.22712       0.28976         4173.85856  0.07731  0.07333      0.1963  12.82016     20.94089   3762.99411    -8.68602  1.52613  6293.99984  0.48486  58537.58742  52.22039    5.4341  19.29033  58589.51437 
     14.0561  1.36233  3.46494       3.68007          3287.0497  0.02256  0.04575     0.22675  14.12489     16.14382   9797.89244    -8.36186  1.07195  3889.83142    1e-05  58537.91158  51.81097   1.61721  19.24671  58588.40134 
    14.88902   1.8788  3.27471       2.68442         2795.26073  0.00344  0.16043     0.24925   7.56306     18.61774   3849.25342     -4.9846  0.24965  5760.09899   0.0023  58541.28884  52.09348   0.21548  19.28144  58588.40134 
    14.35857  1.89332  2.49176       0.00165         4482.98672  0.00152  0.03784     0.01238  15.40293     20.60934    6673.5988    -9.44503  0.61724  5408.00341  0.22598  58536.82841  52.10471   0.11062  19.27451  58589.51437 
    14.32833  1.74969  4.18796       3.40195         3337.68306  0.01011  0.03701     0.09729  15.06547     16.76093   3587.85788    -6.19747   0.7964  3725.91432    3e-05  58540.07597  51.77919   0.73411  19.33877  58592.35089 
    14.52572  1.81298  1.60197       3.73223         2006.54369  0.20369  0.09963     0.03958  10.69963     20.00958   6910.44386    -1.98998  0.85422   6576.4751   0.0568  58544.28346  52.24206  13.78533   19.2731  58588.40134 
     14.3513  1.35047  2.79271       2.64618         3539.43396  0.02686  0.06256     0.14425  10.93999     20.13343   3376.87591    -8.00921  0.49493  3702.55061  0.07554  58538.26422  51.74513   1.82663   19.2624  58589.51437 
     14.2291  1.55871  3.27999       0.05224         5322.01643  0.11801  0.05427       0.108  13.61814     16.08901    8972.1858   -10.48949  0.77493  6039.14554    1e-05  58535.78395  52.18985    8.3982  19.28535  58589.51437 
    14.05586  1.75031  4.42805       0.92231         2430.24234  0.01941  0.03491     0.01135  15.32668     18.37693   8282.90767   -13.94071  0.86495  6053.86835  0.00132  58532.33273  52.20227   1.41447  19.27248  58589.51437 
    14.22022  1.61434  3.33655        1.9293         3334.25652  0.00198  0.02902     0.24527  25.09193     18.08293   9470.57169     -8.4235  0.92816  4267.91082  0.00067  58537.84993  51.93917   0.15846  19.30045  58589.51437 
    14.53808  2.01095  5.83074       4.89356         3090.11837   0.1835  0.03887     0.46646  13.84995     16.37947   6614.74931    -5.88402  0.64959  4740.21493    1e-05  58540.38941  51.98098  13.10378  19.29681  58588.40134 
    14.70591  1.85281  2.98428       3.47584          3018.4468   0.0018  0.03327     0.01871  27.10957     17.96338   7206.34535    -3.83073  0.42937  4427.08084  0.00051  58542.44271  51.97701   0.14577  19.23842  58586.67784 
     14.0854  1.72962  3.94539       0.49985         5770.07684  0.00498  0.03918     0.38021   6.97337     16.49541   6588.16896    -9.31293   0.8863   3954.4345    2e-05  58536.96051  51.75858    0.3064  19.28808  58589.51437 
    14.42179  1.74081  1.73702        1.8181         2142.56208  0.06143  0.04753     0.40436  28.72071     17.66357   4533.34215    -2.30003  1.23987  7235.30542  0.00026  58543.97341  52.40813   5.03486  19.29081  58592.35089 
    14.54466  1.94542  2.72471       1.35277         3129.76909  0.11971  0.22603     0.32114   4.29558     19.65611   4234.82647    -3.75876  0.70219  5435.36115  0.02517  58542.51468  51.98232   6.52183  19.29911  58588.40134 
    14.19419  1.63127  3.40451       0.43877         3173.88851  0.01471  0.06599     0.34724   7.52464     18.26564    9950.7196    -5.85654   0.8469  5347.93311  0.00102   58540.4169  52.02848   0.92093  19.26477  58589.51437 
    14.48407  1.79458  1.83282       2.74182         3015.93773  0.00326  0.02386     0.06033  42.05975     16.80714   7608.61359    -2.66106  0.85281  4079.87805    4e-05  58543.61238   51.9388     0.285  19.31945  58586.67784 
    14.14378  2.05833  4.86947       1.99083         3208.93168  0.00694  0.02419     0.02561   26.1478     20.04617    4586.4281   -10.11693  1.56522  5234.20087  0.06179  58536.15651  52.11967   0.55916  19.24657  58588.40134 
    14.11763  1.95721  4.49312       1.43777         2345.23054  0.00447  0.03081     0.03067  16.46454     19.25936   8990.77995    -8.18493  1.42369  5768.68115  0.01009  58538.08851  52.16649   0.33055   19.2636  58588.40134 
    14.41943  1.67381  2.15328       3.08874          3245.3833  0.03254  0.08227     0.14975  12.72225     19.40478   6620.82011    -3.72901  0.85918  4418.20164  0.01411  58542.54442  51.91234    2.2837  19.25519  58589.51437 
    13.93347  1.74665  4.42736       0.83229         3016.10355  0.00268   0.0789     0.01605   3.79054     19.60566   9395.26352    -9.15169    1.317  5445.68823  0.02241  58537.12174   51.9693   0.14093  19.28895  58586.67784 
    14.51627  1.83655  0.94378       0.13695         5260.96498  0.25557  0.12572     0.01264   7.57458     16.15742   7021.86346   -11.35221   0.9721  4815.84508    1e-05  58534.92123  51.93812  16.01951   19.3425  58589.51437 
    14.20334  1.65924  2.35293       0.00143         4626.62936  0.00871  0.04453     0.02425   21.5206     16.33482   4205.14024    -9.51208  1.20691  5716.41156    1e-05  58536.76136  52.18076    0.6777  19.27195  58588.40134 
    14.04331  1.51011  3.49823       1.17574         3364.07513  0.02255  0.05881     0.31404   7.84597     16.84697   6972.54299    -11.6413  1.01492  3854.06961    4e-05  58534.63213  51.74813   1.42519  19.22996  58586.67784 
    14.33943   1.8843  5.29274       1.92694         3433.07769   0.0038   0.0311     0.06969  12.01535        16.13    5686.1278    -8.91235  0.52307   4728.8105    1e-05  58537.36109  51.96621   0.26364  19.28956  58588.40134 
    14.28257  2.04158   3.9206       0.22586         5171.06224  0.00117  0.07561     0.01605   5.52081     16.53966    6106.0138   -10.74512  0.87058  4543.85342    2e-05  58535.52832  51.85472   0.06805  19.28836  58588.40134 
    14.46815  1.75286  1.40608       0.41021         3642.98306  0.01122  0.03791     0.01402  22.12645     16.39387   8781.84648    -3.62985  0.83174   4652.9045    1e-05  58542.64359   52.0042   0.87712  19.30546  58589.51437 
    14.38924  1.99332  3.16058       0.01514         3252.44745   0.2231  0.18571     0.02209   5.21276     16.97243   9537.53259   -12.93054  0.89273  5329.74949    5e-05   58533.3429  51.98703  12.77856  19.30627  58589.51437 
    14.07295  1.45037  3.63046       2.37972          3587.9985  0.00532  0.04479     0.03757  14.82042     16.86611   5576.38905    -7.10522  1.13698   4355.2057    4e-05  58539.16821  51.91332   0.38538  19.32623  58589.51437 
    14.29372  1.51433  4.34188       3.34701         3141.56239   0.0017  0.11215     0.01799   4.69524     18.69903    8451.2145    -9.95977  0.47915  4614.52684  0.00278  58536.31367  51.85025   0.09486  19.30142  58586.67784 
    14.22991  1.42479  1.30772       1.61489         3181.55837  0.05555  0.09118     0.05538  10.68332     18.24302   3104.62963    -4.06386  1.55186  4365.63082  0.00097  58542.20958  51.88603   3.75805  19.26053  58586.67784 
    13.95362  1.75159  4.92891       1.86441         3491.42274  0.00343  0.01416     0.13662  20.71202     19.50637   9642.20929    -8.08424   1.3555  4698.98019  0.01783   58538.1892  52.00742    0.2646  19.31055  58589.51437 
    14.29119  1.68492  4.21764       1.80186          3295.0608  0.00801  0.04658     0.02377  15.94814     17.95601   6455.81404    -5.74837  0.71573  6012.94198   0.0005  58540.52506  52.19979   0.58832  19.25353  58588.40134 
    14.43198  1.88204   0.7579       0.63625         2135.54602  0.05265  0.09062     0.01158  11.16885     20.35069    6010.0297    -3.97272   1.2772  5653.55747  0.12457  58542.30071  52.11468   3.59594  19.24282  58586.67784 
    14.09293  1.56506   3.6411       1.36269         3127.86554  0.01258  0.02309     0.02564  25.33607     16.17364   5505.72473    -5.93287  1.26906  5019.50321    1e-05  58540.34057  52.08082     1.008  19.29536  58586.67784 
    14.22118  1.77338  3.99685       3.08213         3408.84004  0.00102  0.03207     0.19532  23.39685     17.70608   7103.68173    -4.70484  1.39598  4268.37975  0.00028  58541.56859  51.93374   0.08062    19.292  58592.35089 
    14.09079  1.60083  3.83175       2.51884         3478.75252  0.00141  0.06053     0.05595   9.77361     20.15627   6811.90408    -7.26395  1.23048  4264.85472  0.07962  58539.00949   51.8574   0.09347  19.28465  58588.40134 
    14.17668   1.7081  3.19111        0.2238         3092.69553  0.04884  0.03462     0.15666  26.52249     16.40252   8078.99131   -10.62258  1.56858  5923.41131    1e-05  58535.65086  52.22822    3.9469   19.2974  58588.40134 
    14.30764  1.89079  4.37935       0.96862         2751.38146  0.01069  0.06359     0.11109   9.37658     16.03288     6266.926    -8.48098  0.71107  5736.03786    1e-05  58537.79245  52.11087   0.70326  19.27133  58588.40134 
    14.08511  1.64464  4.03549       2.06938         3119.40647  0.00315  0.08728     0.10303   7.66962     16.93775    8316.9193   -11.87968  1.08735  4365.47917    5e-05  58534.39376  51.85409   0.19803  19.30365  58586.67784 
    14.25716  1.40718  2.05204       4.72899         2001.49549   0.0042  0.08613     0.23836  14.28901     20.24665   9213.44191    -4.52813  0.75286  6249.56764  0.09803  58541.74531  52.22382   0.30159  19.32126  58592.35089 
     14.5445  1.90599  1.92638       2.55636         2150.02025  0.05513  0.03757     0.03945  31.61148      17.1372   5253.55974    -2.11283  0.89063  6775.91777    8e-05  58544.16061  52.35844   4.59504  19.23212  58589.51437 
    14.40324  1.88118  4.94019       3.25047         2989.84223  0.04166  0.02159     0.05574  32.06995     18.05816   3701.00795    -6.92755  0.69482  5373.79087  0.00064  58539.34588  52.15815   3.48086  19.23956  58586.67784 
    14.65037  1.73199  1.71173         2.729         3064.35063  0.00157  0.16571      0.2758   7.02254     19.35976   5339.54081     -2.1589  0.52805  4947.69556  0.01272  58544.11454  51.95393   0.09691  19.28122  58589.51437 
    14.51863   1.6899  4.12765       1.66058          3508.0943   0.0267  0.03721     0.15267  16.11737     16.33515   7166.22225    -9.07534  0.39206  4620.46731    1e-05   58537.1981  51.97189   1.96535  19.34185  58589.51437 
    14.18387  1.72397  3.71634       2.85972         3244.60844  0.00121  0.06925     0.04312  10.69318     19.88842   8666.87402    -6.85202  1.27761  4386.31041  0.04297  58539.42142  51.89022   0.08219  19.25198  58586.67784 
    14.35223  1.67881   3.5663       3.35634         2050.04827  0.09768  0.06636     0.01125   9.36595      18.6811   5671.18985    -6.28391  0.64863  5339.88105  0.00267  58539.98953   52.0486   6.42255  19.27187  58589.51437 
    14.13892  1.81353  3.31863       0.03661         5902.60167  0.00512  0.01886     0.02933  20.11888     20.20709   6797.59052    -8.12965  0.97239  4934.76075   0.0895  58538.14379  52.04758   0.39296  19.20652  58592.35089 
    14.14499  1.96771  2.56422       0.07709         3606.22901  0.00394  0.04952     0.09564  12.17921     20.78651   4187.30027     -8.5966  1.26114  6314.43935  0.33981  58537.67684   52.2186   0.27398  19.33799  58586.21094 
    14.37986  2.02147  4.03745       2.61306         3422.04439  0.03639  0.05623     0.38886  10.28238     16.30757   6992.75935    -3.95189  1.08847  3697.97432    1e-05  58542.32155   51.7383   2.44201  19.36189  58588.40134 
    14.14622  1.62419  1.30063       0.14772          3287.6571  0.03255  0.04486     0.08362  27.05538     20.86914   5486.05406   -11.22398  1.16069  6266.80357  0.41103  58535.04945  52.27871   2.63942  19.18885  58592.35089 
    14.25474  1.83798   3.8062        1.8821          3290.6941  0.02648  0.09328     0.48693   6.12478     19.12572   6394.72686    -5.65875  1.12392  4175.66191  0.00742  58540.61469   51.7924   1.57869  19.26958  58592.35089 
    14.29521  2.04494  4.05849       1.40882         2600.12887  0.09803  0.08439     0.14703  12.72199     19.00876   7578.18717   -10.01377  1.37314  5980.03113  0.00567  58536.25966  52.17526   6.87962   19.2461  58592.35089 
    14.57676  1.92289  4.50567       2.04788          3084.4501  0.00837  0.11957      0.3768    4.7468     18.14546   4997.31969    -9.19966  0.39069  4642.13463  0.00078  58537.07378  51.85666   0.46794  19.31592  58589.51437 
    13.99049  1.55203   2.2039       0.61533         4035.96827  0.00108  0.03164     0.01755  14.16557     20.84871   4168.86903     -4.9579  1.23612  4830.37968  0.39214  58541.31554  51.99933   0.07729  19.26567  58589.51437 
    14.58421  1.99049  0.72161       0.01358         4491.72073  0.14682  0.05606     0.37359  22.17708     18.14665   7259.86188    -8.05803  1.37621  6492.12099  0.00078   58538.2154  52.29371  11.48387  19.26315  58589.51437 
    14.40786  1.70844  2.20884       0.32534         3556.56827  0.03017   0.0221     0.01789   29.2996     17.61327   9365.45499    -8.43348  0.71859   4451.5486  0.00023  58537.83996  51.98777   2.48166  19.28321  58589.51437 
    14.16321  1.51617  3.70729       1.42707         3573.60596  0.16623  0.11239      0.2063   5.47834     18.71584   3521.43093    -7.39277  1.01874  5039.90782  0.00289  58538.88067  51.94388   9.64101  19.28227  58592.35089 
    14.37366  1.60222   3.6804       1.63948         2999.93041  0.00212  0.04541     0.09428  10.94251     18.81112   5691.58765    -8.75649  0.47058  4058.35387   0.0036  58537.51695  51.82485   0.14412  19.22408  58589.51437 
    14.65468  1.75081  1.72984         1.182         2886.74928  0.00898  0.08837     0.02033  17.31436     18.83848   3452.61988    -3.68097  0.49886  6369.40382  0.00383  58542.59247  52.25679   0.67061  19.25142  58589.51437 
    14.27259  1.50679  3.20246       1.25689         2579.94167  0.07094  0.02533     0.12898  34.15715     17.20154   9753.00353   -10.25379   0.8858  6472.25472    9e-05  58536.01965  52.32441   5.99227  19.33472  58589.51437 
    14.36357  1.75902  3.52656       1.65755         3741.09779   0.0165  0.04408     0.03918  16.84475      16.7245   4855.35767    -6.14016  0.80955  4327.94032    3e-05  58540.13328  51.91884     1.225  19.33269  58589.51437 
    14.27182  1.57387  3.76311       1.71748         3515.37182   0.0038  0.09554     0.10223   8.48243     17.01707   5344.74829    -10.8235  0.60711  5162.51127    6e-05  58535.44993  52.00969   0.24419  19.27374  58588.40134 
    14.20141  1.71868  3.48958       0.12311         2586.60578  0.00914  0.04939     0.04555  13.71735      18.2247   8828.39693   -12.19463  0.84747  5433.61154  0.00093   58534.0788  52.09872   0.65113  19.23742  58589.51437 
     14.1675  1.67182  3.81677       3.03751         3202.29854  0.04616  0.09118     0.01274   8.46217     18.84809   4383.64804    -5.57062  1.54451  4914.26098  0.00392  58540.70282  51.96665    2.9671  19.30856  58588.40134 
     14.2001   1.9004  4.45294       0.39514         2991.48395  0.00713  0.01047     0.06236  39.19428       18.126   4543.01356   -11.88389  0.76526  5232.72098  0.00074  58534.38955  52.14987   0.61627  19.31143  58588.40134 
    14.26965  1.71614  4.12346       3.20036         2654.13876  0.01698  0.11494     0.35239   5.21302     19.26333   7002.86057    -8.18887  0.72175  4805.03469  0.01019  58538.08457  51.89702   0.97256  19.25061  58588.40134 
    14.24505  1.89888   4.7147       4.03836         3338.54036  0.02736  0.06149     0.09837   9.68111     19.18209   8009.66183    -5.00881  1.54885  4305.18443  0.00845  58541.26463  51.86467   1.81234  19.32477  58586.67784 
    14.31099  1.91182   4.2027       4.06293         3121.70622  0.01642  0.03335      0.0284  19.36918     19.97514   8001.76361    -6.31489  0.95411  3941.13816  0.05246  58539.95854  51.84917   1.25247  19.26984  58588.40134 
    13.99822  1.68865  4.53223       1.65422          3208.5127  0.00359   0.0953     0.04132   4.97378     17.15722   8116.53423    -8.88149  1.28474  5480.84135    8e-05  58537.39195  52.00614   0.20293  19.27431  58589.51437 
    14.23316  1.71106   3.1789       1.73845          3438.6556  0.00416  0.04342     0.08035  18.60675     19.94582   7643.02578    -6.52726  1.11837  4519.23229  0.04904  58539.74618  51.96474   0.31519  19.26446  58589.51437 
    14.16874  1.66674  2.81434       0.25016         5754.39554  0.01497   0.1037     0.14047   8.29577      16.1706   7863.79584    -9.36696  1.36587  5085.58699    1e-05  58536.90648  51.99448   0.95822  19.23734  58589.51437 
    14.30297  1.96806   4.0167       4.53987          3274.6032  0.00155  0.02079     0.03821  34.57611     18.02897   6011.04532    -6.56125  1.29109  3500.99835  0.00059  58539.71218  51.79159   0.13092  19.34747  58589.51437 
    14.02442   1.3772  3.18866       0.01707         4481.05362  0.05326  0.05725     0.16345   7.70306     18.85513   6461.66773    -7.28001  0.89667  5864.07166  0.00398  58538.99343  52.11086   3.35168  19.25289  58588.40134 
    14.58309  1.76595  1.08565       2.07995         3136.15799  0.06014  0.05446     0.11163  17.42456     19.88686   7711.31919    -1.37191  0.81923  4543.70423  0.04281  58544.90152  51.96395   4.49399  19.25226  58588.40134 
    14.17929  1.82762  4.34574       1.19781         3190.33581  0.09546  0.04447     0.14049  13.87066     16.03821   7312.39388    -9.13805  1.37923  5367.46538    1e-05  58537.13539  52.08906   6.81905  19.27806  58586.21094 
    14.22858  1.55731  3.58089       2.89167         3548.96567  0.00179  0.06505     0.15668   9.09272     20.38595   4149.75441    -8.88961  0.66884  3715.59052  0.13511  58537.38383  51.73076   0.11721  19.30681  58586.21094 
