 texplosion  fnickel    Pspin  log(Bfield)      Mns  thetaPB   mejecta    kappa  kappagamma     vejecta  temperature    alpha  cutoff_wavelength  log(nhhost)      A_V         MJD0   kenergy  mnickel            TSD   log(L0)  Peak_mag     Peak_MJD  log(E_rad)  log(Peak_lum)  Rise_Time    E_fold  tau_1  delta_m15     r_peak     frac 
   -9.94384  0.01415  3.55973     14.15253  1.46433  0.66191   4.22506  0.11656     0.38019  5658.97603   6133.71237  1.42726           3029.496     17.47024  0.00016   58536.3296   0.80712  0.05979   853567.68548  45.40041  19.26996  58587.81171    51.02219        44.2557    28.4556  39.83784   61.5    0.17884    -20.922  0.99481 
   -9.92239  0.11258  2.53536     14.42713  1.70508   0.5904  11.93322  0.05514     0.06745  6300.57602    6704.8626  0.16409          2650.9502     18.37672  0.00132  58536.35104   2.82583  1.34346   142355.11766  46.53914  19.28459  58590.20198    50.87506       44.08749   25.11167  52.66696   55.5    0.18846  -20.91808  0.95557 
   -6.41177  0.03576  2.79245     13.99593   1.2721  1.45299   6.92291  0.08342     0.09173  4432.46363   3744.47698  1.96669         3737.75336     19.62401  0.02337  58539.86167   0.81135  0.24756   938529.98682  45.50895  19.29793  58588.40134    50.95538       44.19404   20.86744  48.89008   52.0    0.17569  -20.93545  0.98403 
   -7.66854  0.07455  4.30914     14.45456  1.71405   0.5161  18.37825  0.03526     0.09185  5726.77983   6204.96343   2.0193         3297.11995     18.10426  0.00071   58538.6049   3.59544  1.37014   364341.60784  45.67258  19.33644  58590.20198    51.00126       44.24248   20.86744  49.32304   62.0    0.16558  -20.94359  0.87902 
   -9.94097  0.25328  1.32958     14.37431  1.70714  1.29254  13.25804  0.07551      0.2522  7126.53021   7031.89112  0.04943         3142.22898     18.76318  0.00322  58536.33247   4.01664  3.35796    49991.55365  47.55479  19.31211  58586.21094    50.90096       44.15088   26.55856  45.61104   63.0    0.15604  -20.87199  0.97556 
   -9.32618    0.261  3.20281     14.39249   1.9514  0.80244   7.95728  0.06912     0.32554  6567.47372   8754.47852  0.00187         5156.37505     17.17884    8e-05  58536.94725   2.04733  2.07687   304963.07516  46.06388  19.31565  58592.59225    50.94056       44.18899   27.98979  46.76029   51.5    0.19541  -20.93273  0.91405 
   -6.71302  0.10156  2.36777     14.29137  1.66596  1.43829  20.04557  0.04334     0.01688  6226.47053   7622.87729  0.89836         3447.29563     18.21338  0.00091  58539.56042   4.63585  2.03591   226684.58587  46.38641  19.27667  58590.20198    50.99173        44.2093   24.66152  49.32304   52.0    0.16755  -20.93265  0.94107 
  -11.04636  0.01444  3.48884     14.31161  1.82151  0.71684  13.69154  0.04811     0.01543  6484.34969   6463.22337  0.30944         4240.71063     19.30994  0.01134  58535.22707    3.4341  0.19768     490209.316  45.75353  19.36324  58590.20198    51.12664       44.35438   24.66152  41.73488   51.0    0.19234  -21.00316  0.98829 
   -5.86793    0.086   2.3594     14.16831  1.60694  1.46585  15.37223  0.05634     0.03555  5908.89355   4093.40634  1.76183         3222.19945     20.66589  0.25741  58540.40551   3.20167  1.32196   382647.56807  46.14644   19.3043  58590.20198    50.99599       44.28597   22.76448  41.73488   54.0    0.14972  -21.14094  0.95861 
  -11.46632  0.12523   2.3609      14.2085  1.74736  1.31677  14.66601    0.044     0.05042  6490.14077   4362.45788  0.07348         4548.55422     20.02616    0.059  58534.80711   3.68508  1.83665   346220.48368  46.22572  19.25848  58590.20198    50.88717       44.12512    28.4556  45.52896   59.0    0.19494  -20.96701   0.9497 
   -10.9726  0.02062  2.83623     13.94632    1.256  0.98437   7.36717  0.09136     0.01178  5255.80521   3173.06961  1.35168         3078.73203     17.75338  0.00031  58535.30083   1.21397  0.15194  1201283.76619  45.38271  19.23291  58588.40134     51.1166       44.43265   24.66152  34.61794   53.0    0.14811  -20.89625  0.98957 
  -12.22638  0.00112  3.36924     14.50371  1.87393  0.50967    12.076  0.06809     0.38096  5638.41186   7387.66096  0.84252         3392.95974     16.36625    1e-05  58534.04706   2.29015  0.01348   194182.54107  46.19833  19.22961  58588.40134    50.97582       44.28794   27.98979  36.50957   50.5    0.15706  -20.86139  0.99928 
   -9.82046  0.00118  2.45576      14.3388  1.89369  0.65147  20.55326  0.02119     0.01917  5546.63592    5434.5971  0.10964         4406.15643     20.34567  0.12314  58536.45298   3.77196  0.02415   222793.27743  46.41788  19.32334  58593.45705    51.09096       44.34545   22.76448    47.426   61.0    0.19717  -20.99395  0.99933 
  -10.10037  0.05669  5.30255      14.1708  1.77722  0.98843  23.37033  0.01847     0.45391  4178.35527   4292.79352  2.20593         4045.77382     16.11674    1e-05  58536.17307    2.4339   1.3248   2113108.2456  44.74469   19.2908  58592.59225      51.119       44.43457   22.76448  38.12404   73.0    0.15812   -20.8985  0.83798 
   -2.73973  0.22536  2.00828     14.65164   1.8599  0.71169  19.32965  0.05017      0.1424  7216.95807   6008.18298    4.509         2292.55018     20.37249  0.13098  58543.53371   6.00564   4.3562    34647.70834  47.39301  19.31627  58590.20198    51.07261       44.31571   22.76448  41.73488   75.0    0.14751   -21.0317  0.93117 
   -8.97367  0.01464  2.73783     14.43041   1.4971  0.39035   14.1461  0.04293     0.04624  3939.32617   5105.96026  2.08228         3677.35149     20.69317  0.27409  58537.29977   1.30951  0.20712   143567.38851  46.41223  19.32441  58590.20198    51.04451       44.28129   23.83677  40.66259   59.0    0.14661  -21.08676  0.98987 
   -8.31401  0.16125  2.20441     14.26858  1.43464  0.77314  10.94419  0.06106     0.05647  6615.04927   8428.43914  0.10957         5120.27841     17.47375  0.00017  58537.95943   2.85678  1.76478   187923.95252  46.46502  19.27566  58590.20198    51.05017       44.27146   19.74354  46.87437   46.5    0.20272  -20.95885  0.94377 
  -11.27372   0.0791  3.06291     14.22932  1.66817  1.10552  10.60618  0.07859     0.01431  4572.37064   5315.62238  1.68354         3547.10226     16.75901    3e-05  58534.99972   1.32272  0.83894   505458.59177  45.81513  19.31091  58592.59225    50.87796        44.0598   31.64211   52.4154   60.0    0.12972  -20.79298   0.9579 
   -3.95809  0.02901  1.60466       14.479  1.99269  1.35664  43.68996  0.02205     0.04527  5526.71214   7641.72583  1.37118         3592.51426     16.10268    1e-05  58542.31535   7.96054  1.26725    52482.40745  47.43751  19.22601  58588.40134    51.13065       44.44364   24.46981  34.33843   48.0     0.1569  -20.96053  0.98885 
    -6.9099  0.20555  5.69946     14.50245  2.01888  0.86024  14.85109  0.03736      0.2078  4728.09364   7911.37156  3.84243         3353.99546       16.048    1e-05  58539.36353   1.98042   3.0526    602125.8244   45.2826   19.3041  58590.20198    51.10677       44.34415    18.9704  45.52896   72.5    0.15152  -20.89298  0.70505 
   -4.06114  0.00982  2.60916     14.69838  1.81771  0.47029  17.70756  0.06141     0.02669  5222.70702   5982.20408  2.67343         3564.05618     17.56465   0.0002   58542.2123   2.88122  0.17384    46088.30894  47.03178  19.32995  58588.40134     50.9611       44.21751   29.88683  42.20069   50.5    0.14011   -20.8867  0.99433 
   -10.7478  0.08204  2.78116     14.25309  1.71122   0.9766  16.09472  0.03869     0.13841  6130.40132   7807.61838  0.17016         4144.89977     17.01346    6e-05  58535.52563   3.60818  1.32043   383165.40947  46.03031  19.29376  58590.20198    50.90375       44.13043   26.94078  47.28126   52.0    0.18756   -20.8981  0.94802 
   -5.45295  0.12528  2.00488     14.37917   1.6586  0.87255  16.75791  0.04486     0.17847  7139.93837   5851.70782  0.55883         2121.32363     19.17047  0.00823  58540.82048   5.09608  2.09942   107991.77854  46.85102  19.29503  58593.45705    51.07982       44.35863   22.76448  41.73488   52.0    0.19855   -20.9907  0.95593 
   -7.31785  0.05707  3.58955     14.23047  1.76728  1.00361    6.3033  0.10139     0.18902  5995.19948   7790.68099  0.91071         3456.43192     19.35118  0.01247  58538.95559   1.35146  0.35972   731574.49707  45.54181  19.28572  58587.81171    50.91561       44.15659   27.98979  45.99477   49.5    0.18522  -20.95408   0.9767 
   -10.9736  0.09853  1.86307     14.44299  1.88423  1.04145  21.88066  0.05794     0.03313  7219.21728   7037.52861  0.16186          3794.7592      19.5805  0.02115  58535.29984   6.80249  2.15592    78964.78452  47.10609  19.24384  58588.40134    51.18721       44.50495   22.76448  34.03827   54.5    0.15457  -20.85156  0.96871 
   -3.42215  0.02538  2.30897     14.56003  1.84922  0.82208  39.97763  0.02454     0.02841  4544.32899   7331.36285  2.39538         3912.02089     16.63648    2e-05  58542.85129   4.92475  1.01478    69436.02808  46.96741  19.30429  58588.40134    50.99238       44.20642   23.83677  44.45667   54.5    0.12336  -20.84008  0.97605 
  -10.78346  0.14936  2.94407      14.2685  1.82698   1.0624  17.01049  0.03052     0.06601  5778.53515   7069.13759  0.28781         3841.71715     19.45838  0.01596  58535.48998   3.38828  2.54065   427013.19295  45.96224  19.27751  58588.40134      51.158       44.44074   22.76448  36.51498   69.5    0.18052   -20.9219  0.90318 
    -5.9981   0.0097  2.93102     14.17145  1.61083  1.15649  18.78651  0.04285      0.1386   5736.1973   5977.15626   1.9772         2660.01062     18.70019  0.00279  58540.27534   3.68741  0.18221    583441.3214  45.77586  19.25975  58590.20198    50.97284       44.23268   22.17721  44.45667   52.0    0.16009  -20.89694  0.99086 
   -9.72814  0.03552  1.08139      14.3106  1.70467  1.10313  16.65174  0.05972     0.42397  5286.38985   8104.72948  0.86111         3918.02262     20.54643   0.1955   58536.5453   2.77591  0.59154     44280.7953  47.78631   19.2494  58588.40134    51.13679       44.45706   22.76448  33.09027   47.5    0.13649  -20.95472  0.99706 
  -11.50081  0.00522  3.05237     14.03078  1.66807  1.17222   4.58875  0.07419     0.02202  5806.29476   8931.73905  0.00865         2972.14154     18.80153  0.00352  58534.77263   0.92283  0.02394  1252377.28208  45.42405  19.28928  58588.40134    50.95375       44.16436   32.24968  44.39744   49.5    0.18312  -20.86577  0.99874 
  -10.29545  0.04734   1.6475     14.46056  2.08915  1.21617  51.24348   0.0149     0.02837  5654.54882    6094.4669  0.32089         4388.95247     16.40296    1e-05  58535.97799   9.77376  2.42597    63141.76948  47.35485  19.27981  58592.59225    50.96923       44.23267   23.82521  46.03855   61.0    0.16315  -20.82806  0.97757 
   -9.79705  0.00986  2.31956     14.21718  1.92429  1.51076  32.19737  0.01536     0.04791  5213.86141   3763.86806  0.14535         5146.54231      17.0306    6e-05  58536.47639   5.22115  0.31746   353624.65213  46.27376  19.21431  58590.20198    51.16146       44.46506   22.76448   37.9408   54.5    0.20057  -20.87146  0.99241 
   -9.26486  0.00556  3.82451     14.20459  1.85071  1.23541  14.93857  0.05042     0.08506  6032.30697   6219.50544  1.10617         3501.10279     18.20993   0.0009  58537.00858   3.24267  0.08299   979775.46653   45.3799  19.31111  58587.81171    50.88684       44.06926   27.00871  52.66696   51.5    0.17957  -20.95465  0.99419 
   -9.35448  0.04287  4.62602     14.42458  1.96809  0.61511  15.58053  0.03347     0.44639  4729.23937   5484.27944   1.5602          3867.7256     17.94667  0.00049  58536.91895    2.0787  0.66793     553492.217  45.48936  19.28431  58592.59225     51.1245       44.41636   24.15193  36.55335   62.5    0.16782  -20.93272  0.94073 
  -10.58859  0.00137  3.38923     14.14698  1.92545  1.30635  10.93876  0.04116      0.0743  5319.98347   6066.58483  0.27778         5955.39646     17.07554    7e-05  58535.68485   1.84678  0.01496  1043749.77032  45.47458  19.26947  58587.81171    50.94195       44.16244   31.94254  42.80754   59.5    0.18026  -20.96758  0.99922 
   -3.62925  0.01224  2.50012     14.31568  1.72427  1.34191  22.69192  0.03733     0.36207  5250.96805   7813.01494  1.96019         3522.03601     19.73132  0.02993  58542.64418   3.73231  0.27767   233873.48637  46.34055  19.30755  58590.20198    51.02764        44.3119   24.66152  41.73488   46.5    0.16467  -20.91261  0.99101 
  -18.77366   0.0062  2.08559     14.31615  1.71456  0.72886   5.93974  0.15066     0.02354  5368.19803   5195.86711  0.02635         5544.11937     17.72208  0.00029  58527.49977   1.02106  0.03684   161484.13879  46.65641  19.25252  58590.20198    51.04204       44.30395   20.86744  43.63192   51.0    0.14826  -20.67954  0.99915 
   -6.16851  0.03002  1.49723     14.39134    1.697  1.04677   30.5254   0.0382     0.07937  6274.89352   7842.79632  1.11324         3360.25616     16.69819    3e-05  58540.10492   7.16971  0.91649    58263.84725  47.38255  19.24496  58590.20198    51.15721          44.46   23.56863  35.23961   45.5    0.15455  -20.97246  0.99037 
    -2.5162   0.0584  1.25071     14.68192  1.62065  0.51131  10.55507  0.15029     0.32128  6692.21092   8556.88618  2.05243         3333.80683      16.1058    1e-05  58543.75723   2.81986   0.6164    10185.18354  48.27625  19.26921  58590.20198    51.11017       44.37951    18.9704  39.83784   46.5    0.14141  -20.94859  0.99608 
   -4.81471  0.09996  0.74197     14.53252  1.83104  1.48634  25.73929  0.04739     0.08189  6039.75397   4827.68702  1.30694         3310.99852     16.21827    1e-05  58541.45873   5.60096  2.57303     8058.23529  48.88454  19.28214  58590.20198     50.9152       44.11052   31.94254  47.55394   59.5    0.10699  -20.78216  0.99857 
   -6.58332  0.10442  5.73686     14.31834   1.9251  1.00882  22.60149  0.02203     0.25629  5215.74577   8636.56313  3.01392          3329.0271     17.74065  0.00031  58539.69012   3.66773  2.36013  1358118.26167  44.90301  19.27685  58590.20198    50.97303       44.20811   27.98979  43.66477   65.5    0.16632  -20.91444  0.73825 
  -11.72579  0.00216  3.86145     14.25622  1.38191  0.31703   7.01706  0.06013     0.01867  6157.32469   7263.55218  1.33062         3146.06312      18.9984  0.00554  58534.54765   1.58696  0.01514   587977.29101  45.46646  19.27277  58588.40134    50.94078       44.19599   28.90575  41.28473   63.5    0.15338  -20.92272  0.99826 
   -4.57619  0.03602  1.78082     14.55979  1.95875  0.80973  19.59702  0.04189      0.0366  4663.88719   7263.41542  1.20173         4128.48923     18.53483   0.0019  58541.69725   2.54281  0.70587    43797.27617  47.41814  19.23318  58588.40134    51.06877       44.30149    28.4556  39.83784   49.0    0.14759  -20.91363  0.99127 
    -3.3105  0.15975  0.97436     14.58295   1.4021  0.76343  36.05371  0.02118     0.04355  6969.90662    4495.9286  0.83209         3821.36917     17.91369  0.00046  58542.96294  10.44795  5.75971     8435.90667  48.51205  19.29625  58587.81171    50.93576       44.11205   33.83958  45.83609   86.5    0.16373  -20.98991  0.98559 
  -10.20905  0.00334  3.90522     14.15581  1.83154  1.54634  13.16059  0.05913      0.0183  4893.04489   7018.92101  1.96288         3274.92381     18.59628  0.00219  58536.06439   1.87958  0.04399  1265616.22542  45.24607  19.22011  58590.20198    51.01396        44.2599   24.15193  44.36302   57.5     0.1415   -20.8462  0.99673 
  -10.61263  0.00122  3.75435     14.11182  1.69161  0.93389    9.4989  0.07351     0.08182  6671.00942   5867.97081  1.22258         2710.27252     19.91453  0.04563  58535.66081   2.52164  0.01157  1322936.19393  45.22654  19.23302  58590.20198    51.12714       44.42774   26.04897  34.83955   58.0    0.16898  -21.02094   0.9991 
   -7.86863  0.01134  1.55897     14.27797  1.64992  1.55572  27.15081  0.05165     0.01819   5591.5133   4694.62312  1.23851         3652.37481     18.23283  0.00095   58538.4048   5.06371   0.3078   103515.46329  47.08563  19.32083  58592.59225     50.8794       44.05445   34.14672  49.32304   51.0    0.12844  -20.90051  0.99612 
   -8.74189  0.00607  3.25721     14.19969  1.47457  0.61025   9.22698  0.06545     0.19362  6647.17753   6119.08482  0.86182         2683.98321     18.69425  0.00275  58537.53155   2.43199  0.05603   579148.73377  45.64903  19.24526  58590.20198    51.06308       44.35384    18.9704  43.63192   56.5     0.1886  -20.99694  0.99598 
   -7.13643  0.46906  1.67611     14.45707  1.87365  1.03008   3.30583  0.27278     0.16455  6088.11648   8897.96065  0.52527         4518.50347     16.65779    3e-05  58539.13701   0.73093  1.55064    59561.80259  47.31796  19.39045  58590.20198    50.97308        44.1995   26.04897  47.50263   42.0    0.17825  -20.99442  0.98219 
   -5.03899  0.01698  0.81239     14.65764  1.75414  0.58339  18.86508  0.09793     0.48195  7185.06684   6253.05717  1.63332         2872.19678     19.98804  0.05405  58541.23445   5.80961  0.32025     5201.55778  48.97725    19.275  58588.40134    50.99937       44.23667   26.09275  40.52516   47.0      0.094  -21.09435  0.99957 
   -7.55131   0.4118   1.4116     14.52616   2.1016  1.28669  10.31179  0.05368     0.01364  5607.68483   8227.78648   0.3157         4090.77642     16.29793    1e-05  58538.72212   1.93432  4.24643    34472.91128  47.75449  19.24489  58590.20198    51.05875       44.35837    28.4556   37.9408   62.5    0.20174    -20.905  0.97714 
  -10.59703  0.01565  4.91017     14.14694   1.9406  1.26523  24.26519  0.01722     0.01233   4230.7034   6891.20722  2.01283         3550.70016     18.94501  0.00489   58535.6764   2.59081  0.37983  2208348.17332  44.83052  19.23258  58590.20198    50.98093       44.22902   30.80279  41.28473   68.0     0.1649  -20.84054  0.96017 
   -4.77643  0.00243  2.86392     14.42958   1.6692  0.69236   8.02017  0.10441     0.14783  4653.35701   6807.37954  2.33262         3659.44879     17.26187   0.0001  58541.49701   1.03596   0.0195   175828.11751  46.33235  19.29546  58590.20198    51.09828       44.36032   25.43466  40.96173   50.5    0.14816  -20.90485  0.99911 
   -9.47838  0.11651  3.54966     14.53149  1.85278   0.5881  15.27197  0.04061     0.03146  5473.83759   6336.62735  1.10999         3695.30886      16.1744    1e-05  58536.79505   2.72964  1.77941   187510.31723  46.16327  19.31972  58592.59225    51.09382       44.38632    18.9704  43.63192   60.0    0.17629  -20.91813  0.90337 
   -9.78492  0.15177  4.37513     14.26428   1.7247  0.88103   9.23605  0.06081     0.02067  5406.03349   8700.75235  1.34256         4014.77197     17.59937  0.00022  58536.48852   1.61017  1.40172   907729.35526  45.26562  19.28458  58592.59225    51.20372       44.50383   20.86744   37.9408   54.5    0.17916  -20.95276  0.87423 
   -7.05783  0.11209  1.87849     14.30176  1.47087   0.7826   12.6119  0.05624     0.43603   5637.4088   5999.57533  0.50165         4414.75088     19.92407  0.04664   58539.2156   2.39093  1.41363   120083.15471  46.80932   19.3556  58592.59225    50.97659         44.224   22.35146  49.08179   52.0    0.18413  -20.98209  0.96808 
   -8.87965  0.00336  3.33107     14.31593  1.93627  0.73309  23.30672  0.01574      0.0219  4585.22643   6088.89473  0.44431         5818.41397     19.04006  0.00609  58537.39379   2.92301  0.07842   465687.28856  45.84255  19.30322  58588.40134    50.96625       44.16402   27.98979  45.99477   62.0    0.18894  -20.96178  0.99611 
    -8.8062  0.00399  2.81688     14.12446   1.9293  1.26746  13.00093  0.04021     0.08153  6272.61167   3495.00265   0.3592         3353.69609     20.59928   0.2208  58537.46724   3.05139  0.05183   801370.55103  45.75088  19.27436  58586.21094    50.90412       44.09766   31.94254  43.93905   59.0    0.19532   -21.1842  0.99815 
