 texplosion  fnickel    Pspin  log(Bfield)      Mns  thetaPB   mejecta    kappa  kappagamma     vejecta  temperature    alpha  cutoff_wavelength  log(nhhost)      A_V         MJD0  kenergy  mnickel           TSD   log(L0)  Peak_mag     Peak_MJD  log(E_rad)  log(Peak_lum)  Rise_Time    E_fold  tau_1  delta_m15     r_peak     frac 
  -12.16846  0.00577  0.77631     14.10114  1.79968  1.45042  10.26729  0.07564     0.10163  6624.11876   7878.51023  0.36002         4365.92567     16.87893    4e-05  58440.15634  2.68744  0.05928   63213.22301  47.94316  18.48831  58492.27336    51.60135       44.97998   15.89402  35.36147   43.5    0.20097  -21.69614  0.99985 
  -12.46003  0.00581   0.9761     14.02176  1.63209  1.51169    10.669  0.08343     0.21056  7385.80699   7264.46469  0.36175         4196.70959     19.26969  0.01034  58439.86477  3.47174  0.06202  130626.84665  47.38657  18.48563  58492.22621     51.6309        45.0294   16.62468  32.98665   45.0    0.19028  -21.73253  0.99968 
  -14.09195  0.00299  0.84095      14.0119  1.59165  1.17178   8.79833  0.09291     0.07315  7258.69196   8258.65109  0.23372         3111.13463     17.52317  0.00019  58438.23285  2.76531  0.02634   98944.17415  47.62576  18.52142  58492.22621    51.51675       44.87079   18.70277  35.64742   44.0    0.19244  -21.60765   0.9999 
  -10.72735  0.00436  0.76827     14.16749  1.68544  0.89769  12.57323  0.05747     0.22127  6865.34133   8994.36806  0.33554         4244.29282     18.22393  0.00093  58441.59745  3.53507  0.05484   42715.17169  48.09395  18.51004     58493.12    51.69385       45.08907   16.60205  33.45412   39.5    0.21717  -21.69265  0.99985 
   -8.91345  0.02373  1.09743     14.27493  2.03108  1.03964   9.40246  0.08002     0.06948  6176.14402    9123.0094  0.79214          3954.4593     18.80332  0.00353  58443.41135  2.13946  0.22308   64037.61174  47.68938  18.50737  58492.22621    51.64587        45.0202   16.80679  35.06473   42.0    0.19696   -21.6984  0.99899 
   -8.94197  0.00112  0.87129     14.07936  1.57062  1.00133  13.63288  0.04843      0.0428  6713.76086   9478.26413  0.41782         4263.58057     17.87157  0.00041  58443.38283  3.66561  0.01531    76824.0712  47.69909  18.51564     58493.12    51.66796       45.06657   14.34185  33.45412   39.5    0.21862  -21.70287  0.99993 
  -10.16626    0.002    1.082     13.93658  1.46733   1.1587  13.55113  0.04242     0.46729  6496.90724   7238.32202  0.40068         4451.52695     17.94467  0.00049  58442.15854  3.41205  0.02712  213619.42968  47.03727  18.47753  58490.26134    51.51785       44.88055   18.70277  33.56934   50.5    0.21468  -21.69906  0.99979 
  -10.25337  0.00195  0.73663     14.08522  1.50193  0.89426  16.68734  0.03668     0.03143   5209.7784   8732.26934  0.68791         4470.03567     17.73873   0.0003  58442.07143   2.7018  0.03254   51112.48958  48.00247  18.50435     58493.12    51.61406       44.98129   16.60205  36.06083   46.0    0.18651  -21.67353   0.9999 
  -10.44504  0.16264  0.74918     14.23339  1.93557  1.36462   6.73539  0.13834     0.17316  6852.29129   7656.08517   0.6284         3846.83073     18.06929  0.00065  58441.87976  1.88652  1.09542   34435.82483  48.26947  18.49677  58492.22621    51.53179       44.90714    14.5466    36.928   43.5    0.19579  -21.72245  0.99816 
  -11.88064  0.04564  0.86288     14.18776  1.87236  1.01623  14.78428  0.04976     0.03714   6961.8138   9397.32609  0.33657         4019.15551     19.48614  0.01702  58440.44416  4.27437  0.67474   54524.63773  47.93274    18.473     58490.14    51.51916       44.86809   19.20736  35.54035   39.5    0.20565   -21.7276  0.99794 
   -8.75492  0.06044  0.89972     14.08437  1.61635  1.09658   12.0106   0.0577     0.10271  6761.03582   6060.64719   0.6719         3032.75133     17.56373   0.0002  58443.56988  3.27505  0.72598   82380.62468  47.65334  18.48152  58492.22621    51.55709       44.91785   16.62468  36.93416   48.0    0.20544  -21.65901  0.99686 
  -11.06962  0.26852  0.70662     14.29626   2.0606  1.06475   7.09685  0.12159     0.05216  7649.03092   8447.78928  0.27939         3564.60864      16.1099    1e-05  58441.25518  2.47688  1.90567   24415.75732  48.49679  18.49448     58493.12    51.53477       44.88515   16.62468  37.71935   41.0    0.19578  -21.72947  0.99752 
   -12.9878  0.04048  0.77883     14.23923   1.7583  0.71142   8.18703   0.1029     0.12629  7474.57873   8098.18465  0.42832         2480.53173     19.99921  0.05545    58439.337  2.72852  0.33145   32909.81591  48.21373  18.50566     58493.16     51.6569       45.03421   16.60205  35.26948   44.5    0.19459  -21.69088   0.9991 
   -8.86774  0.06244  0.74329     14.18457  1.67412  1.01745  11.72667  0.06106     0.07243  5987.73977   9834.16008  0.70574         4459.17767     16.54954    2e-05  58443.45707    2.508  0.73227   36708.24099  48.18556  18.51611  58492.27336     51.6246        45.0177   17.97211  33.71731   39.5    0.20925  -21.73363  0.99829 
  -12.31753  0.00151  0.81779     13.98513  1.59017  1.21164  13.73736  0.04396     0.03039  6527.68099   9522.94854  0.22799         5621.40344     18.90718  0.00449  58440.00727  3.49179  0.02076  105749.43832  47.62073  18.46796     58493.12    51.64065       45.03703   15.89402  33.71731   42.0    0.20335  -21.71479  0.99992 
  -12.47402   0.0204   0.8678     14.04645  1.63294  1.20481  15.84426  0.04148     0.10178  5591.13358   8628.45473  0.54697         4934.13397      17.9241  0.00047  58439.85078   2.9546  0.32316   92199.55145  47.64025  18.48395  58492.22621    51.60783       44.98864   16.62468  33.90855   46.5    0.18881   -21.6806  0.99871 
  -10.74191  0.00217  0.90762     14.37106  1.82878  0.58201   6.30337   0.1505     0.18321   7802.5173   8751.45905   0.9306         2000.29456     17.68407  0.00027  58441.58289  2.28912  0.01365   25331.95595  48.21153  18.51417     58493.12    51.58217       44.94893   18.88488  35.32745   40.0    0.18079  -21.70345  0.99995 
  -13.79471  0.12185   0.8579     14.11183  1.70214  1.03418   7.31395  0.11201     0.05583  7493.60081   6742.71789  0.15687         4900.07332     16.22832    1e-05  58438.53009  2.44997   0.8912   69505.33585  47.79095  18.49657  58492.27336    51.54968       44.92102   16.62468  35.48024   48.0     0.1989  -21.64352   0.9968 
  -12.09589  0.00304  1.00165     14.09692  1.59098  0.83115  14.97991  0.05083     0.03829  7928.21044   7896.32845  0.36314         2089.40022     16.78636    3e-05  58440.22892  5.61677  0.04558   94858.41709    47.492  18.47782  58490.26134    51.58295       44.95427   18.88488  35.32745   44.0    0.20518  -21.72051  0.99974 
  -13.98152  0.01331  0.74471     14.22532  1.69562  0.70275  15.51074  0.04809     0.12773  5887.16704   9265.76068  0.40755         4468.13861     16.96854    5e-05  58438.34329   3.2068  0.20648     30937.063  48.26373  18.48674  58492.22621    51.56992       44.95347   16.62468  34.84992   44.5    0.17122   -21.5479  0.99946 
  -13.52721  0.00444  0.94893     14.00303  1.63675  1.25341  16.82399  0.04382     0.03555  6947.74239   6950.62982  0.21442         5048.72622     17.21214    9e-05  58438.79759  4.84444  0.07474  134964.63035  47.39814  18.47759  58492.22621    51.57075       44.96138   16.62468  33.40215   49.0    0.19719  -21.67291  0.99963 
  -14.50414  0.01543  0.72434     14.26707  1.92402  0.85015   8.61393  0.11318     0.08405  7196.08113   7076.90322  0.23376         3913.32235     19.41598  0.01448  58437.82066  2.66085  0.13295   27400.93443  48.39541  18.48359  58492.22621    51.62134       44.99772   16.80679  35.32745   46.5     0.1742  -21.54934  0.99976 
   -9.05055  0.02425  0.91902     14.08857  1.58527  1.19547      9.07  0.09499     0.36896  7255.63496   8468.83055  0.63483         3629.36652     18.31243  0.00114  58443.27425   2.8483  0.21992   82685.62552  47.62487   18.4675  58492.22621    51.61839       45.01199   16.62468    33.778   41.0    0.20405  -21.70764  0.99899 
  -13.31703  0.00144  0.74448     14.12021   1.8845  1.54096   19.3223     0.04     0.03482  6761.85805    7431.0886   0.2506         4615.78481     17.80953  0.00036  58439.00777  5.27009  0.02783   55757.73874  48.05403  18.49816  58492.22621    51.55178       44.92711   16.96117  34.51959   45.5    0.18971  -21.60583  0.99994 
  -11.33058  0.10026  0.82801     14.22648  1.86453  0.96974  10.59642  0.08376     0.12612  8129.79486    6457.3541  0.52669         2049.36207      17.5731  0.00021  58440.99422  4.17778  1.06239   41832.03717  48.08183  18.50369  58492.27336    51.44931       44.77796   16.96117  39.14714   44.5    0.20011  -21.73809  0.99716 
  -12.38433   0.0171    0.745      14.2472  1.98685   1.0396  13.91543  0.05826     0.05841  7064.66802   7845.93069  0.27755         4704.97968     18.69308  0.00274  58439.94047  4.14293  0.23793   32801.93944   48.3068  18.51989  58490.26134    51.33541       44.63038   22.85894  39.48363   41.5    0.21021   -21.6895  0.99958 
   -8.06435  0.04773  0.95699     14.29621  1.68809  0.72739  10.96622  0.07479     0.39637  6122.05492   8118.14169  1.07272         3712.71668      18.7737   0.0033  58444.26045  2.45176  0.52339   36694.55031  47.96983  18.48551  58492.22621    51.62902       45.00988   16.62468  35.32745   45.5    0.16685  -21.69482  0.99769 
  -13.00798  0.00264  0.81763     14.05214  1.71097  1.28977   9.67768  0.08387     0.39583   7675.9566   8562.46438  0.13296         4229.53203     19.64674  0.02463  58439.31683  3.40144  0.02551    83540.5117  47.75508  18.50053  58492.22621    51.59726       44.94856   20.78086    36.928   40.5     0.2029  -21.69931  0.99992 
  -11.94648   0.0142  0.86763     14.14978  1.82762  1.21817  12.50255  0.07182     0.08681  6733.84533    9322.9862  0.52839         3844.77905     19.00874  0.00567  58440.37832  3.38183   0.1775   64092.89178  47.84725  18.49786  58492.27336    51.63349       45.01678   15.89402  34.63922   41.0    0.18352  -21.71878  0.99944 
  -11.93878  0.03834  0.92478     14.10803  1.64625  1.04558   6.96223  0.12677     0.11483  6787.83684   7445.39323  0.50633         3887.98603     18.19773  0.00088  58440.38602  1.91354  0.26693   79494.28126  47.65293  18.48288  58492.22621    51.62184       45.00467   16.62468  34.63081   46.0    0.18062  -21.69779  0.99881 
  -13.55261  0.01512  0.81747     14.06115  1.70557  1.25295   8.54959  0.09383     0.08808  7002.11992   6663.07404  0.25601         4021.10174     18.35121  0.00125  58438.77219  2.50053  0.12929   79860.27964  47.77344  18.50648  58492.27336    51.59979       44.98012   15.89402  35.36147   47.5    0.19604  -21.62187  0.99958 
  -13.24361    0.051  0.77859     14.00457  1.58082  1.34217   9.64754   0.0833     0.38068  7403.97885   6225.33206  0.15598         5710.67306     18.94741  0.00492  58439.08119  3.15482  0.49202   87132.20929  47.74493  18.50985  58492.27336    51.56591       44.93077   16.62468    36.928   46.5    0.19632  -21.68781  0.99839 
  -13.51151  0.00749  0.71503     14.25698  1.71135   0.6611  10.43616  0.07208     0.04887  6508.61579   8632.09981  0.26604         5075.49734     16.40382    1e-05  58438.81329  2.63721  0.07821   24879.18895   48.3977   18.5019     58493.12    51.60021       44.98425   15.89402  34.63922   43.5    0.18816  -21.61349  0.99982 
  -10.62045  0.00181  0.82743     14.07315   1.5842  1.07853   16.3703  0.04311      0.0644  6318.30652   6117.05853  0.54014         4168.59644     16.45394    2e-05  58441.70435  3.89839  0.02969   71907.68541  47.77642  18.50378  58492.22621    51.58554       44.95197   15.89402   36.2109   44.5    0.18963  -21.70275  0.99989 
   -7.24583  0.00619  1.30389     14.01506  1.53601  1.30843  16.92925  0.03743      0.3321  5214.45124   6956.75177  1.26959         4079.98307     19.51596  0.01823  58445.07897  2.74588  0.10483  226237.37382  46.87019  18.53982  58492.22621    51.38228       44.68776   22.85894  39.48363   47.5    0.18865  -21.72102   0.9989 
  -12.26125  0.00295  1.05049     14.12819   1.7841  0.98838  18.33478  0.03805     0.04214  6054.88209   5744.23229  0.49387         4458.67116     18.62363  0.00234  58440.06355  4.00972  0.05403  101306.88523  47.47185  18.48325     58493.12    51.62899       45.02102   15.89402  33.98003   48.5    0.18798  -21.69958  0.99971 
   -9.17875  0.00605  0.86616     13.98734  1.40144  1.13045  14.16921  0.04975     0.05069  6266.28394   9824.61694  0.64658         4342.76711      18.5731  0.00208  58443.14605  3.31889  0.08573  103493.92112  47.52531  18.50669     58493.12    51.60934       44.96943   16.80679  36.70889   39.5    0.19956  -21.72393  0.99957 
  -12.90186   0.0127  0.75388     14.42622  2.13923  0.59135  20.61661  0.03291     0.30573  6016.69824    9066.4375  0.40278         4272.56384     20.04195  0.06119  58439.42294  4.45206  0.26187   15857.42244  48.64427  18.48764  58492.22621    51.62216       45.00204   15.89402  34.51482   44.5    0.18011  -21.66713  0.99954 
   -7.90182  0.01079  1.15885     14.23222  1.79943  0.95712   14.4957  0.06424     0.27917  7221.36105   8719.96545  0.90218         3559.55574     18.03755  0.00061  58444.42298  4.50925  0.15642   77013.34363  47.50936  18.50232  58492.22621    51.67191       45.07052   16.60205  33.04166   41.5     0.1976  -21.72548  0.99902 
  -14.96861  0.02848  0.83442     14.17119  2.03972  1.30684   7.57021  0.12565     0.12404  7625.41884    7299.1378  0.10182         4314.50525     19.44477  0.01547  58437.35619  2.62581  0.21558    59949.0626  47.95786  18.49462  58492.27336    51.63893       45.04031   17.97211  31.90195   45.5    0.18513  -21.59793  0.99947 
  -13.61737  0.00137  0.71009     14.28131   1.8939    0.733  15.40204  0.04643     0.16444  6861.36431   8807.06226   0.1454         5398.32511     16.53249    2e-05  58438.70743   4.3254  0.02115   24275.40032  48.45841  18.50382     58493.16    51.66696       45.05963   15.89402  33.71731   42.0    0.20094  -21.59576  0.99996 
  -14.26959  0.01409  0.72168     14.29331  1.48424  0.45535  12.42624  0.06438     0.06229  7063.59915   6927.63399  0.17518         4331.43032     18.76251  0.00322  58438.05521  3.69844  0.17512   18594.50467  48.45428  18.46982  58492.27336    51.63388       45.02592   15.89402  33.71731   48.5    0.18791  -21.59991  0.99946 
  -13.23497  0.00414   0.7733     14.20773  1.76351  0.82937   9.60635  0.09388     0.14342  8097.85213   8698.22925  0.03984         4157.84606     19.15098  0.00787  58439.08983  3.75773   0.0398   37621.11046   48.1631  18.48748  58492.22621    51.53154       44.90101   18.70277  34.84992   38.5    0.20619  -21.66264   0.9999 
   -6.66615   0.0676  0.70646     14.27545  1.62328  0.80764  11.09046  0.07416      0.1603  6551.57176   8524.32157  0.88419         3857.89909     17.77747  0.00033  58445.65865  2.83967  0.74969   21159.27793  48.45556  18.47368  58492.27336    51.56917       44.94645   16.62468   34.9747   42.5    0.20353  -21.69107  0.99851 
   -9.21622  0.11939  1.71363     14.14433  1.87741  1.10497   6.82506  0.11652     0.05373  7396.72708   7285.24569   0.9781         3223.15329     19.71684  0.02894  58443.10858  2.22748  0.81487  263359.75107  46.65402  18.47125  58492.22621    51.51107       44.88854   18.70277  33.56318   49.0    0.18654  -21.74249  0.98902 
  -12.26605  0.00123  0.78302     14.03841  1.69829  1.52291  12.86261  0.05356     0.04929  5812.67183   8180.09717  0.49064         4259.30559     18.94223  0.00486  58440.05875  2.59244  0.01578   81014.49888  47.80274  18.47412  58492.22621    51.49985       44.86743   16.96117  35.31094   46.5     0.1863  -21.66138  0.99995 
  -11.38802  0.00337  0.89933     14.28322  1.67894   0.6001   7.20973  0.12149     0.27109  8097.28972   7664.80846  0.23272         2741.79315     18.45642  0.00159  58440.93678  2.81985  0.02427   34217.92184  48.05178  18.52283     58493.12    51.60236       44.97497   16.80679  35.98664   41.5    0.21448  -21.74876   0.9999 
   -9.57014  0.00393  1.08666     14.18966  1.92181  1.34623  11.34022   0.0709     0.19976  5971.94511   8421.89008  0.87905         4055.95221     16.90765    4e-05  58442.75467  2.41257  0.04453   87980.51358  47.53599  18.50854  58492.22621     51.6281        44.9989   18.70277  33.56318   44.5    0.17458  -21.69079  0.99978 
  -11.00121  0.00843  0.76429     14.06944  1.70586  1.45573  16.50068  0.04269     0.12325  6549.97591    9352.8075  0.38705         4499.47661     16.23835    1e-05  58441.32359  4.22288  0.13907   67203.62886  47.90687  18.48678  58492.22621    51.58752       44.95971   16.62468  35.48024   40.0    0.20521  -21.71794  0.99963 
   -12.0813  0.01175  0.77418     13.99035  1.42815  1.05677  13.89446  0.05067     0.06469  6131.55381   7305.58588  0.49327         4086.30646      16.1402    1e-05   58440.2435  3.11609  0.16324   83095.41227  47.72636  18.49078  58492.22621    51.56727       44.94313   16.62468  35.32745   47.0    0.19235  -21.67178  0.99937 
  -10.20765  0.00149  1.12175     14.18611  1.75389  0.88296  15.38231  0.05671     0.20342  7256.34932   8877.87313  0.88423         2808.05416     19.30532  0.01122  58442.11715  4.83153  0.02297   86976.25653  47.47366  18.52022     58493.16    51.62661       44.98348   16.90864  37.65021   42.0    0.18846    -21.709  0.99986 
  -12.49007  0.14417  0.73737     14.13194  1.77474  1.16289   8.65608  0.09026     0.06275  7496.03584    5990.6398  0.18729         3703.38912     17.99012  0.00054  58439.83473  2.90143  1.24792   48801.91199  48.09417  18.50056  58494.13672    51.54123       44.87482   20.96296  35.64742   47.0     0.2011  -21.67326  0.99722 
  -12.83675  0.00117  0.82918     14.18003  1.96269   1.0694  16.38429  0.04179     0.08509  6390.04545   6907.27336  0.30662         4211.95212     16.22468    1e-05  58439.48805  3.99082  0.01914   54689.43416   47.9865  18.48963  58492.22621    51.44868       44.78986   19.20736  36.90095   47.5    0.19261   -21.6287  0.99995 
   -7.90802  0.00198  0.79564     14.03278  1.41772  1.02811  18.71752  0.03053     0.03549  5021.50973   8853.59811   0.9025          4214.4824     18.58132  0.00212  58444.41678  2.81543  0.03712   71658.81029  47.76374  18.51474  58492.22621    51.45521       44.78716   18.70277  37.40554   45.5    0.19636   -21.6684  0.99985 
  -15.15275  0.02198  0.85761     14.11647  1.53467  0.80018  11.86664  0.08013     0.28337  7624.09372    8684.1707  0.22587         3374.41451      18.4065  0.00142  58437.17205  4.11463  0.26078   61300.99661  47.80081  18.48618  58492.22621    51.63712       45.02523   15.89402  33.98003   42.0    0.17967  -21.58316  0.99887 
  -12.99949  0.00327  0.71468      13.8747  1.34002  1.50896   7.57977  0.10314     0.20902  7604.30061   9125.76143  0.10804         4646.48349     17.41064  0.00014  58439.32531  2.61458  0.02481  113172.29986  47.63399  18.49857     58493.12    51.61294        44.9957   15.89402  35.36147   39.0    0.20472  -21.67854  0.99991 
  -11.03774  0.00852  0.84698     14.13377  1.70637  0.95359   9.20052  0.07618      0.0566  6537.03434   6998.70241  0.40739         4230.17314     19.46508  0.01621  58441.28706  2.34531  0.07835   61388.86604  47.85708  18.48129  58492.22621    51.56829         44.948   16.47287  35.32745   45.5    0.19317  -21.71859  0.99973 
  -10.57229  0.10866  0.72944      14.0364  1.60274   1.4818  14.35009  0.04524     0.01567   6109.5654   8834.61955   0.4474         4864.79964     17.25107   0.0001  58441.75251  3.19523  1.55925   66966.99346  47.92187  18.47253  58492.22621    51.60211        44.9839   16.62468  34.63081   45.0    0.19002  -21.71445  0.99592 
  -14.31606  0.02804  0.76088     14.08629  1.57793  0.93529  14.38915  0.06159     0.04558  7764.69234   6867.56249  0.16126         2885.77371     19.44115  0.01534  58438.00874    5.175  0.40353   57009.68467  47.94835  18.52105  58492.27336    51.62901       44.99229     18.218  36.19138   46.5    0.19095  -21.61007  0.99874 
