 texplosion  fnickel    Pspin  log(Bfield)      Mns  thetaPB   mejecta    kappa  kappagamma      vejecta  temperature    alpha  cutoff_wavelength  log(nhhost)      A_V         MJD0   kenergy  mnickel            TSD   log(L0)  Peak_mag     Peak_MJD  log(E_rad)  log(Peak_lum)  Rise_Time    E_fold  tau_1  delta_m15     r_peak     frac 
   -6.43266  0.00275  0.83642     14.35653  1.14308  0.51529   5.28902  0.26785     0.20029  11658.18348   5166.25457  0.34131         2693.24747     18.01486  0.00057  55460.86734   4.28809  0.01454    14377.37147   48.3244  21.47081  55510.94758    51.13225       44.51505   16.34186  36.25812   33.0    0.28222   -21.4651  0.99992 
  -15.82396  0.22835   3.6794     13.85289  1.91026  0.88409    5.0186  0.05751     0.01754  10262.73165   7295.77406  0.24729         4776.00065      16.9577    5e-05  55451.47604   3.15308    1.146   4728075.9956   44.7437  21.35916      55510.2    51.15188       44.42513   26.26364  39.80539   46.5    0.22024  -21.56861  0.93003 
    -7.0218   0.0054   1.0386     14.40431  1.88738  1.20828   5.66226  0.29759      0.4497  12790.42057   7725.63232  0.02667         2294.99385     16.15244    1e-05   55460.2782   5.52569  0.03059    29373.88136  48.04385  21.44195  55510.94758    51.15387        44.5407   25.04716   31.2209   31.0    0.23133  -21.62173   0.9999 
  -10.56932  0.02748  4.14996     14.18862  1.95109   0.7787   3.66937  0.12589     0.04728  11028.11498   4263.04055  2.06278         2044.95153      17.0017    6e-05  55456.73068   2.66208  0.10083   1309009.9363  45.20609  21.32174  55516.37362    51.15361       44.43579   27.71947  39.09672   43.0    0.26663  -21.45862  0.99224 
   -4.35516  0.31287  1.17334     14.67934  1.89285  0.59828   7.29862  0.15377     0.03807  10541.66592   8519.31411  0.68469         3225.46459     17.01503    6e-05  55462.94484   4.83823  2.28353    10595.01866  48.38201  21.41428  55510.94758    51.39397       44.74953   15.63783  31.27566   33.0    0.26802  -21.44737  0.99075 
   -9.16811  0.00895  3.84697     13.86711  1.61831  1.29859   3.94262  0.06968     0.05091   9607.25279   7855.08627  2.13422         2611.59315     17.57193  0.00021  55458.13189   2.17075   0.0353  4100989.96894  44.69478  21.38268  55510.94758    51.03648       44.39482   21.32432  35.54053   54.0    0.23282  -21.38695  0.99686 
  -10.19919  0.22789  3.05613     14.17308  1.82384  1.20727   4.65425  0.20022     0.14436  10999.50063   6276.82134   0.3464          3494.2402     16.39877    1e-05  55457.10081    3.3591  1.06068   712818.66448  45.70651  21.33833   55513.6606     51.1831       44.52398   23.00348  33.86137   43.0    0.25974  -21.53968  0.95372 
   -5.22074  0.04083  2.32972      14.2605  1.78774  1.19816   5.41625  0.16317     0.28959   9072.04361   3259.63477  1.34321         2972.90867     18.31362  0.00114  55462.07926   2.65911  0.22112   271468.66747  46.35282   21.3596      55512.3    51.21174       44.54415   24.85112  34.85697   39.5    0.24147   -21.4405  0.99405 
   -6.12901  0.08081  1.58319     14.21889  1.62619  1.49064  12.14971  0.08509      0.0368   7574.80577     5988.792   1.4578         3077.55074     16.41008    1e-05  55461.17099   4.15849  0.98184    138122.8174  46.94068  21.39315      55512.3    51.20837       44.55515   17.05945  35.54053   45.0    0.18622  -21.34401  0.98663 
   -6.29191  0.26573  1.16109     14.39981  2.06856  1.38892  11.25804  0.08931     0.01966   9941.22081   9233.15346  0.45586         3512.42281     20.34008  0.12157  55461.00809   6.63696  2.99164    41076.31575  47.84119  21.38299   55513.6606    51.17194       44.58302   19.43346   31.7449   33.5    0.23255  -21.63314   0.9881 
   -6.44364    0.043  0.94477     14.40239  1.64126  0.85536  11.24385   0.1593     0.06156  13110.72995   4484.18247  0.42475         2386.62149     20.13858  0.07644  55460.85636  11.52912  0.48347    21323.94307   48.2045  21.46577  55510.94758    51.09473       44.49588   17.05945  34.11891   34.0    0.25161  -21.69741  0.99838 
    -7.6241  0.01014  1.85404     14.31959    1.698  0.85176   8.08571  0.17634     0.08323  11084.27666   9828.21066  0.77937         2980.91216     17.88254  0.00042   55459.6759   5.92598  0.08202    124395.7958  46.86774  21.43234      55512.3    51.24656       44.48273   27.31164  41.22701   30.0    0.22757  -21.57018   0.9985 
   -6.62886   0.0426  1.70656     14.44994  1.85858  0.74115   7.44647  0.20344     0.06879  12248.82053   9677.35164  0.21977         3782.43219     18.36318  0.00128  55460.67114   6.66448   0.3172    63292.38621  47.27243  21.46378      55510.2    51.17582       44.60128   12.79459  32.69729   27.5    0.25394  -21.63932  0.99583 
  -10.42442  0.16866  3.22842     13.91207  1.82497  1.44837   6.13041  0.03113     0.05465   8800.26832   7636.74322  0.45756         2998.39227      20.5031  0.17694  55456.87558    2.8321  1.03395  2647991.46022   45.0892  21.37383  55516.37362    51.16058       44.47003   24.16756  38.38377   71.0    0.17349  -21.46932  0.94911 
   -6.15135  0.03117  0.93652     14.28805  1.62188  1.07599  12.21203  0.15175     0.02639  11326.56264    9813.9352  0.41832         5710.70216     18.59794   0.0022  55461.14865   9.34569  0.38062    35056.54662  47.99106  21.44421      55512.3    51.14398        44.5031   19.43346  36.00976   30.5     0.2098  -21.77482   0.9986 
   -9.38079  0.00805  2.84855     14.43461  1.73725  0.49932   5.90668   0.1295     0.16714  10253.63263   6147.22679  0.58285         2892.01377     17.75369  0.00032  55457.91921   3.70447  0.04754   176891.91377  46.35175  21.45264      55512.3    51.17119       44.54482   15.63783  38.38377   40.5    0.26645  -21.47675  0.99797 
   -12.8158  0.00354  3.74552     14.17406  1.79999  0.47864   4.23381  0.08246     0.03143   9496.85709   4443.37338  0.77371         3039.49122     19.52567  0.01864   55454.4842   2.27781  0.01498  1051926.72795   45.3551  21.45122   55513.6606    51.13975       44.44197   22.74594  38.38377   52.0    0.20028  -21.46592  0.99891 
    -9.1942  0.01397  2.19824     14.29093   1.7498  0.92056   4.67802  0.20425     0.21301  10319.49943   4059.30337  0.33819         2941.27499     19.46823  0.01633   55458.1058   2.97171  0.06537   205638.03628  46.51458  21.39859      55512.3     51.1319       44.53848   17.05945  34.11891   37.0    0.26777  -21.44737  0.99838 
   -8.35652   0.3616  2.70751     14.51006  1.98685  0.44494   4.67746   0.0982     0.12659   10598.8104   6910.72716  0.24023         3108.24132     20.58311  0.21274  55458.94348   3.13438  1.69136   129125.07654  46.59086  21.37823      55510.2    51.23997       44.64887   14.21621  32.69729   51.0    0.30221  -21.66472  0.94934 
   -6.96265   0.0027  2.52056     14.12694  1.69937  1.28305    7.9284  0.14805     0.11025   8704.10897   6971.76882  2.54139         2591.84775     16.21567    1e-05  55460.33735   3.58312  0.02137   558746.78353  45.94892  21.44263      55512.3    51.22143       44.61367   22.00788  32.01372   45.0    0.18059  -21.44965  0.99926 
  -10.59558  0.14405  2.38858     14.14444  1.38983  0.52721   2.22332   0.2042     0.29547   9644.73394   5859.35695  0.21315         4690.66083     20.24956  0.09869  55456.70442    1.2337  0.32026   378598.61704  46.07735   21.3415  55516.37362    51.17248       44.53035   19.95746  36.90739   54.0    0.26094    -21.596  0.98666 
   -5.33115  0.18978  1.35363     14.91145  1.76875  0.27178   6.74109  0.12274     0.05362   8909.98142   8297.36091  0.54609           5178.754      17.2523   0.0001  55461.96885   3.19235  1.27929     4524.61578  48.59793  21.40467  55508.23456    51.14699       44.48894   24.16756  32.69729   33.5    0.27521  -21.50461  0.99018 
  -10.67322  0.04567  3.41108     14.20501  1.86843  0.91221   2.94056  0.22131     0.02939   9742.99446   4643.19303  0.89773         2897.72237     19.11212  0.00719  55456.62678   1.66511  0.13429   785349.83508  45.57947  21.44066   55513.6606    51.14686       44.44885   27.19556  36.03023   34.5    0.32621   -21.4554  0.99264 
   -7.79389  0.00775  1.95208     14.11091  1.62249  1.54426   8.19807  0.19652     0.30964  11058.41245   5186.28315  1.07986         2786.03252     17.33065  0.00012  55459.50611   5.98032  0.06353   344477.91504  46.36087  21.49614   55513.6606    51.17246       44.45597   18.48107  45.49188   40.5    0.20179  -21.62196   0.9986 
   -9.46218  0.00175  2.44383     14.34182  1.80558  0.76088   5.06853  0.16316     0.03586   8612.86805   6546.35409  0.75437         3076.78724     17.24174   0.0001  55457.83782   2.24287  0.00887   207456.36822  46.43239  21.43793   55513.6606    51.12716       44.47847   22.74594  34.11891   39.0    0.24117  -21.37978  0.99974 
  -11.23052  0.00739  2.93067     13.80736  1.31927  1.24387   7.03892  0.07798     0.01993   8436.86081   7312.79112  1.59852         2740.12354     16.56125    2e-05  55456.06948   2.98879  0.05201  2554864.74102  45.04788   21.4878      55512.3    51.15786       44.45444   18.48107  44.07025   46.0    0.21222   -21.3919   0.9964 
   -4.64052  0.12529  1.05027     14.12075  1.47093  1.38068  12.31242  0.11407     0.42271  12105.99597   7595.61484  1.13062         2336.32644      20.5479  0.19617  55462.65948  10.76395  1.54262    86398.83416  47.45732  21.38773   55513.6606    51.19467       44.54486   22.74594  35.54053   36.0     0.2446  -21.81314  0.98996 
   -8.14762  0.01994  1.28602     14.12566  1.54097  1.46064   12.5538   0.0775     0.01163  11798.19844    5459.4095  0.09408          4734.2925     20.43602  0.15162  55459.15238  10.42399  0.25034   132671.44442  47.11537  21.50322  55510.94758    51.11821       44.51845   15.63783  35.54053   29.0    0.35391  -21.73081  0.99755 
   -8.72177  0.03846  1.17417     14.16073  1.47171  1.16247  13.63996  0.07418     0.06546   9225.43507   8749.84549  0.50731         3426.77106     20.23129  0.09463  55458.57823   6.92491  0.52459    89875.60386  47.34356  21.39895      55512.3    51.10552       44.47935   18.01184  36.00976   34.0    0.24006  -21.49586  0.99557 
    -6.5313  0.00119  1.24957     14.51509  1.45335  0.49344   8.79189  0.15943     0.40493  13808.00037   4971.62527  0.07723         2033.01117     18.98576  0.00538   55460.7687   9.99933  0.01043     19657.1617  47.94418  21.40404  55510.94758    51.16348       44.56909   14.92024  33.41488   30.0    0.34828  -21.60836   0.9999 
   -8.17849  0.16437  2.44027     14.51406  1.77582  0.49252    5.2413  0.14615     0.20038   10190.1339   9036.81479   0.2806         4879.58523     18.56507  0.00204  55459.12151   3.24658  0.86153    92039.34018  46.77939  21.36678  55510.94758      51.102       44.46288   26.52109  33.18699   32.5    0.29143  -21.55193   0.9747 
   -9.01577  0.10263  3.76953     14.31733  2.15238  0.81181   6.00332  0.07796     0.41478   9370.40797   9973.13538  0.46911         4549.61949      19.4632  0.01614  55458.28423   3.14438  0.61614   658628.95971  45.63055   21.3534      55507.3    51.20887       44.50722   21.32432  35.54053   38.0    0.27463   -21.5598  0.96746 
    -4.8415  0.04697  1.62816     14.37475  1.67913  0.92979    7.7513  0.17131     0.02591  12981.09432   6478.92487  0.71568         2404.70771     18.88797  0.00429   55462.4585   7.79156  0.36405    73585.04272  47.20374  21.34833      55512.3    51.26824       44.65023   20.85508  28.90166   29.0    0.31297  -21.54366  0.99506 
   -6.26412  0.01229   0.9078     14.43148  1.96999  1.19006  58.34423  0.02297     0.01615   9645.01023   4114.94948  0.52399         2852.64587     16.39175    1e-05  55461.03588  32.37654  0.71689    20667.77234  48.33204   21.3614   55513.6606    51.12191       44.55745   20.58626  29.17048   37.5    0.21501  -21.44291  0.99864 
  -12.64781  0.20606   3.3081     13.92115  1.54096   0.6382   3.50921  0.10283     0.29762  12408.73574   8984.00639  0.41714         2358.65784     17.76327  0.00032  55454.65219   3.22323   0.7231  2251435.71048  45.06502  21.42438   55513.6606    51.17646       44.51944   20.85508  36.00976   59.5    0.18342  -21.63277  0.95053 
    -5.8355  0.16128  2.04323     14.55152  1.74001  0.57462   6.27256  0.17085     0.03157  11348.14589   6291.74974  0.76699          3005.0513     18.39083  0.00137   55461.4645   4.81861  1.01166    53206.91236  47.16279  21.49746  55516.37362    51.11789       44.41174   22.74594  36.96215   33.0     0.2805  -21.47885  0.97898 
   -7.32554  0.00526  1.17985     14.37823  2.17651  1.22938   6.02753  0.29402     0.01844  14092.80344   6514.54283  0.01657         2693.57677     20.50301   0.1769  55459.97446   7.14103  0.03172     49292.0687  47.77017  21.38933  55510.94758    51.22105       44.64707   15.63783  31.27566   27.0    0.36768  -21.86115  0.99986 
   -8.55342  0.00914   1.6513     14.33118   1.7712  1.12882   9.48632  0.13449     0.06518  12523.23544   5919.92487  0.02858         4945.41524     17.33021  0.00012  55458.74658   8.87479  0.08669    97583.73849  47.09209  21.35139   55513.6606    51.16195       44.53168   22.74594  32.69729   32.0    0.30654  -21.52462  0.99887 
   -8.20644  0.00345  2.35957     14.46655    1.888  0.57282   7.70895  0.16088     0.03603   10559.6591   4995.63232  0.47012         3208.24964     18.19742  0.00088  55459.09356    5.1277   0.0266   113862.29236   46.7428  21.44964      55512.3    51.19528       44.59724   16.34186   34.8365   37.5    0.22956  -21.56923  0.99932 
   -5.89279  0.02506  1.52147     14.32548  1.34544  0.55097    10.242  0.10585      0.0443  10142.73947   5573.03359  1.10346         2889.61812     20.03548  0.06028  55461.40721   6.28525   0.2567    64603.66869  47.22292  21.43984   55513.6606    51.18073       44.52528   18.48107  38.38377   37.5    0.25061  -21.56936  0.99554 
  -11.94784  0.37079   3.7682     14.03621  1.70512   0.8283   2.82563   0.1774     0.10477  11301.83505   8771.17932  0.67863         3249.93382     19.60587  0.02242  55455.35216   2.15298  1.04773  1902871.89058  45.06892  21.43796  55510.94758    51.13115       44.53221   18.48107  31.27566   44.5    0.23645  -21.58555  0.92385 
   -6.22883  0.04576  1.80363     14.35843  1.58744  0.69613  17.83107  0.05945      0.0156   8279.76923   6089.99615  1.30506         3080.81127     16.17305    1e-05  55461.07117   7.29191  0.81598    92031.69867  46.99331  21.39634      55512.3    51.12847       44.48235   18.01184  36.00976   43.0    0.20281  -21.40864  0.98462 
   -4.89332  0.00672  1.30796     14.42168   2.1524  1.45202  15.88713  0.08101     0.02354  13677.60596   3387.73559   0.0612         3738.47074     20.32831  0.11831  55462.40668  17.72935  0.10668    49040.46891  47.67803  21.30345   55513.6606    51.10575         44.471   25.09947  33.18699   29.0    0.32947  -21.73643  0.99945 
   -7.69998  0.01052  2.86511     14.13955  1.85651  1.43389   3.95787  0.22764     0.22648  10353.50502   6873.26725  1.68601         2431.30702     20.15503  0.07939  55459.60002   2.53083  0.04165   744209.95183  45.75157  21.49405   55513.6606    51.09122       44.41962   26.52109  36.03023   41.5    0.23273  -21.58282  0.99837 
   -5.77928  0.41379  2.75478     14.23926  1.55351  1.07498  14.61258  0.03442       0.111   6764.99442    9162.1339  1.56774         3180.07864     17.78111  0.00034  55461.52072   3.98923  6.04649   363738.10906   46.0192  21.36622  55516.37362    51.21322       44.58846   18.48107  35.54053   69.5    0.19719  -21.33634  0.77881 
   -6.04657   0.0019   2.1971     14.31053  1.70725  0.86075   6.80563  0.18226     0.09978   9506.44014   7794.01939  2.24253         2575.37171      16.7537    3e-05  55461.25343   3.66886  0.01295   183131.51326  46.55468  21.40724  55516.37362    51.30896       44.63148   25.58918  35.54053   39.0    0.19501  -21.43387  0.99967 
   -7.31967  0.26972  1.87464     14.06263  1.43693  0.96855     4.899  0.17876     0.02709   10354.1415   4216.31465  1.52028          2279.8764     20.55245  0.19823  55459.98033   3.13302  1.32134   351428.12205  46.33461  21.46192   55513.6606    51.13612       44.45216   20.58626  40.54345   37.0    0.25434  -21.70419  0.96868 
   -8.27379  0.01475  1.42471     14.27759  1.79358  1.14034   9.70257  0.19339     0.18558  11952.10536   4311.74507  0.19324         2354.68157     18.27057  0.00104  55459.02621   8.26804   0.1431    94149.21926   47.2413  21.44951   55513.6606    51.09726        44.4291   21.58185  38.12623   37.5    0.22623   -21.6289  0.99864 
   -6.82664  0.15405  1.13843     14.44216  1.60422   0.6106    16.076  0.05475     0.01437  11222.08273   7108.51926  0.37272         3008.65705     20.63387  0.23911  55460.47336  12.07681  2.47648    25198.15775  47.96013  21.40104  55510.94758    51.33443       44.62032   15.63783  35.54053   34.5    0.29303  -21.70049   0.9839 
   -7.23702  0.00584  2.76157      14.3609  1.89285  0.85981   3.79985  0.18172     0.35891   9234.67407   5254.72868  0.89195         3080.28835     19.37998  0.01333  55460.06298   1.93302  0.02219   254355.40694  46.25821  21.42059   55513.6606    51.12512       44.42733   22.74594  39.80539   38.5     0.2803  -21.41023  0.99922 
   -5.02105  0.48635  1.44144     14.48042  1.75543  0.88852  10.07838  0.15378     0.05786  12540.65661   6543.61675   0.7625         3025.88148     19.21446   0.0091  55462.27895   9.45493  4.90165    37064.46206  47.62668  21.41291  55510.94758    51.06818       44.45602   25.58918  31.27566   47.0    0.20421    -21.624  0.95855 
   -9.32311   0.0188  1.84061     14.31798  1.74583  0.89146   5.62927  0.22902     0.03922   11483.7602   3913.64262  0.26427          3151.4005      19.9837  0.05351  55457.97689   4.42841  0.10582   126991.30542  46.87715  21.43876  55510.94758    51.13439       44.57013   20.85508  28.90166   32.5    0.27206  -21.54364  0.99818 
    -9.4167  0.02145  2.90385     14.56821  1.78838   0.3433   4.73164   0.2455     0.02939  11495.28842   7690.51877   2.0723         2179.67163     16.00933    1e-05   55457.8833   3.72974  0.10149    102285.5135  46.58554  21.43706  55516.37362    51.16283       44.56196   20.85508  33.16652   32.0    0.28438  -21.59694   0.9957 
   -8.98892  0.00303  3.73749     13.88997  1.70344   1.1288   1.97416  0.14606     0.10106  10625.12323   9019.23328  1.04201          2726.1796     16.41628    1e-05  55458.31108   1.32946  0.00598  3667475.49399  44.79065  21.36035      55507.3    51.19693       44.53704    19.9027  41.22701   46.0     0.2209   -21.4824  0.99953 
   -8.58244  0.01958  2.26043     14.53689  1.89913  0.56242   6.01964  0.19461     0.14303  12540.55345   3538.05245  0.02379         2600.17578     18.31963  0.00116  55458.71756   5.64717  0.11789     76028.9109  46.95804  21.34292   55513.6606     51.1454       44.57806   21.37908  29.79928   33.5    0.30555  -21.57351  0.99727 
  -11.95873  0.03701  2.95173     14.30566  1.52852   0.3816   3.07231  0.15696     0.01455   8123.42506    9818.0449  0.83189         3131.10592     19.48142  0.01683  55455.34127    1.2094  0.11371   302638.16396  46.03204  21.46476  55510.94758     51.1352       44.51437    19.9027  34.11891   31.0    0.31339  -21.39048  0.99365 
   -6.89307  0.23866  3.07742     14.57728  1.96662  0.40555   2.59187  0.24604     0.18503   9307.78602     6387.659  0.63853         3307.36233     17.76738  0.00033  55460.40693   1.33947  0.61859   121157.66575  46.50284   21.3798      55510.2    51.18957       44.52895    22.8007  32.64252   45.5    0.26965  -21.51532  0.97501 
    -6.0298  0.00646  1.42226     14.32607   1.4497  0.71191  11.75995  0.08428     0.07657  10984.03668   5748.70331  0.19239         5469.13438     16.43044    1e-05   55461.2702   8.46363  0.07595    60660.41654  47.34126  21.45863   55513.6606    51.18248       44.55186   16.34186  37.67974   32.0      0.321  -21.56679    0.999 
