 texplosion  fnickel    Pspin  log(Bfield)      Mns  thetaPB  mejecta    kappa  kappagamma     vejecta  temperature    alpha  cutoff_wavelength  log(nhhost)      A_V         MJD0  kenergy  mnickel             TSD   log(L0)  Peak_mag     Peak_MJD  log(E_rad)  log(Peak_lum)  Rise_Time     E_fold  tau_1  delta_m15     r_peak     frac 
  -68.06396  0.01274  2.39562      13.4213   1.8151   0.6766  0.25791  0.23014     0.12173   1037.4494    9869.2863  0.01883          2061.3151     16.68056    3e-05   59441.4751  0.00166  0.00328  13898018.11103  44.62595  19.90136  59722.20312    51.60967       44.36482   43.94768  178.39431  202.0    0.00531  -20.28283  0.99988 
  -63.87395  0.01616  2.46406     13.34055  1.81405  1.45333  0.42673  0.02139     0.11684  1042.70759   9959.60007  0.62528         2047.36993     17.79792  0.00035  59445.66511  0.00277   0.0069  21313899.51623  44.41553  19.93841  59719.10515    51.61564       44.49124   24.29139  122.20087  216.0    0.00367  -20.24459  0.99976 
  -59.04351   0.0023   2.5108     13.36914   1.9832  1.45051  0.67443  0.02402     0.06197  1016.57693   9708.30602  0.15007         2691.53726     19.13124  0.00752  59450.49555  0.00416  0.00155  21209387.66997  44.44006  19.87303     59717.25    51.62474       44.40457   46.38922  161.14149  220.0    0.00428   -20.2815  0.99995 
   -50.3059  0.00393   2.5705     13.39609  1.95978   1.1563  0.11709  0.30403     0.28517  1002.00654   9904.17553  0.64027         2090.04695     17.17973    8e-05  59459.23316   0.0007  0.00046   19403081.6272  44.45315  19.87328  59710.97577    51.63269       44.49615   29.29845  131.84304  210.0     0.0038  -20.23568  0.99998 
  -79.79938   0.0066  2.14082     13.38101  1.69706  0.77576  0.17646  0.11799     0.18647   1001.1866   9868.97085  0.05865         2764.13893     19.78751  0.03406  59429.73968  0.00106  0.00116  12492519.33337  44.74073  19.90839  59701.82659    51.64591       44.53821   14.64923  127.37994  208.0    0.00493  -20.31209  0.99997 
  -32.63592  0.00212   2.3127      13.2794   1.6751  1.44715  0.51543  0.04655     0.05128  1018.10295     9403.163  0.95753         2040.72875     17.87681  0.00042  59476.90314  0.00319  0.00109  22976813.53621  44.40336  19.88727  59714.02549    51.53394       44.31904    19.5323  183.11533  210.0    0.00448  -20.21451  0.99996 
  -41.64128  0.00604  2.41176     13.24995  1.68532   0.9732  0.31136   0.0446     0.09731   1066.7592   9931.36882  1.65313         2071.08665     16.72138    3e-05  59467.89778  0.00211  0.00188  28791256.20148   44.2716  19.90519  59704.87632    51.57624       44.35351   43.94768  153.81688  210.0    0.00395  -20.25832  0.99992 
   -37.5832   0.0016  2.56212     13.74801  1.73171  0.34822  0.16774  0.04586     0.32604  1058.52666   9957.07554  1.03533         2385.13725     16.97798    5e-05  59471.95586  0.00112  0.00027   3368805.50328  45.16264  19.91485  59700.24609    51.75275       44.75486    19.5323   83.01228  230.0    0.00408  -20.23213  0.99999 
  -49.90619  0.00142  2.72349     13.41851  2.11779  0.93758  0.97128  0.03759     0.03065  1044.28893   9777.75609  0.70243         2075.65381     16.11609    1e-05  59459.63287  0.00632  0.00138  21228832.37622  44.39755  19.89981  59704.30235    51.73716       44.69071    19.5323   97.66151  208.0    0.00423  -20.28587  0.99995 
  -50.20103  0.00157  2.54595     13.34575  1.79547  0.87878  0.23485  0.13796     0.12143  1007.34743   9872.06919  1.35847           2297.384     17.40062  0.00014  59459.33804  0.00142  0.00037  21988229.69028  44.36913  19.93699  59710.17188    51.57566       44.36573   36.62307  151.70806  218.0    0.00339  -20.22705  0.99998 
  -59.08024  0.00465  2.45582     13.55962  1.83486  0.53069  0.99503  0.03623     0.03552  1005.94995   9971.08729  0.70559         2023.51595     17.25028   0.0001  59450.45882  0.00601  0.00463   7808554.59757  44.85949  19.88714  59704.87632    51.57483       44.31965   26.85692  197.90449  214.0    0.00413  -20.26159  0.99983 
  -34.15276  0.00481  2.22664     13.14339  1.47018  1.55998   1.8203  0.02697     0.01997  1102.42182   8849.40622  0.84141         2428.41978     16.98644    5e-05  59475.38631   0.0132  0.00875  34971413.14803   44.1972  19.90402  59704.87632    51.61905       44.48367   26.85692  122.98939  228.0    0.00391  -20.27319  0.99963 
  -39.95336  0.04364  2.47612     13.38383  1.62637   0.8902  0.70152  0.05539     0.05962  1084.85645   9950.94166  0.95715         2886.30784     19.55808  0.02008   59469.5857  0.00493  0.03061  15809216.91229  44.49361  19.90435  59707.92604     51.7334       44.70399    9.76615   95.21997  220.0    0.00496  -20.26933  0.99869 
  -60.70291  0.03252  2.08506     13.40686   1.5387  0.61285  0.18874  0.06541     0.17139  1036.17218   9905.27393  0.08564         3335.04015     19.62135  0.02323  59448.83615  0.00121  0.00614   9538758.48946  44.83827  19.89304  59710.97577    51.78752       44.78795   17.09076   80.57075  202.0    0.00539  -20.29693   0.9998 
  -31.38359  0.00141  2.60284     13.79094  1.87384  0.40022  0.61343  0.01668     0.05895  1041.95285   9592.77862  1.48664         2134.86395      16.9656    5e-05  59478.15547  0.00397  0.00086   3087116.13188  45.22113  19.90314  59704.30235    51.72529       44.67546    19.5323   96.48807  222.0    0.00383  -20.22311  0.99997 
  -39.11135  0.00549  2.54992      13.2374  1.71902  1.50724  0.18587  0.09074     0.18873  1000.40725   9964.73022  0.84595         3206.14539     18.99334  0.00547  59470.42771  0.00111  0.00102  34782059.49469  44.14972   19.8987  59710.97577    51.66221       44.54489   17.09076  128.17472  230.0    0.00405  -20.25736  0.99995 
  -57.68386  0.00152   2.5041     13.46077  1.97803  1.17292  0.16997  0.07773     0.23281  1021.81621   9769.29784  0.27119         2744.16332     18.82342   0.0037   59451.8552  0.00106  0.00026  13797712.33504  44.62797  19.90956  59719.10515    51.71084       44.65408   21.97384   97.66151  212.0     0.0043   -20.2436  0.99999 
  -58.54687   0.0016  2.19221     13.26692  1.57018   0.8837  0.17026  0.11974     0.19329  1005.79571   9778.79674  0.19391         3842.52234     16.96444    5e-05  59450.99219  0.00103  0.00027  20497145.46769  44.47134  19.88473  59707.21094    51.63577       44.51432   24.41538  122.54303  216.0    0.00433   -20.2841  0.99999 
  -54.86457   0.0108  2.24873     13.76981  1.94155  0.50191  0.17363  0.03539       0.329  1000.53133   9899.52247  0.05872         4731.17245     17.97204  0.00052  59454.67449  0.00104  0.00188    2631624.2052   45.4329  19.88187   59697.1875    51.69783       44.67661   17.09076    90.3369  226.0    0.00478   -20.2422  0.99995 
  -50.61358  0.00311  2.15945     13.16437  1.58107  1.10897  0.28496  0.04666     0.07303  1009.48658   9549.20566  0.57695         2612.68364      19.6079  0.02252  59458.92548  0.00173  0.00089  32114821.27146   44.2924  19.90763  59715.06337    51.64933       44.54257   21.97384  115.21841  212.0    0.00617  -20.26268  0.99997 
  -56.70951  0.00418  2.77364     14.49588  2.01671  0.07255  0.29996  0.08152     0.15284  1123.27092   9703.97978  0.45451         2301.95964     17.63841  0.00024  59452.82956  0.00226  0.00126    146824.39238  46.52059  19.87407  59710.17188    51.67283       44.55147   26.85692  124.51843  208.0    0.00449  -20.29228  0.99995 
  -23.60937  0.12419  2.81071     13.93911  1.96669  0.29152  0.65684  0.02041     0.13301  1060.84432   9442.80592  1.55639         2122.13262     16.53903    2e-05  59485.92969  0.00441  0.08157   1909696.56796  45.38398  19.88967  59715.06337    51.63832       44.48902   21.97384  139.16765  276.0    0.00382  -20.21698  0.99665 
  -50.78754  0.00194  2.39047     13.56279  1.93899  0.85582  0.18833  0.02333     0.24385  1033.40245   9908.89968   0.0361         4315.21935     16.09229    1e-05  59458.75153   0.0012  0.00037   7705184.11705  44.91267   19.9181  59714.02549    51.62332       44.44988    19.5323  158.69995  206.0    0.00471  -20.23001  0.99999 
   -36.8023  0.00384  2.56932     13.51502  1.82057  0.65826  0.20654  0.10427      0.1744  1051.57535   9918.60532  0.76385         2384.07112     16.01468    1e-05  59472.73676  0.00136  0.00079  10413912.63743   44.6918  19.88747  59704.87632    51.69762        44.5818   36.62307  110.43492  208.0    0.00443  -20.24495  0.99997 
  -50.96524  0.01209  2.33703     13.84962  1.68788  0.25707  0.32824  0.02266     0.10641  1034.90948   9877.60161  0.94117         2156.06684     17.59883  0.00022  59458.57382   0.0021  0.00397   1711000.12566  45.52561   19.9005  59707.21094    51.61342       44.48121   24.41538   129.4015  212.0    0.00339  -20.26272  0.99986 
  -23.04771  0.00224  2.60814     13.97089  1.82046  0.17595  0.60112  0.02735     0.03305  1003.73847   9895.37897  2.43195         2250.33317     17.59008  0.00022  59486.49135  0.00361  0.00135   1314846.92216  45.57749  19.89395  59726.19141    51.68932       44.55247   21.97384  135.19708  214.0    0.00383  -20.19842  0.99994 
  -35.61755  0.05611  2.03978     13.26802  1.41965  1.08858  0.11154  0.24156     0.42861   1046.2234   9648.13693  0.72765         2014.78848     16.90041    4e-05  59473.92151  0.00073  0.00626  15963537.94301  44.59873  19.91902  59710.97577    51.55793       44.34686    19.5323  175.79072  222.0     0.0042  -20.22024  0.99979 
  -57.19653  0.00152  2.30602     13.81677  1.80169  0.37748  0.64188  0.10191     0.08622  1071.82779   9825.27447  0.08275         2106.97642     16.98487    5e-05  59452.34253   0.0044  0.00097   2068614.48408  45.48312   19.9117  59689.25391    51.53863       44.34387   26.85692  163.71586  214.0    0.00499   -20.2593  0.99997 
  -53.64924  0.04737  2.40894     13.70109  1.73333  0.34054   0.1108  0.24894     0.26596  1013.92187   9634.02537  0.88817         2378.23459     17.19051    9e-05  59455.88982  0.00068  0.00525   3699722.61682  45.17591  19.90639  59707.92604    51.62605       44.50017   24.41538   129.4015  218.0    0.00376  -20.25647   0.9998 
  -38.38103  0.00212  2.13529     14.51611  1.48982  0.03824  0.12239  0.05522     0.19036  1019.99314   9979.92823  0.98796         2056.07015     17.11802    7e-05  59471.15804  0.00076  0.00026     58564.39147  47.01543  19.91781  59707.92604    51.56407       44.35509    39.0646  158.69995  200.0    0.00438  -20.22185  0.99999 
  -60.76339  0.00152   2.3923     13.28795  1.78117  1.38231  0.65888  0.01167     0.04978  1022.27611   9913.07801  0.37281          2173.1294     18.45101  0.00157  59448.77567  0.00411    0.001  25133319.39074  44.36167  19.90518  59707.22656    51.58647       44.38927   24.41538  156.74411  204.0    0.00439  -20.24978  0.99996 
   -58.7275  0.00277   2.0821     13.19596  1.55863  1.38244  0.23773  0.02206     0.11285  1011.31138   9421.54363  0.01141         2125.58057     16.73957    3e-05  59450.81156  0.00145  0.00066  25446737.10933  44.41895  19.90293   59701.1875    51.55295       44.35322   21.97384  173.34918  206.0    0.00541  -20.24699  0.99998 
  -37.64642  0.01441  2.45752     14.03152  1.84089  0.22142  0.16239  0.18462     0.20881  1027.71103   9828.32158  0.65827         2123.29201     19.12203  0.00736  59471.89264  0.00102  0.00234    892906.62279  45.80208  19.91545  59714.02549    51.57924       44.36874   21.97384  174.16629  206.0    0.00401  -20.21584  0.99992 
  -39.63425   0.0023  2.45353     13.65803  1.67817  0.44808  0.35096  0.02523     0.09845  1027.41216   9754.46821   0.5074         3348.26779     18.10121   0.0007  59469.90481  0.00221  0.00081   4530771.42042  45.05792  19.90412  59698.77687    51.51364       44.29396   36.62307  173.34918  214.0    0.00446  -20.23676  0.99997 
  -75.67753  0.00323  2.49126     13.43838  1.96413    0.918  0.51258   0.0775     0.06626   1005.8648   9652.13263  0.03693         3876.81993     18.31819  0.00116  59433.86154  0.00309  0.00166  15033963.49062   44.5921  19.92304  59702.24219    51.67023       44.58461    19.5323   109.8692  212.0     0.0044  -20.27192  0.99995 
  -45.43465  0.00935  2.44755     13.28299  1.88103  1.46609  0.17151  0.01138     0.14426  1036.16097    9749.7023  0.40102         2161.67567     19.50964  0.01796  59464.10441   0.0011   0.0016  28424141.55346  44.31209  19.94551  59677.42879    51.58769       44.49482   24.41538  112.31074  200.0    0.00605  -20.26586  0.99994 
  -54.67795   0.0081  2.27365      13.7955  1.62768  0.26886  0.18464  0.15682     0.19321  1002.85936    9973.6875  0.30523         3285.67959     16.00093    1e-05  59454.86111  0.00111   0.0015    2003749.8101  45.46512  19.90909   59724.2616    51.66557       44.53952   14.64923  130.75282  214.0     0.0038  -20.26511  0.99995 
  -56.63213  0.03377  2.62777     14.51664  2.11897  0.08848  0.13161   0.1183     0.37167  1040.73057   9966.50259  0.16275         2950.96457     16.59889    2e-05  59452.90693  0.00085  0.00444    125847.19312  46.65595  19.91031  59714.02549      51.646        44.4699   26.85692  153.55712  214.0    0.00393  -20.26833  0.99986 
  -26.61412  0.00393  2.05059     13.35631  1.38897  0.57435  0.69989   0.0116     0.03293  1065.82618   8870.52877  0.73584         2316.17182     17.90284  0.00044  59482.92495  0.00474  0.00275  10511095.96374  44.76613  19.89756  59701.82659    51.72626       44.66121   34.18153   87.89536  214.0    0.00605  -20.24227  0.99989 
  -45.02924  0.00403  2.52435     13.40965  1.85459  0.78638  0.26122  0.09215     0.10553  1017.16888   9790.80839   0.3172         4093.61423     17.09067    7e-05  59464.50982  0.00161  0.00105  16636524.66754  44.51173  19.87962     59717.25     51.6592       44.50636    19.5323  146.49226  212.0    0.00538  -20.30286  0.99996 
  -56.84285  0.00933  2.39402     13.38589  1.72364  0.84931   0.1196  0.17827     0.32385  1042.71149   9977.21657  0.18372         3113.87359     18.00271  0.00056  59452.69621  0.00078  0.00112  15514785.50069  44.55629   19.9104  59719.19922    51.64145       44.48679   29.29845   129.4015  206.0    0.00418  -20.26154  0.99996 
  -38.32474  0.01309  2.44288     13.14859  1.69873  1.13603  0.16753  0.14495     0.15502  1058.49259   9797.98459  0.92091         2909.88286     16.59798    2e-05  59471.21433  0.00112  0.00219  47486690.13576  44.04659  19.90233  59720.12494    51.61427       44.39146   36.62307  170.90764  216.0    0.00449  -20.25161   0.9999 
  -48.57087  0.00356  1.86038     13.55357  1.41163    0.482  2.23108  0.01845     0.01748  1009.37901   9977.16392  0.28744         2422.89398     17.34583  0.00012  59460.96819  0.01356  0.00795   3544923.12117  45.32976  19.89297  59694.16797    51.61378       44.50904   17.09076  122.07689  208.0    0.00494   -20.2432  0.99978 
  -59.24846  0.01203  1.86058     13.46395  1.45709  0.62018  0.33494  0.05664     0.15268  1001.71054   9950.56551  0.22073         2152.47072     16.07552    1e-05   59450.2906    0.002  0.00403   5529750.47953  45.15033  19.86867  59693.21484     51.7079       44.68634   14.64923    90.3369  220.0     0.0042  -20.26058  0.99989 
  -49.09644  0.03381  2.63224     13.30196  1.90394  1.16318  0.13063  0.16863     0.23323  1035.68818   9870.51668  0.64866         2689.84762     18.09425  0.00069  59460.44262  0.00084  0.00442  30492418.57124  44.22366  19.88511  59704.87632    51.60754       44.41288   48.83075  145.23946  212.0    0.00396  -20.25971  0.99982 
  -62.00014  0.00208  2.24771     13.83272  1.81227   0.3233  0.36228  0.14388     0.09607  1005.66924   9864.45178   0.1953         2192.26327     18.88334  0.00425  59447.53892  0.00219  0.00075   1836898.20335   45.5595  19.87411  59710.97577    51.63572       44.44565   41.50614  149.75088  206.0    0.00447  -20.27277  0.99998 
  -54.52577  0.00284  2.51084     13.67167  1.77126  0.37871  0.27539  0.02738     0.15971  1155.82685   9850.60653  0.16725         2131.08636     16.99956    6e-05  59455.01329  0.00219  0.00078   4703147.12631   45.0451  19.91519  59707.21094    51.72026        44.6195   31.73999  103.97064  198.0    0.00508  -20.30623  0.99997 
  -61.66012  0.01079  2.14261     13.64046  1.72408  0.48315  0.15308  0.01779     0.19545  1004.89712    9404.8532  0.05382          2001.3548     19.00396  0.00561  59447.87894  0.00092  0.00165   3848887.67857  45.25818    19.893  59723.17467    51.67697       44.51668   24.41538  139.16765  208.0    0.00531  -20.25289  0.99995 
  -51.19859  0.00495  2.37239     13.15667   1.6797  1.31647  0.17067  0.06271     0.17593   1062.9787   9863.67889  1.86271         2056.66304     18.72664  0.00296  59458.34047  0.00115  0.00084  42666724.07282  44.11361  19.92887  59707.22656    51.52983       44.31701    19.5323  183.11533  212.0    0.00375  -20.27279  0.99996 
  -44.72663   0.0121  2.50935     13.48712  1.77819  0.67207  0.12377  0.03666     0.29416  1030.63783   9844.39816  0.98615         2283.19325     18.98011  0.00531  59464.81243  0.00078   0.0015  11032783.48472  44.67702  19.92313  59675.07815    51.46773        44.2151   46.38922  183.11533  216.0    0.00404  -20.24156  0.99994 
   -56.2521  0.00103  1.98673     13.24436  1.42408  0.65081  1.11455  0.01473     0.01972  1010.31317   9735.89391  0.32773         2674.15074     16.37107    1e-05  59453.28696  0.00679  0.00115  16939617.96304   44.5972  19.90064  59687.59858       51.57       44.38975   24.41538  155.06647  206.0    0.00588  -20.25312  0.99996 
  -30.71611  0.00221   2.5471     14.15392  1.73283  0.12317  2.48939  0.01822     0.01164  1022.21025   9992.78685  2.05502         2114.07168     17.65508  0.00025  59478.82296  0.01552  0.00551     513842.3562  45.98468  19.92569  59710.17188    51.71025       44.71549   17.09076   85.45382  214.0    0.00308  -20.20299  0.99976 
  -48.06675  0.00201  2.42263     13.90442  1.80772  0.27284  1.49657  0.02438     0.02567  1010.76221   9792.19804  0.40703         2267.16048     17.58421  0.00021  59461.47231  0.00912  0.00301   1529956.98106  45.57272    19.937  59698.77687    51.76024       44.78391    19.5323   76.17369  214.0    0.00375  -20.22614   0.9999 
  -60.43765  0.00257   2.3519     13.35059  1.75932    1.046  1.17632   0.0221     0.03304  1005.99241   9802.49392  0.14441         2769.18438     17.00687    6e-05  59449.10141   0.0071  0.00302   17981288.5037  44.51653  19.86099  59703.12344    51.68687       44.57261   31.73999  114.35506  214.0    0.00371  -20.24768   0.9999 
  -50.78457  0.00131  2.23817     13.18137  1.54643  1.39516  0.15452  0.03275     0.25539  1043.51467   9806.56154  0.98166         2019.27767     18.55762  0.00201  59458.75449    0.001   0.0002  31202804.29932   44.2642  19.88148  59714.02549    51.70066       44.59327   31.73999  110.43492  214.0      0.004  -20.25236  0.99999 
  -38.19434  0.00224  2.71269     13.57948  1.99285  0.60473  0.14496  0.05124     0.24877  1019.52264   9942.45501  1.17748         2074.97395     17.69079  0.00027  59471.34472   0.0009  0.00032   9443514.73186  44.72638  19.90087  59701.26953    51.56741       44.39818   24.41538  148.52054  216.0    0.00366  -20.23797  0.99999 
  -68.17043  0.00232  2.47132     13.34646  1.84117  0.87161  0.28014  0.09725     0.10912  1015.78309   9781.91732  0.27967          3070.4004     18.68426  0.00269  59441.36863  0.00172  0.00065  21176313.43241  44.42223  19.93156  59714.02549    51.62603       44.50258    9.76615   129.4015  214.0    0.00512  -20.27814  0.99998 
  -31.64908  0.00283   2.6264     13.73404  1.78142  0.34635  1.08089  0.02198     0.03625  1133.10942   9576.97898   1.5681         2175.05119     17.31919  0.00012  59477.88999  0.00828  0.00306   3883510.20373  45.09166  19.89844  59707.21094    51.68468       44.57786   29.29845  112.31074  212.0    0.00407  -20.27209  0.99986 
