 texplosion  fnickel    Pspin  log(Bfield)      Mns  thetaPB   mejecta    kappa  kappagamma     vejecta  temperature    alpha  cutoff_wavelength  log(nhhost)      A_V         MJD0  kenergy  mnickel           TSD   log(L0)  Peak_mag     Peak_MJD  log(E_rad)  log(Peak_lum)  Rise_Time    E_fold  tau_1  delta_m15     r_peak     frac 
   -6.62192  0.00297  0.92674     14.36467  1.49776  1.04173  10.63367  0.05028     0.23712  5234.44582   4808.57409   0.1702         4770.13064     16.11408    1e-05  58728.61636  1.73801  0.03154   22275.35541  48.16255  19.14036  58775.20619     51.0776       44.49905   12.98584  32.42063   37.0     0.2585  -20.54673   0.9999 
   -5.57358  0.02243  0.88383     14.51456   1.9751  1.30488   5.48114  0.09723     0.10311  5435.65284   9915.27143  0.17864           2946.377     18.87168  0.00413   58729.6647  0.96605  0.12292    13397.2689  48.54469  19.08959  58775.20619    51.12982       44.57842   12.98584  30.70583   30.0    0.23586  -20.70307  0.99985 
   -6.29043  0.00326  1.32673     14.39947  1.91445  1.54996     7.362  0.06343     0.01314  5287.43462   8146.26143  0.11125         2957.04165     18.60388  0.00223  58728.94785  1.22776    0.024   49714.22736  47.60884  19.11202  58775.29611    51.05302       44.49905   17.35449  29.55788   35.0      0.267  -20.62246  0.99985 
   -5.33316  0.00474  1.11834     14.44482  1.69142  0.97664  12.19569  0.04343     0.02595  5935.48488   9849.88876  0.03993         3126.02635     16.07849    1e-05  58729.90513  2.56298  0.05775   25327.19976  47.99636  19.13746  58777.11357    51.07236       44.49917   12.98584  34.02499   29.0    0.29304  -20.66567  0.99974 
    -6.0593  0.07618  1.04252     14.38255  1.69485  1.43793    3.3342  0.18986     0.01284  6019.06316   9033.71798  0.06679         2596.52127     16.76906    3e-05  58729.17898  0.72057    0.254   29377.28743   47.9938  19.12448  58774.52237    51.15212       44.60855   12.98584  29.88694   28.5     0.3073  -20.72283  0.99912 
   -5.37411  0.03644  1.01764     14.54574  1.99651  1.31358   4.76696  0.17551     0.01028  6456.96515   4666.41796  0.30459          2399.5547     16.28759    1e-05  58729.86418  1.18556  0.17371   15552.23677  48.36214   19.1107  58775.29611    51.09717       44.54961   12.39075  32.61681   31.5     0.2749   -20.6667  0.99969 
   -5.32352  0.00303    0.771     14.45882  1.82313  1.37746   5.68781  0.09339     0.07038  5346.02115    3741.1484  0.19096         3667.51763     17.67641  0.00026  58729.91476  0.96969  0.01725   12164.76082  48.67046  19.12725  58774.52237    51.15049       44.59204   12.39075  31.21975   36.0     0.2749  -20.60446  0.99998 
   -4.43764  0.01401  0.82827     14.33494  1.57569  1.50785   3.32792  0.19635     0.02284  6106.09805   3696.79374  0.36612          2664.9156     20.21315  0.09076  58730.80064  0.74016  0.04663   21466.19326  48.29822  19.13989  58775.29611    51.13525       44.57533   11.56689  32.12477   34.0    0.26344  -20.73955  0.99991 
   -6.25996  0.00643  0.95127     14.27342  1.47155  1.49172   5.19194  0.10234     0.09065  5646.73952    7864.8755  0.11316         2745.61552     18.07058  0.00065  58728.97832  0.98753  0.03336   35104.29915  47.93466  19.12096  58775.29611    51.05204       44.48817    14.0256  33.11675   34.0    0.27447  -20.63438  0.99987 
   -6.53123   0.0106  2.29661     14.14124  1.42175  1.19161   3.49681  0.15947     0.01186  6296.28966   8813.69187  0.35235         2389.41302     20.00347    0.056  58728.70705  0.82693  0.03708  363352.95528  46.13916  19.09457  58774.52237    51.13452       44.58257   12.39075  31.30091   30.5    0.28539  -20.77239  0.99862 
   -5.72557   0.0048  1.01434     14.34886   1.6672  1.24078   8.56349  0.05599      0.0147     5608.54   9865.15905  0.03046         3884.46104     19.81795  0.03653  58729.51271  1.60686  0.04108   31948.16536  47.97402  19.12996  58774.26953    51.12618       44.59104   12.98584  29.88694   29.5    0.28783  -20.68908  0.99985 
   -5.29407   0.0085  1.14212     14.58061  1.99562  0.97327     6.977  0.07931     0.01197  5643.30287   4434.65399  0.25583         3363.51358     19.46098  0.01606  58729.94421  1.32545   0.0593   16675.96939  48.23141  19.13758  58775.29611    51.15537       44.60393   12.98584  30.54743   35.0    0.28219  -20.65788  0.99982 
   -5.49648  0.00228  0.72858      14.4381  1.73751  1.52469   4.21222   0.1378     0.01008  5559.89434   9961.24797  0.21037         3675.68567      16.0602    1e-05   58729.7418  0.77673  0.00961   11389.19418  48.72733  19.12305  58775.20619    51.03882       44.48936   14.02653  32.88584   27.0    0.27246   -20.9252  0.99999 
   -5.32162  0.00195  0.75979     14.47236  1.75471  1.24232   8.06338   0.0714      0.4554  5503.04268    6363.2222  0.18927         4012.30993     16.11503    1e-05  58729.91666  1.45663   0.0157   10682.58853  48.72299  19.11557  58775.29611     51.0904       44.52261   14.02653  31.37994   35.0    0.27918   -20.5932  0.99999 
   -5.60322  0.00255  0.89016     14.46457  1.67792  0.92088   5.82386  0.08197     0.01294  5101.63554   6468.81122  0.17614         4117.93376     16.75743    3e-05  58729.63506  0.90419  0.01482   14533.79029   48.4323  19.08759  58775.29611    51.04878       44.48181   16.49717  30.51366   34.5    0.25995   -20.6637  0.99997 
   -6.47492   0.0061  0.77027     14.56942  1.83097   0.8323   7.83656  0.06707     0.09035  5649.85934   4113.10409  0.01764         5119.00814     18.72367  0.00294  58728.76336   1.4922  0.04783    7327.13891  48.89331  19.13355  58774.52237    51.09234       44.53578   12.98584  30.70583   35.0     0.2739  -20.57073  0.99995 
   -5.42887  0.00266  1.20427     14.40163  1.62265   1.0417  10.13543  0.05495     0.06354   5912.4576   7323.78467  0.18277         2726.82605     16.34077    1e-05  58729.80941  2.11352  0.02695    34373.1391   47.7814  19.11478  58775.20619    51.14425       44.59236   12.98584  30.70583   34.5    0.27294  -20.65462  0.99983 
    -5.0966  0.00317  0.82228     14.37927  1.46499  0.96055    7.5738   0.0792     0.10159  6207.58693   9665.40089  0.13452         2056.35466     19.70819  0.02837  58730.14169  1.74095  0.02403   16037.80947   48.3995  19.10969  58774.26953    50.94809       44.38561   20.59545  29.54388   28.0    0.26652  -20.76787  0.99995 
   -5.25686   0.0023  0.95522      14.4192  1.83421  1.17601  20.00531  0.02493      0.0377  5823.91939   6993.97402    0.148         2002.78485     20.23752  0.09599  58729.98142  4.04765  0.04606   22546.65583  48.21901  19.08439  58775.29611    51.23901       44.69161   12.39075  30.48203   35.5    0.29031  -20.75668  0.99989 
   -5.51323  0.00159  1.25349     14.24962  1.57197  1.31129   4.53292  0.11124     0.01007  5760.81361   8260.16394  0.09934           3416.068     20.19419  0.08688  58729.72505  0.89737  0.00722   72654.83536  47.40778  19.08994  58775.29611    51.06499        44.5009   12.98584  33.92653   31.5    0.29119   -20.7893  0.99994 
    -6.1814  0.02219  0.88107     14.54378  1.95335  1.04654   4.39746  0.12364     0.01043  5587.72358   4156.26094   0.0926         4060.46255     16.37475    1e-05  58729.05688  0.81903   0.0976   11509.33021  48.60856  19.10815  58775.29611    51.03727       44.44616    14.0256  33.11675   31.5    0.29395  -20.66789  0.99987 
   -6.51243  0.00717  1.11187     14.42208  1.78452  1.19518   8.96747  0.05847     0.01448  5674.04777   9949.46432   0.0254         4335.85709      18.4682  0.00163  58728.72585   1.7222  0.06427   29327.51631  47.96098  19.11457  58774.52237    51.13681       44.59458   12.39075  30.48203   29.0    0.27085  -20.60384  0.99974 
   -6.81079  0.02147  1.95382     14.28778  1.69983  1.41044   3.33827  0.15917     0.01078  5654.11027   5421.94371  0.11854         2613.87141     18.10256   0.0007  58728.42749  0.63662  0.07167  160111.99996  46.71306  19.11604  58774.52237    51.15332       44.61357   12.39075  29.64678   33.5    0.29491  -20.62799  0.99857 
   -6.63673  0.03484  0.88997     14.64198  2.09477  0.84624   8.55644  0.06592     0.23988  5706.57146   9962.63622  0.07176         2113.33174     19.77386  0.03301  58728.60155  1.66215  0.29811    8011.91921  48.78749  19.12702  58775.29611    51.08935       44.52756   12.39075  32.61681   29.5    0.26417  -20.58203  0.99966 
   -5.92496  0.00109  1.04268     14.38674  1.72405  1.10602  23.57829  0.01747      0.0121  5108.90691   5692.45846  0.14826         2331.69117     16.47431    2e-05  58729.31332  3.67109  0.02569    29321.8381   48.0019  19.13923  58775.20703    51.17963       44.63221   14.02653  28.84625   38.0    0.26333  -20.57993   0.9999 
   -5.41686  0.00348  1.00515     14.43064   1.8142  1.33717  18.52612  0.02857     0.06108  6011.80731   4210.90736  0.02605         4431.27854      19.4633  0.01614  58729.82142  3.99413  0.06455   23424.81416  48.15339  19.14653  58775.20619    51.04412       44.46211   15.12062  32.02172   34.5    0.27829  -20.67447  0.99983 
   -5.52791  0.01058  1.37772      14.5145   2.0259  1.19842   4.19481  0.17324     0.01201  6560.63096   6913.90277  0.02306         4897.83604      19.5089  0.01793  58729.71037  1.07704  0.04439   33401.15305  47.77338  19.10349  58775.29611     50.9488       44.35994   19.39018  32.02172   30.5    0.31556  -20.79114  0.99975 
    -6.4567  0.00614  1.31763     14.42755  1.91595  1.41565   4.26924  0.13018     0.01059  5525.77998   9087.21484  0.12292         3601.71207     19.17137  0.00824  58728.78158  0.77761   0.0262   43121.27092  47.67695  19.12593  58775.29611    51.11739       44.56601   12.39075  32.61681   29.5    0.26918  -20.63074  0.99985 
   -6.23959  0.01846  1.42211     14.41285  1.89832  1.32704   6.74393  0.07033     0.15802  5677.21167    7534.0179   0.0634         4468.32683     19.23676  0.00958  58728.99869  1.29661   0.1245   53255.12742  47.51499  19.13033  58777.11357    51.05175       44.48346   15.73056  32.88678   36.0     0.2793  -20.68434  0.99906 
   -5.79295   0.0108  1.27634     14.43059  1.57275  0.82859   8.81147  0.05788      0.0229  5825.99763   9447.11381  0.05429         4577.96954     16.74405    3e-05  58729.44533  1.78409  0.09512    32751.6356  47.73834  19.15507  58775.29611     51.1294       44.56218   12.98584  32.02172   30.5    0.28436  -20.66624  0.99924 
   -4.73671  0.00172  0.86268     14.45465  1.77564  1.43823  27.15842   0.0195     0.11568  5560.92823   7509.58174   0.2919         3512.88552      17.2179    9e-05  58730.50157  5.00987  0.04684   15120.22484  48.46695  19.09632  58775.29611    51.11734       44.55894   14.02653  31.26897   33.5    0.28977  -20.64875  0.99994 
   -5.68002  0.00176   1.1326     14.30133  1.57408  1.55512  10.23514  0.04796     0.02282  5460.11076   9466.97153  0.08111         5613.59917      17.6847  0.00027  58729.55826  1.82022  0.01796   46809.39366  47.68739  19.11992  58775.29611    51.19947       44.66119   12.39075  29.64678   30.5    0.27854  -20.65896   0.9999 
   -5.75092  0.00265  0.78856     14.40756  1.82449  1.43888   9.72592  0.04849      0.0105  5750.24998   3135.12511  0.04878         2273.45875      20.0992  0.06981  58729.48736  1.91837  0.02577   16125.13233  48.52881  19.13861  58775.29611    51.06444       44.50104   15.12062  31.79175   33.5    0.30327  -20.71499  0.99997 
   -6.00689  0.00231  0.87234     14.42076  1.88535  1.32823   6.45811  0.06166     0.01108  5082.24377    3948.2106  0.05393         5177.05929     16.62034    2e-05  58729.23139  0.99505  0.01491   19189.53905   48.3798  19.09763  58775.20619    51.11556       44.56185   12.98584  32.02172   34.0    0.29547  -20.71825  0.99998 
   -6.12897  0.00463   1.4545     14.31118  1.66266  1.43472   5.52645  0.09456     0.01158  5363.82433   9639.15352  0.18801         3026.27443     18.54937  0.00197  58729.10932  0.94847   0.0256   77926.36082  47.27254  19.13702  58775.29611    51.11332       44.55854   14.09571  32.61681   30.5    0.25133  -20.63615  0.99974 
   -6.40683  0.00571  0.72597     14.58018  1.74034  0.70085  20.02779  0.02441     0.49882   5289.2195   3791.37264   0.0159         4398.34565     16.14302    1e-05  58728.83145  3.34228  0.11442    5887.36249  49.01772  19.14266  58774.52237    51.13053       44.58333   12.98584  30.54743   36.5    0.26865  -20.54799  0.99989 
   -5.56207  0.00342   0.8858     14.59813  2.17788   1.2832   7.07412  0.08884     0.20544  5857.81483   4665.39967  0.14229         4495.08411     19.48271  0.01688  58729.67621  1.44801  0.02421    10098.6208  48.70794  19.11813  58775.20619    51.09121       44.54104   12.39075  31.30091   34.5    0.30711  -20.82669  0.99998 
   -6.53423  0.00191   1.0098     14.28574  1.57619  1.55215  11.77085  0.03646     0.07795  5216.52309   9987.34769  0.05531         3989.70173     18.68947  0.00272  58728.70405  1.91072  0.02253   40032.57922  47.85557  19.09156  58775.29611    51.00758        44.4415    17.2554    31.324   30.5     0.2739  -20.56381  0.99991 
   -6.37731  0.00314  1.37158     14.48955  1.86638      1.0   4.55141  0.13073     0.01047  5909.63884   3482.62554  0.07034         3352.76492     17.76289  0.00032  58728.86097  0.94819  0.01429   34210.99726  47.73124  19.12979  58775.29611    51.09463       44.53801   12.39075  33.01572   32.0    0.29253   -20.6553   0.9999 
   -4.41793  0.08455  1.24071      14.5227  2.03177  1.33273    8.5052  0.06039     0.11254  5905.23954   8965.08985  0.35638         2117.95902     18.01326  0.00057  58730.82035  1.76924  0.71914   26159.36052  47.97175  19.11232  58774.52237    51.25014       44.72098   11.56689  29.17111   33.5    0.26886  -20.64405   0.9973 
   -5.31281  0.01303  0.70918     14.62378  1.73943  0.71385   6.03254  0.09555     0.05015  6038.41867   4034.96476  0.08123         2806.06026     16.77338    3e-05  58729.92547  1.31212  0.07861    4593.73804  49.14558  19.11243  58774.52237    51.12991       44.58368    14.0256  29.66607   34.0    0.30103  -20.63978  0.99995 
   -6.11754  0.00495  0.94166     14.11858  1.20604  1.38771   5.53549  0.07847     0.07217   5103.5562   8913.67622  0.13111         4262.62332     18.05952  0.00064  58729.12075  0.86006  0.02741   57516.87282  47.64263  19.10872  58774.52237    51.10125       44.56998   12.98584  30.70583   33.5    0.26241  -20.61785  0.99983 
   -6.31171  0.00122  0.70912     14.36824     1.75   1.5513   8.30042  0.05092     0.01168  5089.63733   9724.90957  0.04612         3087.29465     18.43706  0.00152  58728.92657  1.28263  0.01012   14990.25752  48.63463  19.12296  58775.20619    51.22599       44.70252   11.56689  29.17111   30.5    0.26715  -20.57586  0.99999 
   -6.44336  0.00343  1.05246     14.31807  1.57367  1.26877    4.7878  0.10689     0.02385  5507.18499    7808.5951   0.0393         5126.31358     16.29413    1e-05  58728.79492  0.86621  0.01642    37411.1113  47.84835  19.09726  58774.52237    51.13445       44.58945   12.39075  30.48203   34.0    0.27086  -20.60991  0.99992 
   -6.98778  0.00323    0.988      14.2522  1.43298   1.3835  17.86324  0.02978     0.01194  5594.50609   9059.58169  0.07127         2697.44093     17.93744  0.00048   58728.2505  3.33512  0.05773   40659.60447  47.82641  19.11612  58775.29611    51.03428        44.4645   13.47401  34.15651   32.0    0.26409  -20.54394  0.99973 
   -5.29238  0.00156  0.85928     14.44932  1.70772  1.11705  23.29338  0.02447     0.01676  5893.04101   8925.08075  0.06922         2755.84223      17.5533   0.0002   58729.9459  4.82546  0.03634   14786.16403  48.46314  19.15106  58775.29611    51.14488       44.58857   12.39075  31.30091   29.5    0.30059   -20.6442  0.99994 
   -6.50757  0.05953  1.24391     14.29631  1.51152  1.19393   4.77914  0.11003     0.01095   5780.7471   9795.53217  0.05564         2343.50538     16.95086    5e-05  58728.73072  0.95268  0.28452    55485.4482   47.5145  19.12471  58775.29611    51.18459       44.65174   12.39075  29.64678   28.0    0.27365  -20.62731  0.99769 
   -5.67346  0.02585  1.10373     14.52253  1.81813  0.91686   6.83986  0.07571     0.47731  5509.29027   9791.41203  0.17811         3159.69451     18.44488  0.00155  58729.56482  1.23841   0.1768   18540.04018  48.17463  19.09875  58775.29611    51.04954       44.49385   16.49798  30.64436   30.0    0.26913  -20.64963  0.99938 
   -5.79134  0.01655  0.87493     14.35519  1.60464  1.52571   3.91026  0.14777     0.01206  5781.12763     7514.373  0.07731         4995.84177     17.63757  0.00024  58729.44694  0.77957  0.06472   22220.81957  48.24352  19.13966  58774.26953    51.10704       44.55943    14.0256  30.98197   30.0      0.304  -20.66657  0.99986 
   -6.05605   0.0035  0.98392     14.36776  1.64426   1.3051   5.28954  0.09761     0.08137    5622.832     9536.859  0.06674          2465.4704     17.94348  0.00049  58729.18223   0.9976   0.0185   27175.81106  48.06472  19.16006  58775.29611     51.1144       44.53361   15.73056  31.27124   29.0    0.27765  -20.66233  0.99994 
   -5.41632  0.00179  0.84028     14.46934  1.78478  1.51682   5.02234  0.13318     0.48091  6133.20704   5656.92698  0.18238         3519.68661     17.71523  0.00029  58729.82196  1.12696  0.00897   13476.31882  48.54201  19.10363  58774.52237    51.15459       44.61502    14.0256  28.76104   34.5    0.26281  -20.62603  0.99999 
   -6.35903   0.0067  1.67721     14.23099  1.53325  1.45446   3.42363  0.14937     0.01061  5667.45776   4020.39025  0.13918         2909.33823     16.49988    2e-05  58728.87925  0.65598  0.02293  138237.51326  46.86466  19.12712  58775.29611    51.12381       44.57006   12.98584  32.02172   33.0    0.28611   -20.6522  0.99961 
     -6.062  0.00439  1.12751     14.40335  1.75392    1.272   4.16316  0.14784     0.01035  5881.74557   6999.16869  0.04454         2751.68228     17.62344  0.00023  58729.17629  0.85914  0.01826    32311.8782  47.89925  19.11523  58775.29611    51.04752       44.48057   16.82558  31.89021   31.5    0.28977  -20.70175  0.99992 
    -4.9751  0.00156  0.96333     14.48312   1.5831  0.77558   4.25881  0.12069     0.47757  5349.38087   3538.45338  0.20429         3172.67618      18.2705  0.00104  58730.26318  0.72698  0.00663   14744.85282  48.33216  19.10325  58775.29611    50.98089       44.40122   21.34782  29.93262   35.0    0.25469  -20.70213  0.99998 
   -5.87203  0.00545  0.81726     14.72342  2.09214  0.71453    8.8824   0.0597     0.01588  5465.66255   3700.49221  0.12022         3344.93005     17.50625  0.00018  58729.36625  1.58286  0.04844    4637.47932  49.09843  19.11526  58775.20619    51.20494       44.67055   12.39075  29.64678   35.0    0.25408  -20.58383  0.99996 
   -5.56212  0.00609  0.92886     14.37239  1.68582  1.37539   7.11406  0.06737     0.12587  5224.93982   4767.76965  0.15963          5224.3332     19.42819  0.01489  58729.67616  1.15853   0.0433   24308.12255  48.17401  19.10653  58775.20619    51.10602       44.54686   12.98584  32.02172   35.0    0.23626  -20.72773  0.99989 
   -7.13951  0.02211  1.13708     14.34319  1.52376  1.01126  11.63159  0.04227     0.35331  5418.41396   9339.94639  0.07757          3287.5301     17.33118  0.00012  58728.09877  2.03709  0.25713   37664.33407  47.76425  19.13065  58775.20703    51.13439       44.59597   12.98584  30.70583   33.0    0.26029  -20.53579  0.99839 
   -4.50587  0.00116  0.72713     14.39696  1.52934  1.07436  11.73618  0.05166     0.02543  5870.88998   9855.19099   0.3106         2696.98897     19.51162  0.01804  58730.73241  2.41303  0.01364   12067.80228   48.6485  19.09837  58775.29611    51.01453        44.4193   12.98584  35.59356   29.0    0.26236  -20.88229  0.99998 
   -6.22739  0.00327  0.92371     14.40506  1.70179  1.20629   3.91595   0.1474     0.01068  5707.73063    3405.7157  0.06971         3131.59516     16.71041    3e-05  58729.01089  0.76101  0.01279   20877.20158  48.24901  19.14016  58774.52237    51.06268       44.49166   13.47401  31.79175   31.5    0.29592  -20.65349  0.99997 
