 log(Bfield)      Mns     Pspin  cutoff_power  cutoff_wavelength  fnickel    kappa  kappagamma   mejecta  log(nhhost)  temperature  texplosion  thetaPB     vejecta      A_V        MJD_0   log(KE)      M_Ni  Peak_mag     Peak_MJD 
    14.54869  1.67227   8.56232       3.52154         2007.05023  0.00295  0.04138     0.13836   2.00655     16.39555   4203.29877    -7.01224  1.06704  7214.78491    1e-05  56003.28776  52.13028   0.12812  22.00985  56026.50301 
    14.86497  1.81599   7.28816       3.55281         2239.48911  0.00165  0.11521     0.33124    1.4548      17.3686    7095.2757    -4.44873  0.92795   8277.4324  0.00013  56005.85127  52.20049   0.06392    22.001  56026.50301 
     15.1636  1.93125   4.79188       4.92896         2342.79074  0.00499  0.06058     0.03507   4.05174      17.8949   6464.43245    -2.65149   0.6162   7803.8469  0.00044  56007.64851  52.28969   0.26789  22.01358      56027.4 
    14.66868  1.72366   6.96455       0.23441         2470.82842   0.1083  0.01425     0.07467   7.55437     19.78803   9901.51307    -8.67525  1.09387   7731.0586   0.0341  56001.62475  52.34898   6.78407  22.00167      56027.4 
    15.05824   1.7644   4.26887       0.19107         2803.54081  0.02521  0.01621     0.46337   9.96823     17.40024   7741.90739     -5.0495  0.59659  8209.46643  0.00014   56005.2505  52.42808   1.68028  22.03467      56028.3 
    14.99702  1.78111   9.29764       3.13177          2624.0235  0.11276  0.04889     0.20785   2.35192     16.62938   3357.00733    -5.97895  0.49526  6754.78618    2e-05  56004.32105  52.09542   5.16099  22.01401      56027.4 
    15.00032  1.77442   2.98287       2.74426         2066.65221    0.076  0.04076     0.01452   4.45999     19.69537   3889.38811    -2.80468   0.9635  7659.22987  0.02755  56007.49532  52.28454   4.18199  22.02121      56028.3 
    14.36444  1.39341   8.02586       4.37125         2342.02557  0.01199  0.12223     0.04971   0.90184     18.58162   7083.43333     -7.7717  1.41516  7476.88702  0.00212   56002.5283  52.02694   0.38248  22.01971  56026.50301 
    14.54105  1.95882   9.53365       3.56281         2000.01697  0.00421  0.07741     0.02101   1.17324     16.25011   6230.25211     -8.8724  1.50859   6900.0766    1e-05   56001.4276  52.00613    0.1505  22.03004  56026.50301 
     14.7643  1.69637   6.32109         0.254         2030.57907  0.30376  0.02032      0.0172   4.50988     17.87361   8703.55607    -6.93356  1.19631  7595.81584  0.00042  56003.36644  52.27859  16.76283  22.01713      56028.3 
    14.92202  1.83653   9.42011        3.6702           2450.541  0.12048  0.05468     0.09736   2.18641     16.60871   7891.78694    -6.81885  0.59571   6841.7361    2e-05  56003.48115  52.09639   5.38684  22.00616      56029.4 
    15.03797  1.62815   0.98467       0.06961         3365.90585   0.0389  0.06956     0.44614   3.23072     17.78923   4910.61342    -6.67775   0.7496  7791.35959  0.00034  56003.62225  52.26094   1.95895   22.0089      56028.3 
    14.84651  1.97908   7.50608       2.20459         2420.45615  0.00166  0.05543     0.06949   2.50599     18.09437   7307.02533    -7.27583   0.9875  6188.15541  0.00069  56003.02417  52.02794   0.07744  22.06262      56027.4 
    14.97202   1.6126   7.57242       4.60436         2252.26832  0.37733  0.05009     0.02488   2.79967     18.61823   6835.56839    -4.70245  0.76525  7876.39654  0.00231  56005.59755  52.25213  18.22093   21.9624      56027.4 
    14.47284  1.78683   10.2565       3.50015         2295.18111  0.05991   0.0125     0.02064   7.25488     18.91305   5114.10054    -8.93243   1.3462  7367.00481  0.00455  56001.36757  52.30301   3.71769  22.01167      56027.4 
    14.40392  1.53783   8.04269       3.86065          2030.2073   0.0017  0.10378     0.42864   1.03999     18.13765   5159.80837    -8.29225  1.30967  7416.88796  0.00076  56002.00775  52.04713   0.05767  22.00779      56027.4 
     14.8539  1.69013   9.18617       4.06278         2442.88925  0.05246  0.03507     0.01643   3.37896     19.18664   5316.42528     -7.5941  0.51398  6902.61026  0.00854   56002.7059   52.1613   2.67578  22.05151      56028.3 
    15.12562  1.70687   7.17101       3.25625         2456.60606   0.1735  0.01725     0.20336    8.6531      18.4975    7417.5067    -4.85337  0.70498  7595.27296  0.00175  56005.44663    52.347  11.20971   22.0454      56028.3 
     14.5745  1.62297   7.49664       0.42299         2438.48678  0.00906  0.07568     0.40957   1.49599     16.89764   7142.12094      -8.805  0.93399  7975.89093    4e-05    56001.495  52.17275   0.35535  22.03817      56027.4 
    14.87186  2.07072  10.47963       4.53131         2152.22453  0.02185  0.02535     0.03722   2.79477     16.92357   6496.72297    -8.18666  0.47257  6635.31177    5e-05  56002.11334  52.10297   1.05456  21.99186      56027.4 
    14.90579  1.65884    2.5626        0.0263         2739.90886  0.05711   0.0119     0.17035  16.96846     18.37704   5761.81812    -5.22041  1.47171  9245.20426  0.00132  56005.07959  52.57872   4.24633  22.02734      56027.4 
    14.80664  1.59555   6.25566       3.81049         2265.14105  0.00393  0.04926     0.06178   3.69365      19.2444   9359.50594     -5.3666  0.77685  7112.62401  0.00975   56004.9334  52.19816   0.20532  22.00863      56027.4 
    14.97931  1.93792   1.84005       0.27997         2305.87137  0.01825  0.02778     0.09258   8.02025     18.21375   8586.33614    -8.48007  1.03796  6717.57776  0.00091  56001.81993  52.23289   1.15911  22.04902      56028.3 
    14.81249  1.57411   1.90691       0.02948          2615.6601  0.01296  0.03854     0.42714   5.63734     17.31362   6080.94584    -5.15464  1.44971  8520.26141  0.00011  56005.14536  52.40303   0.75672  22.05284      56028.3 
    15.12487  2.06207   0.81927       0.07833         3623.73032  0.00447  0.06788     0.04541   2.79539     17.35665   9488.51649    -6.97292  0.94969  7319.97459  0.00013  56003.32708  52.18829   0.21595  22.01063      56028.3 
    14.83008  1.34181    5.9401       0.32405         2768.85987  0.18234  0.03058     0.21814   4.52994      16.2492   6767.10249    -8.24453  0.52472  8018.43314    1e-05  56002.05547  52.32612  10.07401  22.02277      56028.3 
    14.76108  1.46152   6.01247       0.48992          2039.4444  0.00601  0.01186      0.3879   7.08669     16.62909   4081.87457    -5.84198  0.53376  7339.84895    2e-05  56004.45802  52.29743   0.37078  22.02265      56027.4 
    14.51558  1.46286   7.39411       4.95487         2176.02216  0.02342  0.07911     0.05534   1.84298     16.50504   4277.14896    -5.92164  1.55479   7652.1763    2e-05  56004.37836  52.16894   0.98949  22.01552      56027.4 
    14.36793  1.65747   9.53096       3.81857         2584.88802  0.00618  0.02186     0.03805   3.57309     16.41208   7174.25736    -8.35213  1.29472  7129.44956    1e-05  56001.94787  52.19621   0.32013  22.00456      56028.3 
    14.90178  1.67107   3.85427       1.85451         2242.17799  0.04062  0.01265     0.21484  15.42781     18.95895   4837.35683    -2.83682   1.2328  8576.20072  0.00505  56007.46318  52.50536   2.96397  22.05043      56027.4 
    14.60218  1.86626   8.52134       1.46469         2339.13802  0.02274  0.12228     0.05932   0.86355     18.30984   3315.78815    -7.74008  1.51296   7315.8941  0.00113  56002.55992  51.99941   0.71128  22.05484      56028.3 
    14.89287  1.90363   3.41913       0.37287         2586.83533  0.00941  0.04646     0.18975   4.29295     16.60196   3004.59521    -4.87332  1.33842  7755.57268    2e-05  56005.42668  52.29102   0.51264  22.00412      56028.3 
     14.9642  1.85246   7.16997       4.13754         2299.82907   0.0103  0.04484     0.03209   2.66173      20.7736    6916.1531    -6.66197  0.38463  7620.17301  0.32986  56003.63803  52.21678   0.48978  22.01117      56027.4 
    14.70696  1.42097      5.38       4.11853         2673.05964  0.00293  0.03145     0.06228    5.5087     19.85584   9185.19607    -3.69926  1.11002  6483.02753  0.03986  56006.60074  52.16319   0.16992  22.02087      56027.4 
     14.5652  1.70865   6.59117       0.34706         2035.01414  0.00361  0.05642     0.43643   2.20291     18.32386   7009.13148   -11.33101  1.23062  6526.18398  0.00117  55998.96899  52.05644   0.16174  22.01673      56028.3 
    14.83477  1.30196    1.5614       0.02346         2989.57691  0.00579   0.0536     0.06654   4.91827      17.5005   3612.52869    -5.31542  0.77751  8629.54653  0.00018  56004.98458  52.39917   0.32668  21.98906  56026.50301 
    14.59344  1.62328   10.0426       4.90715         2289.46112  0.29323  0.03785     0.22324   2.36298     16.01173   7100.00729    -6.30719  1.06638  7025.77365    1e-05  56003.99281  52.13022  13.44066   22.0385      56029.4 
    15.09711  1.73159   3.54802       4.42805         2233.65072  0.12221  0.01468     0.17404   12.2671     16.59169   4929.27275    -2.75751  1.28065  8799.09619    2e-05  56007.54249  52.50746   8.51282  21.98008      56027.4 
      14.712  1.79049   5.88236       2.80411          2260.7352  0.02224  0.03254     0.01588   5.11303     20.42406   3057.65163    -6.66706  1.22086  7002.17808   0.1475  56003.63294  52.22196   1.26738  22.07014  56029.09699 
    14.90683  1.99698   9.28005       1.73857         2450.62768  0.01142  0.02428     0.07606   5.32503     17.59192     3056.889    -8.46037  0.62001  7195.52849  0.00022  56001.83963  52.25007    0.6578  21.99881      56027.4 
    14.71012   1.9185   9.53271       3.91792         2284.47665  0.00889  0.14167     0.10429   0.91347     18.76788    7747.5156    -6.86484  1.08189  7645.42139  0.00326  56003.43516  52.04881    0.2852  22.01687  56029.09699 
    14.79384  1.50774    2.1228       0.02955          3244.6578  0.00126  0.02292     0.16044   7.43731     19.66887   4889.90956    -4.68676  1.15175    8394.189  0.02592  56005.61324   52.4189   0.07867  22.00368      56027.4 
    14.62653  1.76335   6.40789       0.18052         2925.81887  0.00757  0.04115     0.04582   2.56754      16.0341   3415.03795    -6.66239  1.53402  7184.00431    1e-05  56003.63761   52.1608   0.35615   21.9846  56026.50301 
    14.79245  1.66195   7.75908       1.70175         2477.95916  0.00368  0.04782      0.0179   3.02249     18.65541   9862.19222    -8.14032   0.6416  7204.77152  0.00251  56002.15968  52.18456   0.18162  22.01968      56028.3 
    14.67113   1.9322   9.01501        4.4281         2105.70678  0.00781  0.08934     0.02563   1.49442     16.54943   3553.50366    -6.65032  1.46895  7185.36528    2e-05  56003.64968  52.08192   0.30642  22.03654      56027.4 
    14.84154  1.76124   8.53207       4.71086         2464.60192  0.10751  0.01951     0.04379   8.12344     18.52026   7821.84013    -5.10575  1.30789  7576.37897  0.00184  56005.19425  52.33865   6.84759  21.99891      56027.4 
    15.12198  1.92725   7.23235       3.50314         2440.18401  0.17492  0.03836      0.0133   4.12565     16.42871   4313.21182    -3.25454  0.75479  7999.34634    1e-05  56007.04546  52.31329   9.42729   22.0145      56027.4 
    14.82024  1.60345   1.85587       0.32544         2411.51122  0.08247  0.05038     0.04962    3.9818     18.62241   3932.28277    -6.62654   1.4166  6952.85886  0.00233  56003.67346  52.18735   4.40233  22.01104      56028.3 
    15.14237  1.85151   3.90304       3.86797          2493.4482  0.00433  0.02081     0.10778  10.47541     19.45166   4822.75338    -1.65324  0.67055  7116.51384  0.01572  56008.64676  52.30864    0.2917  22.00684      56028.3 
    14.84983  1.51053   5.09943       4.66204         2367.60457  0.21857    0.029     0.11801   6.00977     20.08771   4499.94165    -3.05108   1.3541  8191.21435  0.06799  56007.24892  52.37564   12.9693  22.01663      56027.4 
    14.61028  1.47931   4.83533       0.86626         2575.53111  0.00357  0.06312     0.06115   2.63912     17.30702   7924.73167    -7.44203  1.24512  6598.09661  0.00011  56002.85797  52.09056   0.16933  22.00319      56027.4 
    14.66738   1.6878   7.77151       0.20477         2156.95136  0.01579  0.06632     0.02958   1.77789     17.33243   8876.99935   -11.01704  0.66943  7940.59575  0.00012  55999.28296   52.1957   0.65862  22.00386      56027.4 
    14.95061  1.76302   5.39698       3.23872          2036.1408  0.21292  0.06846     0.13165   2.50506     17.28022   5561.98757    -3.64065  0.88029  8006.30706  0.00011  56006.65935  52.25163    9.9393   21.9955  56026.50301 
    14.90644  1.80624  10.38297       4.42337         2411.23382  0.22272  0.02175      0.0947   5.73902     16.19621    4943.6297    -5.71092  1.14141  7856.14089    1e-05  56004.58908  52.33446   13.0668  22.00488      56027.4 
     14.7076  2.15005  10.45615       4.13104         2097.71485  0.00807  0.05038     0.04253   1.54747     18.83643   7014.27361     -7.7104  0.92632   6996.1097  0.00381   56002.5896  52.06429   0.32035  22.01639      56028.3 
    14.89898  1.79774   4.42201       0.52976          2617.4483  0.00157  0.01683     0.05583   9.15473      18.6662   3774.70898     -5.2641  0.87815  6869.76867  0.00258   56005.0359  52.26524   0.10242  22.01643      56027.4 
     14.5828  1.87398   9.70455       2.75587         2518.93658  0.00254  0.10765     0.26279   1.04289     18.94566   8532.07155    -7.68366  1.44733  7399.58758   0.0049  56002.61634  52.04562   0.08642  21.99484      56027.4 
    14.93347  1.57065   4.54173       4.35127         2259.60524  0.36472   0.1537     0.04245   1.33277     18.46909   3005.28119    -1.87594   0.9419  8773.58046  0.00164  56008.42406  52.23664  13.69666  22.03722  56029.09699 
    14.45775   1.5302   8.25422       1.16129           2657.314  0.06956   0.0118     0.01069    6.9975     17.08173   9640.19142    -8.23139   1.4793  6530.11918    7e-05  56002.06861   52.1946   4.28027  21.99062  56029.09699 
    14.86096  1.54843   6.09151       1.58889         2583.32178  0.10593   0.0109     0.01351  13.04087     16.14494   3369.45042    -3.78335  1.37839  8476.50857    1e-05  56006.51665  52.48049   7.47214  22.04181      56028.3 
     14.4899  1.77636    7.7951       0.25533         3121.17864  0.00186  0.03117     0.03412    3.2894     16.56134   8316.43977   -10.97495  1.37455  7422.37172    2e-05  55999.32505  52.22103   0.09402  22.03568      56028.3 
    14.31374   1.1686   6.88774       3.40356         2290.28147  0.01333   0.0124     0.14232   8.66719     19.49954   6991.47955    -6.84168  1.20267  7616.39772  0.01755  56003.45832  52.34957   0.86157  22.00066      56027.4 
    14.83598  1.78176   6.19815       4.50398         2094.38491  0.00254  0.18602      0.0564   1.06728     19.78568   9860.19289    -3.89465  0.95511  8204.85972  0.03392  56006.40535  52.13959   0.08711  22.03461      56028.3 
    14.76261  1.94112   7.44918       1.22356         2669.67733  0.01369  0.05989     0.01294   2.75461     17.28242   7774.26296    -6.64681  1.50529  7196.92036  0.00011  56003.65319  52.17165   0.65787  22.01465      56027.4 
    14.81374   1.6919   6.77885       4.69449         2226.60836  0.11985  0.02166     0.02859   6.93673     19.29506   9987.30922    -4.55739   1.2689   6837.6354  0.01096  56005.74261  52.23368   7.36031  22.02353      56028.3 
    15.15598   1.6715   8.40294       3.94908         2534.70105  0.02799  0.06392     0.08211   2.19585     18.77559   6325.00323    -6.33401  0.29734  6973.62724  0.00331  56003.96599  52.11358   1.25318  22.03557      56028.3 
    14.75287  1.83414   8.10706       3.45738         2365.36154  0.12545  0.04458     0.07082   3.37926     19.32226   3688.28199    -6.16906  1.42654  7188.19514  0.01167  56004.13094  52.19652   6.39914  21.99037  56029.09699 
    14.70147  1.81603   8.07239       0.84846         2171.69157   0.0036  0.02562     0.06467   4.20677     17.80735   7843.08486    -6.74698  0.87428  7995.80481  0.00036  56003.55302  52.31517   0.19492  22.03453      56027.4 
    14.89002  1.83344   4.91189       0.08237         2502.17639   0.0062  0.03138     0.03382   4.89805     16.91824    7773.9254    -6.74119  0.83188  7883.81388    5e-05  56003.55881  52.32021   0.34982  21.97592      56027.4 
    14.64391  1.28383   5.03358       3.95284         2176.85392  0.09032  0.04282     0.05593   4.30736     17.63237   6695.18074    -2.96235  1.38547  8850.52994  0.00024  56007.33765  52.40612   4.92422   22.0236      56028.3 
    14.40899  1.66318   9.31063        4.6295         2409.71244  0.00444   0.1086     0.13691   0.82622     19.78776   5818.57207    -8.20498  1.17078  7685.61565  0.03408  56002.09502  52.03326   0.13601  22.04428      56027.4 
    14.99902  1.90302    6.2666        4.8434         2439.79455   0.0235  0.03176     0.04664   5.89701     20.09475   9851.14406    -3.65445  0.81242  7094.03797   0.0691  56006.64555  52.24872   1.38778  22.05116      56028.3 
    15.02748  1.73586   9.79994       3.02931         2568.01355  0.02483  0.01083      0.3943   9.90416     18.99702   7993.09651    -7.12267  0.35855  7871.75409  0.00552  56003.17733  52.39099   1.65301  21.96538      56027.4 
    14.52969  1.64259    8.4947       0.33974         2477.16204  0.25931   0.0177     0.01519   5.11393     16.46986   4569.89764   -10.44229  1.44561  7176.86541    2e-05  55999.85771  52.24338  14.78118  22.00823      56028.3 
     14.8369  1.85305   9.28576       3.61832         2014.43321  0.07125  0.02918     0.24249   4.17291     17.05685   6428.73051    -7.14632  0.66481  7873.05734    6e-05  56003.15368   52.3008   3.85199  22.02418      56028.3 
    14.82618  1.64264    5.4299       1.26334         2266.37755  0.18699  0.02938     0.10134   4.50431     18.02698   5479.95561     -3.5568   1.3512  8146.74689  0.00059   56006.7432  52.33927  10.31524  22.03834      56028.3 
     14.7823    1.933    7.2429        0.6391         2214.50632  0.02845  0.01223     0.02523  11.62363     18.44099    9493.1596    -7.25858  1.25602  8241.53642  0.00153  56003.04142  52.44571   1.95963  22.05363      56030.3 
    14.82016  1.57207   6.15946       4.21731         2102.49422  0.06352  0.08059     0.12717   1.98506     18.18759   5112.64397    -4.68335  0.77482  7428.23108  0.00086  56005.61665  52.15405   2.75136  22.03459      56028.3 
    14.59425  1.48081    6.2013       1.12607         2127.24196  0.14765  0.04883     0.01519   2.26396     19.62514   9512.56378    -5.49619  1.38866  7787.52391  0.02344  56004.80381  52.21373   6.67623  22.06358      56027.4 
    14.66446  1.79396   8.62456       4.31675         2003.91487  0.00993  0.02443      0.1157   5.67967     17.31535   3450.51198    -6.23847  1.21418  8439.01539  0.00011  56004.06153  52.39551   0.58086  22.02176      56030.3 
    15.17591  1.96334   2.13987       4.54113         2292.18063  0.05184  0.03048     0.01458   8.15107      18.4242   6710.89624    -1.57091  0.90129  7607.30885  0.00148  56008.72909  52.34252   3.30438  21.98122      56028.3 
    14.96563  1.99849   8.99291       2.37134         2169.13153  0.02593  0.04392     0.05934    3.3605     16.18758   5502.08629    -9.20636  0.51473  7281.14715    1e-05  56001.09364  52.20699   1.32038   22.0288      56028.3 
    14.83999  1.68378   5.47251       4.13097         2029.47215  0.04841  0.01763     0.18035   10.5077     16.12417   3465.89667    -2.78647  1.35732  8750.68305    1e-05  56007.51353  52.48848   3.26355   21.9934      56028.3 
    15.00769  1.63722   3.91037       4.63524         2058.28168  0.07708  0.03008      0.0533   7.06938     18.76819   8107.18645    -2.32077  0.82475  8677.02552  0.00326  56007.97923  52.44254   4.75442  22.01868      56028.3 
    14.72772  1.92678   9.62835       4.71741         2224.93335  0.00431  0.02515     0.11746   4.26248     16.57685   7799.64186    -7.37018  0.90925  6566.48462    2e-05  56002.92982  52.14563   0.23435  22.02461      56027.4 
