 texplosion  fnickel     Pspin  log(Bfield)      Mns  thetaPB   mejecta    kappa  kappagamma      vejecta  temperature    alpha  cutoff_wavelength  log(nhhost)      A_V         MJD0   kenergy  mnickel            TSD   log(L0)  Peak_mag     Peak_MJD  log(E_rad)  log(Peak_lum)  Rise_Time    E_fold  tau_1  delta_m15     r_peak     frac 
   -8.18777  0.03486   7.30226     14.32031   1.3445  1.38384   4.39428  0.02055     0.12567   7743.60406    5348.0359   2.7833         2281.25039     17.44315  0.00015  56002.11223   1.57181  0.15319  1522902.50721  44.48782  21.98162  56027.36177    50.45757       44.02497   11.98234  17.30782   41.0     0.5638  -20.04548  0.94024 
   -5.11057    0.003   6.53991     14.54102  1.39711  1.55144    1.1896  0.14594     0.23776   8726.08186   7031.22462  4.88009         2271.37872      18.2607  0.00101  56005.18943   0.54034  0.00357   459348.82564  45.12079  22.09267      56029.4    50.41939       44.05003    7.98822  19.97056   23.0    0.78896  -20.07661  0.99889 
   -4.30066  0.04846   1.55872     14.97601  1.34074  0.65704   2.95659  0.09503     0.29776   9386.88601    7988.6917  1.12675         3040.06074     16.91793    5e-05  56005.99934   1.55403  0.14328     3378.09049  48.48198  22.00548      56028.3     50.3322       44.00892    9.31959  15.97645   18.0    0.83336   -20.8592  0.99946 
   -9.14628  0.04159   5.31385     14.79487  1.88823  1.01745   3.93463  0.03614     0.02513   8708.34039      5806.07  0.04723         2581.81556     17.05093    6e-05  56001.15372   1.77993  0.16365   127332.35458  45.98914  22.03309      56028.3    50.45452       44.13122    9.31959  16.04127   25.5    0.81727  -19.96859  0.97962 
   -4.26628  0.02978    3.8579     14.84911  1.37194  0.70964   6.05729  0.03434     0.01896   9275.99979   9268.35401  3.90591         2020.42419     16.67399    3e-05  56006.03372   3.10904  0.18041    37986.54174  46.65385  22.02276      56028.3      50.405       44.11229    7.98822  15.97645   18.0    0.84748  -20.04637  0.98268 
   -5.11549  0.02358   2.26912     15.06757  1.30067  0.39545   4.60934  0.04164     0.22247     9807.308   6829.60582  0.91073         2134.62989     16.92354    5e-05  56005.18451   2.64463  0.10869     4555.78414  48.01274  22.06162      56029.4    50.37692       43.96849   13.31371  18.63919   18.0    1.12254  -20.09257  0.99753 
   -4.31276  0.00379   0.92739     15.02499  1.80318  1.11604   4.10821  0.07487     0.04349  11153.49898   5210.43379  0.98809         2059.21571     19.33112  0.01191  56005.98724   3.04861  0.01556     1283.48223  49.48197  22.01586      56027.4    50.29509       43.93444   11.98234  15.97645   17.5    0.79413  -21.41686      1.0 
   -3.28874  0.02476   4.81157     14.82529  1.69011  1.53733   4.26341  0.06267     0.04839  10261.56625   3680.32207  3.22801          2427.6494      16.0467    1e-05  56007.01126   2.67801  0.10556    81230.40923  46.22247  22.02304      56027.4     50.4662        43.9227   10.65097  19.97056   20.0    0.84509  -20.09483  0.98838 
   -8.63974  0.00167   6.71568      14.6864  1.89558  1.47941   3.00918  0.04569     0.03226   8084.62676   8559.24478  1.39129         2086.51015     16.03766    1e-05  56001.66026   1.17326  0.00503   336464.06059  45.36547   22.0085      56028.3    50.42581       44.04172   10.65097  15.97645   23.0    0.75395  -19.98519  0.99896 
    -8.6558  0.09013   5.60125     14.51556   1.5244  1.30745   1.54873   0.1004      0.0193   8831.40039   7652.99896  1.06972         2120.83708     20.23031  0.09441   56001.6442   0.72055  0.13959   413394.64786  45.33901  21.99647      56028.3     50.6399       44.34682    9.36846  14.93429   21.0    0.79768  -20.14746   0.9729 
   -6.08463  0.06634   7.36642     15.10448  1.71594  0.41508    3.4851  0.06063     0.19168   8247.79958   7129.57938  3.62664         2585.13702     16.90353    4e-05  56004.21537   1.41423   0.2312    53440.87642  46.04096  21.97649      56027.4    50.62458       44.35135    7.43972  13.14217   25.0    0.68024  -20.07381   0.9376 
   -8.40809   0.1793   3.16985     15.15009  1.81625  0.48665   5.06885  0.02512     0.07163   7469.02476    6774.9898  0.23478         4814.59934     18.55916  0.00201  56001.89191    1.6868  0.90885     8489.67175  47.59705  22.00137      56028.3    50.30642       43.89082   10.65097  18.63919   42.5    0.67132  -19.92087  0.97005 
   -6.91743  0.17101   2.59044     14.98339  1.88532  1.05398   2.90949  0.07363     0.25563   8768.49408   9781.10656  0.57447         3125.43416     16.56491    2e-05  56003.38257   1.33442  0.49757    12681.22605  47.61432  22.05794      56028.3    50.45684       44.08179   10.65097  17.30782   17.5    0.84445   -20.1472  0.99384 
   -7.02141  0.31736   8.95719     14.62427  1.37626  0.74518   2.60841  0.04108      0.0741    8555.3013   6529.23659  4.73331         2238.29526     18.71799   0.0029  56003.27859   1.13887  0.82779   578512.05897  44.74089  22.06315      56028.3    50.39062       44.01759   11.98234  17.30782   45.0    0.60095   -20.0754  0.66765 
   -6.12019  0.02766   7.01173     14.80354  1.69755  0.94883   8.57915  0.02271     0.02927   7394.95332   5208.57996  3.83799          2680.1088     19.55922  0.02013  56004.17981   2.79861  0.23733   191515.61129  45.52481  22.06717      56031.3    50.43903       44.07888    7.98822  19.97056   26.0    0.66018  -20.06579    0.941 
   -7.97727  0.00735   7.64317     14.57863  1.71963  1.55224   3.76262  0.03618     0.03013   7325.86223   4810.13903  2.58758         2281.93472     18.73867  0.00304  56002.32273   1.20458  0.02766   649441.01073  44.92519  21.97721      56028.3    50.49332       44.15583   10.65097   14.7099   30.5    0.65136  -19.98406  0.99145 
   -7.38506   0.0956   9.06389     14.66557  1.73682  1.20871   8.35525  0.01408     0.03768   8552.11043   3875.06575  2.75158         2136.37464     17.10604    7e-05  56002.91494    3.6453  0.79873   618110.13758   44.8029  21.99472  56027.36177    50.41857       43.97683   11.98234  19.97056   43.0    0.59505  -20.05646  0.74329 
   -7.53171  0.07877   6.46968      15.0913  1.64594  0.39959   8.62422  0.01725     0.37629   7694.87086    7740.2502  1.73218         2473.33001     19.75107  0.03132  56002.76829   3.04614  0.67937    42013.32023  46.24011  22.03242      56028.3     50.3606       43.90441   11.98234  18.63919   32.0    0.65093  -20.01885  0.86221 
   -6.92597  0.00236   8.13051     14.93457   1.9073  0.70396   2.22125  0.07897     0.08846    7647.3889   3301.26842  3.20881          2674.2409     16.19404    1e-05  56003.37403   0.77491  0.00524   158243.70503   45.5297  22.02749  56027.36177    50.45767       43.97926   10.65097  19.97056   24.0    0.75693  -20.05406  0.99843 
   -7.89318   0.0084   3.83018      14.7051  1.65488  1.17523   7.07924   0.0267     0.01088   7431.11577   8869.70756  1.41959         2557.86537     20.35667   0.1263  56002.40682   2.33196   0.0595    87664.31072  46.37835  22.02295      56028.3    50.32274       44.02839    6.65685  18.63919   20.5    0.71423   -20.0634  0.99551 
   -7.40425  0.01902    3.1274     14.76987  1.61636  1.23463  10.31596  0.01883     0.04028   7747.68471    9680.8267  0.74077         3291.04837     19.44799  0.01559  56002.89575   3.69386  0.19618    42362.47971  46.86004  21.99879      56028.3    50.44137        44.1739    6.65685  16.04127   18.0    0.78352  -20.01209  0.99181 
  -12.15064  0.02233   8.81662     14.62385  1.74006  0.72125   8.64158  0.01567     0.01038    7503.5944    6626.5069  3.69305         2207.93843     16.94417    5e-05  55998.14936   2.90241  0.19297   710035.53051  44.76752  22.02382      56028.3    50.46312       44.14441    9.31959   14.7099   39.0    0.48807  -20.01884  0.92641 
   -6.29346  0.03777   1.77612     14.96538  1.80525  1.03956   4.69586  0.04717     0.25471   9346.46272   8537.73426  0.60989         2102.17088     17.52375  0.00019  56004.00654   2.44702  0.17738     6202.15544  48.23389  22.03999      56028.3    50.35825       43.88599    9.31959  19.97056   16.5    0.92958  -19.96281  0.99941 
   -8.83488  0.00514   2.30246       14.731   1.6529  1.52731   9.17292   0.0169     0.31905   8091.37297    6305.4783  0.08659         2599.19183      18.0934  0.00069  56001.46512   3.58244  0.04717    28082.61089  47.31427  22.01596      56028.3    50.66662       44.37446   10.65097  14.24916   21.0    0.93326  -19.79518  0.99921 
   -6.33656  0.00255   1.87594     15.00519  1.83058  0.87985   7.97322  0.02742     0.04855   8566.87815   8809.47586  0.63718         2610.98751     16.06192    1e-05  56003.96344   3.49065  0.02034     5840.52071  48.21854  21.99925  56027.36177    50.26478       43.87998   10.65097  15.97645   16.0    0.95507  -20.34816  0.99991 
   -8.12437    0.031   6.50981     14.68985  1.28065  0.59243    4.1906  0.03188     0.23933   7600.46017   7913.82254  1.88175         2817.62298      16.6368    2e-05  56002.17563   1.44405  0.12992   210225.64257  45.42645  22.00493      56027.4     50.2962       43.92262   10.65097  17.30782   26.0    0.73288  -20.01962  0.95633 
   -2.85275  0.04355    1.6774     14.88848  1.31741  0.89598    3.9374  0.05565      0.3319   8926.83261   7220.02483  1.64824         2777.95588     18.94824  0.00493  56007.44725   1.87168  0.17145     5752.44258  48.17944  22.05297      56027.4    50.27891        43.8867   10.65097  18.63919   17.0    1.00055  -20.37921  0.99921 
    -9.1988  0.00382   9.18855     14.43953  1.65282   1.5367   1.62609  0.06768     0.02709   7661.47191   5788.99692  4.08616         2448.62285     17.14731    8e-05   56001.1012   0.56937   0.0062  1711846.88441  44.32711  21.97442  56027.36177    50.32756       43.93183   13.31371  17.30782   31.5    0.57783  -20.02535  0.99701 
   -7.96015  0.00367   9.60033     14.37173   1.6951  1.32421   4.05002   0.0164     0.03235   6845.92627   8356.86035  4.46465         2629.81952     16.11411    1e-05  56002.33985   1.13227  0.01488  2618929.73738  44.11534  22.02753      56029.4    50.36698       43.94752    9.31959  18.63919   41.0    0.51233  -20.04964  0.99244 
   -3.91725  0.01083   1.38502     15.03495  1.68492  0.85145  12.86127  0.02214     0.12016   9522.85477   7271.55836  2.23316         2162.74425     18.95861  0.00505  56006.38275   6.95737  0.13928     2555.06082  48.80511  22.00204      56028.3    50.34825       43.98841   11.98234  15.97645   19.0    0.78055  -20.24963  0.99983 
   -7.52867  0.04346   3.07331     15.04803   1.9007  0.72595   3.95461  0.06026     0.01112   9101.00708    9773.1992  0.68341         2493.53977     16.46762    2e-05  56002.77133   1.95393  0.17186    13362.61679  47.44665  22.01522      56028.3     50.3718        44.0188    6.65685  17.30782   15.5    0.92405  -20.00024  0.99548 
   -6.09155  0.02172   1.79009     15.01435  2.10333  1.30223   6.11567  0.03752     0.35225   9880.67608   6272.19662  0.94679         2127.77006     20.06932  0.06517  56004.20845   3.56159  0.13281     5858.39015  48.31823  21.97875      56028.3    50.42936        44.1663    7.98822  14.64508   17.5     1.0024  -20.13103  0.99971 
   -7.42005  0.01118   7.04489     14.77485  1.65543  0.63298   4.55523  0.03682     0.04842   7996.73546   7547.19426  3.28177           2351.647      20.2979  0.11031  56002.87995   1.73765  0.05093   215163.45833  45.45924  21.99972  56027.36177    50.45037        44.1167   10.65097  15.97645   27.5    0.64069   -20.1689  0.98593 
    -6.3047  0.00942   4.02279     14.87729   1.8358  1.00868   1.69172  0.10303     0.05852   9204.16748   9600.15208  0.43629         2188.40895     18.55644    0.002   56003.9953   0.85492  0.01594    48542.55088  46.63749  22.03789      56028.3    50.34539       43.97122   11.98234  17.30782   15.0    1.03958  -20.05579  0.99894 
   -9.79456  0.01159   6.35971     14.51662   1.6046  1.56744   3.48408  0.03425     0.28724   8778.59789   3733.59944   0.3238         2478.71358     19.08451  0.00675  56000.50544   1.60164  0.04039   558227.53157  45.12053  22.02971      56028.3    50.37125       44.07684    6.65685  17.30782   30.0    0.69402  -20.04113  0.99044 
   -9.52358  0.02678   5.26805     14.83597  1.90095  0.88184   2.89066  0.05088     0.11138   9171.70071   5229.15977  0.02693         3216.68085     18.18585  0.00085  56000.77642   1.45052   0.0774   104266.74886  46.08637  21.97405  56027.36177    50.52103       44.05867   11.98234  17.30782   24.5    0.87269  -20.01096  0.99052 
  -10.60541  0.01312   8.09243     14.61943  1.80053  1.00958   2.92129  0.05104     0.05853   7960.56203   9781.16003  1.67445         2511.35423     19.32163  0.01165  55999.69459    1.1043  0.03831   631699.31281  44.90758  22.01674      56029.4    50.54366       44.19916    7.98822  17.30782   24.0    0.61728  -20.05495  0.98761 
   -4.55955  0.10306   1.24777     15.05686  1.51812  1.42472  17.53213  0.01045      0.2335  10040.63633   4927.03175   2.0556          2273.3435     17.94876  0.00049  56005.74045  10.54349  1.80688     1689.13469  49.03022  22.02027      56028.3     50.3944       43.91747   13.31371  18.63919   66.0    0.55373  -20.03435  0.99925 
   -9.60044  0.04388   7.80556     14.60077  1.92249  1.23649   7.44855  0.01511     0.03108   8648.58004   3538.56051  1.46648         2112.09345     20.33628  0.12051  56000.69956   3.32345  0.32686   683837.56374  44.93295  22.02572      56028.3    50.47969       44.13429   10.65097  15.97645   38.5    0.58964   -20.1702  0.91734 
   -6.24128   0.0035   2.36466     15.15588  1.87582  0.55111   9.59762  0.02414     0.06807   8746.26647    8113.5263  0.59357         2504.88876     19.81483  0.03627  56004.05872   4.37962  0.03356     4750.88039  48.11773  21.97538  56027.36177    50.35469        44.0228    9.31959  15.97645   18.0    0.96361  -20.01721  0.99964 
    -3.8379  0.00342   5.31454     15.14351  2.00171  0.61133   3.74892  0.06309     0.14593   8157.82306   8773.84319  4.48825         2293.46927     18.65371   0.0025   56006.4621   1.48827  0.01283     27109.2508   46.6862  21.98066      56027.4    50.56679       44.26498    7.98822  13.05441   20.0    0.73994  -20.01643  0.99862 
   -5.88783  0.01924   2.88489     14.81756  1.55355  0.99985   4.45622  0.05579     0.18256   9355.53814   5522.93506  0.91777         2853.36526     20.09977   0.0699  56004.41217   2.32665  0.08572    27814.91486  47.09563  21.99212      56028.3    50.38183       44.09642    7.98822  14.64508   19.5    0.91706  -20.20708  0.99706 
   -3.58772  0.01986   4.05418     14.75367  1.56617  1.48512    3.6419  0.05225     0.01659   9797.31796   5843.86171  1.46554         2431.85024      19.7459  0.03095  56006.71228    2.0853  0.07232    74323.47073  46.37675  22.02321      56028.3    50.31017       43.88743   10.65097  18.63919   18.0    0.99023  -20.10809  0.99381 
   -8.10417  0.00567   6.76353     14.84987  1.50063  0.49239   2.03776  0.07576     0.01424   7887.57119   9714.93026  2.23617         2368.88098     17.10262    7e-05  56002.19583   0.75625  0.01156   127263.39405  45.68007  22.05553      56029.4    50.42264        44.0868    9.31959  15.97645   19.0    0.74568  -20.00134  0.99656 
   -4.06486   0.1229   7.12042     14.75911  1.68302  1.51915   2.08803  0.07765     0.01557   7994.58603   5565.35794  2.94008         2755.91783     17.16645    8e-05  56006.23514   0.79608  0.25662   240263.62292  45.40924  22.04643      56030.3     50.4818       44.15708    9.31959  16.04127   21.5    0.81042  -20.04715  0.93421 
   -7.45878  0.20041  12.25033     14.70103  1.79081  1.48095   5.86931  0.01877     0.07156   8139.41323   8387.54102  4.09353          2546.7338     18.50023  0.00176  56002.84122   2.31953  1.17624   988803.44602  44.35049  22.02331      56027.4    50.43525       43.88149   13.31371  23.96467   43.5    0.58244  -20.08783  0.52898 
    -5.6396  0.04115   7.61451     14.78062  1.73079  1.11372   5.26997  0.03346     0.01561   8020.81851   3535.74484  3.59813         2520.97396     16.15751    1e-05   56004.6604   2.02242  0.21686   255922.58844   45.3357   22.0106      56028.3    50.69251       44.26474    5.51098  15.79095   25.0    0.72321  -20.01489  0.93827 
  -11.21685  0.05386   2.99549     14.66697  1.52232  1.45005  10.24711  0.01985     0.06785   8451.32954   7466.45011  0.06799         2004.46415     19.36086  0.01275  55999.08315   4.36595  0.55192    58792.12109  46.72909  22.04721      56030.3    50.48697       44.18566    6.10835  17.85632   29.0    0.65423  -19.83661  0.97543 
    -2.9136  0.00174   1.61377     15.08081  1.83468  0.91142  12.89755    0.021     0.27631   8717.79779   4018.87582  1.63225         2810.54193     19.53819  0.01918   56007.3864    5.8472  0.02245     3057.98979  48.63129  22.01093      56027.4    50.43583       44.16507    5.32548  16.04127   18.5    0.84854  -20.24103  0.99996 
   -6.94665   0.4681   8.79789     14.81589   1.6849  1.38444   5.08757  0.02481      0.0704   8264.86936   3239.83892  4.43118         2157.97008     20.43374  0.15082  56003.35335   2.07305  2.38149   282728.73942  45.15529  22.05733      56029.4    50.55781       44.15605   10.65097  15.97645   76.0    0.46926  -20.20553   0.4995 
   -6.95722  0.00222   1.80037     14.95896  1.93809  1.17665   2.37151  0.10013     0.42443   9038.90958   5009.98752  0.48016         2303.27653     17.84305  0.00039  56003.34278   1.15581  0.00526     7046.86115   48.1975  22.02567      56028.3    50.26064       43.92553    9.31959  17.30782   17.5    1.02767  -20.11438  0.99998 
   -9.79808  0.00108    6.1326     14.74335  1.72567  0.78478   1.50928  0.10176     0.01584   8852.32821   3389.80631   0.2955         2730.96996     19.04597  0.00618  56000.50192   0.70553  0.00163   196502.75393  45.63715    22.029      56029.4    50.51758       44.23253    6.84235   16.7264   20.0    0.93229  -20.05209  0.99968 
   -7.04919  0.00247   8.08579     14.74475   1.7634  0.87356   2.89547  0.05547     0.03722   9322.19626   7365.90311  3.93682         2005.63949     16.51546    2e-05  56003.25081   1.50101  0.00716   346824.54546  45.15964  22.03208      56027.4    50.52787       44.11025   11.98234  15.97645   24.0    0.73632  -20.07804   0.9976 
   -5.42827  0.09152    5.3298     14.96046  1.81915  1.12341   8.25708  0.02439     0.10504    8128.2467   6568.56531  2.51429         2703.18815     19.12571  0.00742  56004.87173   3.25422  0.75572    57567.67213  46.31511  21.99105      56027.4    50.35776       43.88985   11.98234  18.63919   29.5    0.65508  -20.03812  0.91718 
   -8.76314  0.00738    9.2788     14.77744   1.9562  0.69046   1.69478  0.06693     0.10823   8064.63291   9685.05805  2.20572         2365.36536     19.44722  0.01556  56001.53686   0.65752   0.0125   435835.79643  44.98595  22.07529      56028.3    50.36698        43.9462    9.31959  18.63919   26.5    0.60186  -20.05652  0.99526 
   -5.96882  0.01079   5.69504     14.89616  1.88517  1.00144   5.91163  0.02785     0.01623   7065.68778   4285.98163  1.47009         2981.89238     17.45261  0.00016  56004.33118   1.76053  0.06378    91587.84782  46.07137   22.0206      56028.3    50.47861       44.16861   10.65097  15.97645   22.0      0.771   -19.9687  0.99096 
   -7.39098  0.01474   7.28068      14.6817  1.67788  0.98317   1.30822  0.11751     0.14306   9092.57203   8919.43402  2.08089         2142.26534      18.4388  0.00153  56002.90902   0.64518  0.01929   357707.43989  45.21573  21.94882      56028.3    50.50756       44.21587    4.77698  16.12903   21.0    0.75361  -20.07585  0.99439 
   -3.04062  0.07765   3.61851     14.75209  1.41712  1.24757   1.83718  0.13427     0.06419   9092.68686     3900.341  3.57153         2366.59665      18.7754  0.00331  56007.25938   0.90608  0.14266    53962.57695   46.5711  22.03225      56029.4    50.49988       44.17966    6.10835  17.32378   21.0    0.82879  -20.05684  0.98964 
