 log(Bfield)      Mns    Pspin  cutoff_power  cutoff_wavelength  fnickel    kappa  kappagamma   mejecta  log(nhhost)  temperature  texplosion  thetaPB     vejecta      A_V        MJD_0   log(KE)      M_Ni  Peak_mag     Peak_MJD 
    13.90758  1.37064  2.25794       3.73053         3319.60561  0.00416  0.02358     0.22981  30.73705     18.60509     6844.698    -14.0122  0.61496   4712.9091  0.00224   58790.4778  52.04096   0.34469  18.74135  58848.25032 
    13.97298  1.73407  2.41989        1.9061         3290.91254   0.0039  0.01284     0.41876  47.70107     16.81647   4125.31617   -13.37716  0.77875  4706.69365    4e-05  58791.11284  52.07189   0.34843  18.77626  58848.25032 
    13.65068  1.37949  2.44792       3.97967          3240.1146   0.0092  0.04381     0.26036  15.64075     16.90679   7897.96451   -16.07394  1.11464  5325.80214    4e-05  58788.41606  52.09272   0.67334  18.78163  58846.52065 
    14.25415  2.03415  2.70033       1.42062         3700.65529  0.39492  0.04344      0.2538  11.76895     17.82964   4410.56212   -10.57713   0.6441  4610.38116  0.00038  58793.91287   51.9423  27.27154  18.76271  58845.22072 
    14.07092  2.05188  2.89277       0.66653         3817.18402  0.11974  0.03767     0.01273  15.94842     19.38478   6022.49424   -15.56057   0.6457  6947.00666  0.01347  58788.92943  52.32522   8.79485  18.79347  58850.51947 
    14.17537  1.68983  2.69146       4.95603          3311.2127  0.06886  0.02981     0.23055  28.76903     19.16119   6884.19623   -12.56589  0.56198  4668.55713  0.00805  58791.92411  52.02771   5.64532  18.76416  58846.52065 
    13.83368  1.68567  2.50532       2.96961         3178.42644  0.00324  0.02228     0.01836  28.93996     19.93892   7584.78578   -12.73138  1.08256  4977.85592  0.04827  58791.75862  52.08389   0.26608  18.77321  58848.25032 
    13.92842  2.09365  3.14388       3.71527         3095.72244  0.01246  0.03384     0.04816  24.67926     16.18322   4393.61778    -14.7248  1.39547  5737.60702    1e-05   58789.7652   52.1949   0.99357  18.76728  58846.52065 
    13.88277  1.91505  2.94762       4.76955          2946.0836  0.00437  0.02176     0.22445  32.04884     19.64888   8031.78501   -13.26561  1.18103  5486.43489  0.02475  58791.22439  52.17612    0.3652   18.7579  58845.22072 
    13.93785  1.98649  2.85882       3.02736         3275.40013  0.00383  0.03925     0.01649  17.63445     16.05218   4482.15199    -13.2972  1.39388  4499.00082    1e-05   58791.1928  51.95636   0.28706  18.77818  58848.25032 
    14.04494  1.93944  2.90692       4.83215         2829.91345  0.16538  0.03894     0.07316  22.37373      19.3628   5097.43906   -10.73889  1.01154    5988.691  0.01281  58793.75111  52.22431  12.95678  18.78482  58846.52065 
    14.16862  1.71727  2.52746       3.96448         3040.71685  0.28203  0.05957     0.25753  17.55436     19.05844   7529.07979   -11.09558  0.67772  5987.79479  0.00636  58793.39442  52.20428  21.10642  18.79201  58848.25032 
    14.16113  1.79439  2.37122       1.70952         3203.52907  0.23522  0.04718     0.05814  19.71316     20.15612   5079.76021   -13.63299  0.58964  6112.19061  0.07959  58790.85701  52.23177  17.99831  18.77872  58848.25032 
     14.0676  1.81587  2.32763       4.97392          3170.4331  0.17059  0.03918     0.01178   34.1237     19.57601    5871.3345    -8.87482  1.55114  6046.89652  0.02093  58795.61518   52.2653  14.40617  18.75532  58848.25032 
     13.8032  1.40719  2.41757       3.09757         3523.26599  0.00242  0.04282     0.37976  12.67486      19.7839   4146.21599   -14.27618  0.73596  4686.53649  0.03378  58790.21382  51.96322   0.16991   18.7931  58848.25032 
     13.8618  1.57476  2.11133        1.4664         3330.02361  0.29616  0.06774     0.49171  10.61335     16.38786   5555.46137   -11.46645  1.29615  5316.12566    1e-05  58793.02355  52.05651  20.00869  18.79466  58848.25032 
    13.88486  1.58196   2.5661        4.3831         3412.88188  0.08938  0.02184      0.0641  32.67324     18.27333   4028.84084   -11.63763  1.41548  4115.08621  0.00104  58792.85237  51.92775   7.49186  18.78156  58846.52065 
    13.83309   1.7608  2.87763       4.64155         3094.34669  0.02571     0.04     0.15154  20.98144     17.04734   7755.25801   -14.83501  1.18946  5916.22375    6e-05  58789.65499  52.20855   1.99078  18.77641  58848.25032 
    13.90078  1.54981  2.56028       4.48502         3095.52205  0.21371  0.06003     0.47152  18.56408      17.9435   9761.77519   -12.54126  1.04599  6483.26081  0.00049  58791.94874    52.278  16.16643  18.77972  58848.25032 
    14.10577  1.86521   3.0924       3.78001         3286.04941  0.02054  0.05306      0.0112   9.84036     17.40061   8099.45639   -16.40445  0.36997  5859.95887  0.00014  58788.08555  52.13402   1.36539  18.77185  58848.25032 
    14.01511  1.75375  2.56765       3.87405         3217.91379  0.09232  0.02115     0.29046  45.58305     18.50618   6352.94944    -9.79868  1.25737  5623.14756  0.00178  58794.69132  52.22321   8.18333  18.78292  58848.25032 
     13.9361  1.59504  1.46882       0.58226         2790.72494   0.1377  0.01725     0.03212  49.88484     19.98105     4726.339   -10.48113  1.26255   6901.8343  0.05318  58794.00887  52.40752  12.38522  18.77357  58848.25032 
    13.92266  1.76754  2.73206       3.85335         3104.93607  0.22983   0.0654     0.19156  12.10735     19.91863   9731.00915   -12.04303  1.11862  5391.57587  0.04606  58792.44697  52.08083  15.96492  18.78091  58846.52065 
    13.84165  1.98152  3.20854       4.58425         3175.14492  0.00857  0.07231     0.03784   8.89604     16.71183   4163.85051   -15.00315  1.51585  5262.04033    3e-05  58789.48685   52.0309    0.5573  18.77535  58846.52065 
    13.80805  1.85672  2.75576       3.14575         3397.83962  0.00635  0.04203     0.31084  17.19694     20.31179   3981.56664   -14.40515  1.54467  5357.05511   0.1139  58790.08485  52.10587   0.47347  18.76422  58846.52065 
    14.04462  1.77809  2.46509         4.521         3197.45125  0.34488  0.07879     0.05106  14.42207     19.66438   5926.58153    -8.45671  1.35088  6005.29089  0.02565  58796.03329     52.19  24.82981  18.76883  58848.25032 
    14.01226   1.5357  1.79865        2.8675         3035.40978  0.38368  0.06869     0.01617  19.30887     18.84842   6940.86369    -7.66481   1.4762  6909.61052  0.00392  58796.82519  52.33658  29.24269  18.80142  58848.25032 
    14.17683  1.95347  3.14629       4.30336         3252.15712  0.09742  0.03777     0.33352  14.36567     18.83887   8004.72745   -12.59955  0.59548  4180.99752  0.00383  58791.89045  51.87515   7.00859  18.77385  58846.52065 
    13.84427  1.94791  2.72648       3.12455         2418.90999  0.02769  0.06155     0.01556  10.29741     16.00775   8661.86606   -13.67658  1.22547  6143.06667    1e-05  58790.81342  52.17927   1.85886  18.76837  58848.25032 
    13.81036   1.7348  2.91617       4.73984         3124.60355    0.032  0.01796     0.28618    39.542     19.96541   6637.45475   -13.09561  1.25064  5973.83931   0.0513  58791.39439  52.26556   2.77104  18.74346  58848.25032 
    14.34643  2.10212  3.29769       4.76866         3253.59644  0.00186   0.0218     0.12717  34.16454     18.43178   4748.21146   -14.35766  0.39075  5100.11927   0.0015  58790.13234  52.11748   0.15695  18.75494  58848.25032 
    14.00609  1.87023  2.98662       3.17444         3473.96219  0.13578  0.01945     0.01329  34.79894     16.76952   5611.62886   -10.61681  1.48607  4714.46955    3e-05  58793.87319  52.05055  11.50506  18.75374  58848.25032 
    13.82516  1.75444   2.6892       3.70925         3046.18344  0.00522  0.01119      0.2866  61.56242     16.32843   7435.49575   -15.05158  1.29972  4804.43416    1e-05  58789.43842  52.10732   0.48555  18.78257  58848.25032 
    13.70073  1.39848  2.39679       2.97968         3542.39466  0.09227  0.04243     0.04389   14.6163     19.00152   7626.83668   -13.77704   1.4391  4462.71716  0.00558  58790.71296   51.9333   6.66074   18.7692  58848.25032 
    13.91782  1.38798   2.4937       4.56425         3307.63116  0.00198  0.06076     0.43166  10.09314     16.32026   8265.77801   -15.43264  0.52352  4558.98188    1e-05  58789.05736  51.91836    0.1322    18.765  58848.25032 
    13.62453  1.17711  1.97693       3.76438         2907.07176  0.06998  0.02509     0.07088  37.14593     18.51105   5551.71425   -12.94469  1.50508  6198.35442   0.0018  58791.54531  52.29305   5.99544  18.77301  58848.25032 
    13.91262  1.93882  2.93057        3.5618         3126.30143  0.05848  0.05144     0.24738  11.88476     18.36288   5103.83757   -12.92502  1.49223  4585.36269  0.00128  58791.56498  51.93846   4.04631  18.75886  58848.25032 
    13.90139  1.53359  2.38544       2.83591         3406.44784  0.01252  0.02569     0.14396  25.41716     19.06199   4014.74269   -12.77949  0.76485  4603.14708  0.00641  58791.71051  52.00586    1.0037  18.80645  58850.51947 
    14.32158   2.1091  2.33234       3.25078         3189.57584  0.10282  0.02844     0.01659  48.91783     18.24546   9838.53646    -7.41396  0.81546  6480.24935  0.00098  58797.07604  52.35141   9.21845  18.77322  58846.52065 
    13.79974  1.57066  2.59987       4.69271         3179.51293   0.0103  0.01117     0.07885  72.97234     16.79913   5497.72674   -13.74301  1.23063  5190.95505    3e-05  58790.74699  52.18587   0.98281  18.78044  58848.25032 
    13.96554  1.98476  3.31513       4.95303         3020.33128  0.06709  0.01141     0.07972  66.07861     19.28946   5857.48356   -12.54542  1.54164  5649.09401  0.01082  58791.94458  52.25275   6.30678  18.80533  58846.52065 
    13.97483  1.83566  2.78091       1.88989         3322.90765   0.0054   0.0859      0.1997   9.59796     19.57006   4792.12194   -17.34728  0.65712  6503.42564  0.02064  58787.14272  52.22216   0.35681  18.74302  58848.25032 
    14.16171  1.74052  2.44937       3.95566         2595.73061  0.17498  0.04637     0.11736   24.9555     16.19148   6022.39328     -12.091  0.61307  7133.23453    1e-05    58792.399  52.38489  13.98574  18.77232  58846.52065 
    13.99291  1.63678  2.17691       1.18998          2912.7619  0.00947  0.02066     0.05618  38.85813     19.39129    6344.6917   -14.71475  0.62359  6603.99494  0.01368  58789.77525   52.3514   0.81713  18.76098  58848.25032 
    13.89512   1.7534  2.79102       3.59634         2947.35765   0.0265  0.02336     0.22453  30.62794        18.77   8310.53645   -12.79578  0.97211  6082.09849  0.00327  58791.69422  52.26222   2.19612  18.73777  58846.52065 
    14.11997   1.8519   2.7462       4.87531         3381.40778  0.05927  0.01325     0.22077  54.91074     18.23143   4533.68984   -10.01759  0.93156  3892.51306  0.00095  58794.47241   51.9167   5.41323  18.75866  58848.25032 
    13.85971   1.8358  3.07385       4.44621         3098.55728  0.00234  0.04363     0.04651  14.88597     18.46932   8708.13563   -15.15896  0.90142  5962.75185  0.00164  58789.33104  52.18658    0.1697  18.76662  58848.25032 
    13.76858  1.76079  2.91743       3.87875         3174.81182  0.00235  0.04049     0.01336  15.40962     16.89373   6517.17779   -16.14237  1.56204  4965.40674    4e-05  58788.34763  52.03058   0.17139  18.77245  58848.25032 
    13.79897  1.77319  2.68618       2.14547         3363.53842  0.00232  0.02305     0.06011   31.5901     18.06179   7064.37767   -15.76095  1.34189  5355.36948  0.00064  58788.72905  52.15403    0.1937   18.7649  58846.52065 
    13.98177  1.69795   2.7695       3.68412          3219.0818  0.00764  0.01731     0.34236  47.82781     19.21661   3527.21579   -14.82362  0.70122  5887.22325  0.00915  58789.66638  52.26646   0.68227   18.7521  58846.52065 
    13.82103  1.58678  2.56782       2.16191         3357.00397  0.00624  0.03486     0.01145  22.75266     16.05206   6827.03053   -15.82325  0.84165  6270.13122    1e-05  58788.66675  52.26554   0.49036  18.75015  58848.25032 
    14.04635  1.55985  2.33767       3.36955         3019.34007  0.06224  0.04571     0.09802   22.0558     17.69361    3258.2141   -15.40929  0.58732  5675.48783  0.00027  58789.08071   52.1765    4.8634  18.78045  58846.52065 
    13.98126  1.60668  2.62572       3.77714         3127.16766   0.1578  0.03386     0.49042  26.62624     16.75164   6955.51497   -11.59668  0.90662  5836.87565    3e-05  58792.89332  52.21574  12.76025  18.74985  58846.52065 
    13.96915  1.74562  2.44631        3.0105         3367.21315  0.14056  0.04217     0.02961  24.90364     17.89558   3143.15702   -10.51017  1.55664  5602.31556  0.00044  58793.97983  52.17488  11.22987  18.76282  58848.25032 
    13.98769  1.90322  2.85209       3.02916          2971.5116  0.02408  0.01886     0.12238  41.28094     17.82936   4829.27803   -13.72061   0.8356    5786.783  0.00038  58790.76939  52.24104   2.09997  18.74432  58848.25032 
    13.64379  1.67928  2.85981       4.34651         3134.14283  0.09262   0.0678     0.01237  12.00007     16.45733   6373.89969   -18.02807  1.44657  6674.10576    2e-05  58786.46193  52.26538   6.42197  18.77132  58848.25032 
    13.82657  1.50281  2.13811       2.31841         3518.82734  0.04758  0.01347     0.13036  49.55905     20.26244   3637.76537   -12.43848  1.05611  4635.33934  0.10167  58792.05152   52.0613   4.27503  18.80805  58846.52065 
    14.14642  1.99307  3.06855       4.58288         2796.28774  0.10085  0.04709      0.3566  19.23917     16.55131   5242.66552   -14.06304  0.62377   6530.1347    2e-05  58790.42696  52.28722   7.68075  18.77206  58848.25032 
    14.02943  1.49405  2.47374       4.42715         3242.60804  0.01386  0.02345       0.069  33.70811     16.07575   5733.30541   -14.03759  0.53271  5086.54193    1e-05  58790.45241  52.11416   1.16816  18.78473  58848.25032 
    13.95207   2.0061  2.73772       4.28264         2639.47725  0.04131  0.02332     0.02216   38.5369      18.6125   6612.04096   -12.26165   1.5223  6016.19703  0.00228  58792.22835  52.26983   3.56096  18.75938  58846.52065 
    13.70276  1.51917   2.6631       3.36069         3258.95481   0.0071  0.07465     0.02136  10.90172      16.4817   3479.34217   -18.70681  0.81936  7027.99036    2e-05  58785.78319  52.30147   0.48212  18.76317  58848.25032 
    13.69958  1.46325  2.33462       2.00633         3270.41581  0.00973  0.03719     0.03032  17.68782     17.69922   6804.34681   -13.45925    1.204  5879.02983  0.00028  58791.03075    52.189   0.72892   18.7734  58848.25032 
    14.04337  2.08936  2.95258       3.51354         2621.30905    0.134  0.02565     0.14875  32.34153     19.45023   7642.92585   -11.96746  1.11641   6404.5536  0.01567  58792.52254   52.3112  11.21268  18.75043  58846.52065 
    14.08335  1.88616  2.51863       1.88836         3162.99474  0.27064  0.03843     0.03727   16.1807     18.83744   3138.73445    -9.29901  0.96708  5338.88996  0.00382  58795.19099  52.09776  19.93528  18.76893  58846.52065 
    14.23809  1.81972  2.72758       4.77889          2873.2919  0.00452  0.02581     0.12365   32.6877      19.4128   5433.61018   -12.79211  0.41251  5923.78232  0.01437  58791.69789  52.24422   0.37894   18.7735  58846.52065 
    14.07311  1.96004   2.8635       4.53304         3094.50397  0.14692  0.02832     0.02589  36.96105     16.05607   5729.87719   -10.95623  1.55861  5743.74092    1e-05  58793.53377  52.22652  12.57706  18.78805  58848.25032 
     13.9642  1.63566  2.02399       1.74864         3779.75989  0.10958  0.04512      0.3046  17.75625     17.46074   5220.08935   -11.41425  1.09251  4524.33138  0.00016  58793.07575  51.96182   8.21914  18.75945  58848.25032 
    14.02835  1.96609  3.13547       4.71178         3289.96828  0.00105  0.01912     0.01905  33.23366     19.16001   8507.53229   -15.35977  0.78959  4309.28587  0.00803  58789.13023  51.96907   0.08841  18.75305  58846.52065 
    13.78085  1.72766  2.63879       3.79298         3360.11224   0.0044  0.03035     0.01823  21.53621     20.30814   9084.56541   -13.48492  1.49392   4917.0504  0.11295  58791.00508  52.04999   0.34221  18.75551  58846.52065 
    13.68484  1.36521  2.43354       4.74415          3278.8628  0.02339  0.01305     0.32129  52.84384     18.51638   7154.10639    -13.9864   1.5159  4579.73017  0.00182   58790.5036  52.05528    2.1236  18.75923  58846.52065 
    13.79999  1.62988  2.50666       2.05544          3371.4179  0.08037  0.03922     0.02318  16.27337     16.47865   7103.98996   -12.52256  1.37518   5349.6541    2e-05  58791.96744  52.09999   5.92636  18.77762  58846.52065 
    14.29276   2.0758  2.71646       4.93114         3218.43182  0.26378  0.07216     0.10961  12.64595     16.82563   8024.22032   -10.59567  0.71815  4365.06086    4e-05  58793.89433  51.90129  18.48986  18.78684  58846.52065 
    13.94712  1.76396  2.83756       4.91133         3082.08742   0.0058  0.02883     0.22063  31.00149     19.29197   6696.24596   -14.49992  0.82241  5807.88281  0.01088  58789.99008  52.22307   0.48206  18.77151  58848.25032 
    14.28628  2.15622   3.0253       3.21109         3556.61746  0.06644  0.02556     0.07427  21.29062     17.45405   4206.82677   -11.04549  0.63859  3359.18983  0.00016  58793.44451  51.71812   5.15735  18.77983  58848.25032 
    14.00595  1.65837   2.7758       4.23825         3145.20925  0.00598  0.02462     0.13746  31.46441     18.11565   5575.79626   -15.09123   0.5964  5746.25723  0.00073  58789.39877  52.21492   0.49829  18.77755  58846.52065 
    14.08284  1.69026  2.44803        1.8818         3510.37583  0.09772  0.04329     0.01015  13.97608     18.90288   4462.79891   -13.62341  0.57173  4519.99695  0.00444  58790.86659  51.94046   6.99079  18.77635  58846.52065 
    13.96068   2.0352  3.08051       2.60399         3553.32272  0.06617  0.02881     0.01013  21.29392     18.18157   8674.01114    -13.4263  1.26337   4534.5209  0.00084   58791.0637  51.97872   5.13701  18.76426  58846.52065 
    13.65787  1.51308  2.15297       0.86025         3010.99012   0.0133   0.0526     0.11743  13.00317     18.45315   9736.47796   -14.99866  1.56558  6874.92718  0.00158  58789.49134  52.29834    0.9377  18.77746  58848.25032 
    14.02407   1.9234  3.15326       4.57084         3292.84801  0.00227  0.04163     0.16204  19.00629     16.49474   7001.60015   -15.62424  0.74078  5332.84536    2e-05  58788.86576  52.11029   0.17263  18.78329  58848.25032 
     14.0733  1.77215   2.1625       1.06407         3754.63899  0.00169  0.01661     0.06484  31.79011     17.98012   4548.87363   -13.10414  0.63054  4525.64391  0.00053  58791.38586  52.00829     0.141  18.74808  58846.52065 
     14.0518  1.87841  2.79836       4.80246         3297.20204  0.20496  0.04711     0.02596  16.12605     19.23979   9480.40876   -11.23518  1.12298  4158.53002  0.00965  58793.25482  51.88045  15.08751  18.75821  58848.25032 
     14.1377  1.83675  2.96934       3.90241         3171.15136  0.00449  0.02004      0.0907  30.40356     19.23249    7255.5829   -13.40182  0.50474  5023.62551  0.00949  58791.08818  52.09559   0.37129  18.77206  58848.25032 
    14.35042  2.05162   3.0355       3.44522         3370.12509  0.11569  0.01851      0.0123  51.16313     18.21527   8437.62819    -9.90359  0.63035  5678.46902  0.00091  58794.58641  52.23982  10.44752  18.79981  58848.25032 
    13.99092  1.32008  2.25576       4.98726          3326.5016  0.00403  0.02672     0.11737  25.05742      19.7595   4029.75299    -13.8553  0.47887  4171.99235  0.03193   58790.6347  51.91932   0.32244   18.7604  58846.52065 
    14.01866   2.0117  3.08776       4.28264         2661.86086   0.0163  0.05832     0.01764  12.79833     16.76915   3100.45902    -15.2626  0.69129  6597.28829    3e-05   58789.2274  52.26112   1.14565  18.78747  58848.25032 
    14.09728  1.93185  2.55418         2.772         3421.58321  0.09781  0.01732     0.23494  51.49717     17.55943   5467.31436    -9.26654  1.47929  5224.08355   0.0002  58795.22346  52.16783   8.84221  18.75902  58846.52065 
