 texplosion  fnickel    Pspin  log(Bfield)      Mns  thetaPB   mejecta    kappa  kappagamma      vejecta  temperature    alpha  cutoff_wavelength  log(nhhost)      A_V         MJD0   kenergy  mnickel            TSD   log(L0)  Peak_mag     Peak_MJD  log(E_rad)  log(Peak_lum)  Rise_Time    E_fold  tau_1  delta_m15     r_peak     frac 
  -27.78642  0.00608  0.70251     14.64649  1.91024  0.81269  34.29827  0.04676     0.04649  15477.08016   5981.23753   0.3658         3555.58318     20.52045  0.18415  57570.54309  49.00918  0.20853     4458.77183  49.20742   18.4528  57605.73769    51.08787       44.52269    13.0876  31.78418   30.0    0.37858  -21.13567   0.9999 
  -13.69341  0.42031  1.77552      14.7069  1.76472  1.01433   5.60489  0.13385     0.01216  12990.93503   8784.95271  2.81661         3255.49118     16.34033    1e-05   57584.6361   5.64255  2.35581    19922.08999  47.71754  18.50414  57603.46232    50.88979       44.37516    13.0876   26.1752   23.5    0.47554  -21.34688  0.97903 
  -31.94422  0.13745   2.3218     14.30695  1.71756  1.29364   5.34477   0.2582     0.02716  14355.32039   6902.07104  0.66104         2255.41625     19.95606  0.05021  57566.38529   6.57025  0.73462   209161.20336  46.45163  18.55635  57605.73769    50.94684        44.3506    13.0876  33.65383   26.5    0.44547  -21.21474  0.97967 
  -24.29981  0.03229   3.8138      14.3907  1.73914  1.07187   5.48972  0.09546     0.18439   10099.6383   5514.57456  1.26145         4180.86801     18.11208  0.00072   57574.0297   3.34033  0.17725   388574.46239  45.75699  18.57412  57603.46232    50.99185       44.40216   14.95726  34.31499   30.5    0.42965  -21.31423  0.98669 
  -21.86729  0.11945  1.79833      14.4801  1.58417   1.1784   8.94129  0.09834     0.04432  12238.48281   4529.88963  1.04336         5174.65575     18.94903  0.00494  57576.46222   7.98882  1.06807    52137.66443  47.24176  18.47576  57605.73769    50.96595       44.35946    13.0876  29.91452   29.0    0.39304  -21.48301  0.98349 
  -30.08046  0.04859  1.18209     14.49221  1.65711  0.95356  10.04032  0.16112      0.1326  14706.48864   5111.74572  0.48281         2656.98904     17.59361  0.00022  57568.24905  12.95367  0.48782    22287.04815  47.99484  18.53189  57605.73769    50.98668       44.36224   14.95726  37.39315   32.0    0.34237  -20.94345  0.99762 
  -24.15267  0.34863  1.73315     15.13442  1.46569  0.19485   8.13841   0.1022     0.01931  12070.27566   3885.39784  0.86464         5346.37188     19.65347  0.02501  57574.17684   7.07296  2.83732     2201.31861  48.61453  18.45584  57605.73769    50.88423       44.32244   11.21794   26.0447   30.5     0.4028  -21.48795  0.95665 
  -19.25623   0.0759  4.15046     14.74023  1.77908  0.40389   4.59082  0.10784     0.01133  10659.21354   6112.22258  2.46231         3260.69201     18.60532  0.00224  57579.07328   3.11149  0.34846    94135.03397   46.3091  18.52242  57603.46232    50.97814       44.38632    13.0876  35.52349   25.0    0.54131  -21.34121  0.97047 
  -19.71756  0.21512   3.7538     14.44254  1.70381  1.10768    5.5491  0.09898     0.02095  10988.55463   3442.08862  1.54874         4208.47879     18.45752  0.00159  57578.61195   3.99697  1.19374   290474.93814  45.88822  18.40455  57605.73769    50.82486       44.31328   14.95726   26.0447   28.5    0.47454  -21.40069  0.91714 
  -28.27398  0.02002  0.73022     14.76016  1.86704  0.61164  25.78825  0.09459     0.05884  16210.08012   3455.85402  0.25574         3217.37866     18.19688  0.00087  57570.05553  40.42215  0.51618     2789.69207  49.36754  18.44468  57605.73769    50.98595        44.3654    13.0876  37.39315   32.5     0.3047  -20.89306  0.99972 
  -19.28594  0.00804  5.08087     14.58996  1.68466  0.40136   2.25843  0.15924     0.04703  13963.99291   6826.64543  1.27223         4111.54371     17.98289  0.00053  57579.04357   2.62695  0.01816   266856.75141   45.6572  18.45973  57608.01306    50.94323        44.3338    13.0876  35.52349   25.0    0.61461  -21.45631   0.9974 
  -19.92716  0.22784    1.226     14.81719  2.04049  0.77972   8.43818  0.17519      0.2685  17839.83079   4372.14668  1.12468           2769.352     16.25215    1e-05  57578.40234  16.01982  1.92258      6609.2611  48.58145  18.48077  57608.01306    50.95876       44.34006   14.95726  35.52349   28.0    0.42895   -21.7344  0.99594 
  -21.08713  0.03366  3.65499     14.42691  1.48281  0.66087   3.04297  0.18758     0.08698  13743.47014    5895.0046  1.24101         3751.47205     18.01749  0.00058  57577.24238   3.42861  0.10244   257542.66732  45.90331  18.49542   57604.8498    50.96576        44.3557   16.82692  35.52349   27.0    0.52173  -21.43852  0.99096 
  -37.08894  0.01163  0.74093     14.68715   1.5935  0.51155  38.39498  0.03595     0.12944  10064.45509   3579.51898  0.49994          5805.0901     17.09632    7e-05  57561.24057  23.19969  0.44666     3431.08388  49.19621  18.48011  57605.73769     50.8204       44.35464   14.95726  22.43589   37.0    0.28094  -20.49727  0.99952 
  -25.53902  0.23206  4.69544     14.14658  1.69785  0.90112   4.08777  0.11905     0.01991  13844.41089   4570.30635  1.70376         2794.97092     18.69633  0.00276  57572.79048   4.67372  0.94862  1769767.07003  44.90748  18.47991  57605.73769    50.81077        44.3393   16.34864  22.91417   28.0    0.51396  -21.42751  0.89602 
  -27.45877  0.09318  1.10075     14.89349  1.77954  0.43269  12.52517  0.11353     0.01621  15620.14244    8838.9195  0.30425         3181.11879     17.69831  0.00028  57570.87073  18.22976  1.16704     3269.84642  48.92125  18.41673   57604.8498    50.79958       44.31874   18.24745  22.88501   22.5     0.3956  -21.06691  0.99697 
  -31.45517  0.03224  4.33679     14.38135  1.94351  0.76547   3.35182  0.19876      0.0192  11316.41777   9301.98793  0.54345         4376.57637     16.41718    1e-05  57566.87433   2.56051  0.10806   586193.81253  45.51505  18.47174  57608.01306     50.9295       44.33328    13.0876  33.65383   23.0    0.50218  -21.28255  0.99099 
  -34.54115  0.26521  2.00591     14.32763   1.6293  1.36711   6.19662  0.18212     0.02706  12059.41183   4162.02127   0.2814         5791.58928     19.03837  0.00607  57563.78836   5.37569   1.6434   134639.16294  46.74705  18.43661  57608.01306    50.92211       44.35441    13.0876  31.78418   31.0    0.34938   -21.0488  0.96494 
  -23.49755  0.18698  0.79769     14.87273  1.69449  0.51528  17.35876  0.06308     0.01064  14419.01605   3762.43421   0.8725         3464.66893     20.12592  0.07424  57574.83196  21.52867  3.24576     1799.09338  49.43917  18.50393  57608.01306    50.82525       44.33122   11.21794  28.04486   28.5    0.37401  -21.64043  0.99794 
  -32.34412  0.13855  4.00249     14.35534  1.56804  0.48178   3.59423  0.23515     0.05257  14602.83573   4011.15489   0.2051         2144.87982     17.31087  0.00011  57565.98539   4.57201  0.49799   454103.11035  45.60239  18.45015  57608.01306    50.87139       44.35711   11.21794  28.04486   29.5    0.42462  -21.39062   0.9528 
  -26.98858  0.04795   1.2736     14.48536  1.54928  0.94264  10.44029  0.11556     0.33099  13562.15102   5352.98509  0.44702         4613.88383     16.04449    1e-05  57571.34093  11.45505  0.50065    24963.45696   47.8516   18.4952  57605.73769    50.93881       44.34237    13.0876  35.52349   29.0     0.3909  -21.14523   0.9967 
  -25.42895  0.36349  5.05861     14.41373  1.79557  0.68528   2.94108  0.13804      0.0614  12689.46939   3268.66967  0.80338         3718.56632      17.6062  0.00022  57572.90056   2.82502  1.06906   634776.47541  45.31236  18.46728  57605.73769    50.85831       44.33198   24.30555  24.30555   34.0    0.43444  -21.34343  0.87859 
  -27.48524  0.05391  2.30888     14.98722  1.94182  0.30042   7.02842  0.17463     0.06095  12667.87019   3833.85708  0.88589         4002.65993     18.31567  0.00115  57570.84427   6.72809  0.37887    10194.81931  47.82187  18.44153   57604.8419    50.94762       44.38186    13.0876  29.91452   32.0     0.3287  -21.25571  0.99163 
  -24.36116  0.02916  2.62945     14.66302  1.61009    0.509   7.06429  0.10912     0.03998  11469.41354   7357.87734  0.99222         4500.66459     17.66391  0.00026  57573.96835   5.54342  0.20603    48793.91358   46.9476  18.47749  57605.73769    50.99756       44.40501    13.0876  33.52333   28.5    0.40727  -21.38264  0.99189 
   -30.9858  0.04815  1.19318     14.34589  1.48853  1.11019  11.56515  0.14721      0.0118  12695.97236   6313.02524  0.61338         3768.13569     17.82125  0.00037  57567.34371  11.12014  0.55684    40014.16937  47.68597  18.49616  57605.73769     50.9048       44.34373    13.0876  33.65383   29.5     0.3504   -20.8997  0.99614 
  -27.02544  0.06234  0.78086     14.34452  1.58737  1.45366  14.17697  0.10561      0.4119  15342.79662   4911.80924  1.82576         2121.11895     20.66347  0.25597  57571.30407  19.90763  0.88374    18390.77244  48.41978  18.46985  57605.73769    50.97082       44.37866    13.0876  33.65383   31.0    0.32825  -21.37141  0.99869 
  -24.77059  0.06083  0.78679     14.68654  1.88813  0.82651  11.72159  0.15535     0.17579  16189.01129   3550.24449  0.54488         3238.92004     20.03488   0.0602  57573.55891  18.32544  0.71297     4596.98899  49.09069  18.39892  57608.01306    50.91919       44.31126    13.0876  29.91452   30.0    0.34472  -21.43892  0.99955 
  -20.73376  0.02961   0.7602     14.80057  1.78868  0.67685  15.30165  0.10446     0.10228  18178.53424   9953.97877   0.3231         5092.20595     18.84429  0.00388  57577.59575   30.1636  0.45302     2404.79122  49.37844   18.4906  57605.73769    50.82236       44.33644   20.56623  22.43589   21.5    0.43576  -21.41168  0.99979 
  -24.46531  0.04842  3.54339     14.11085  1.21119  0.71546   4.56904  0.10643     0.01329  10838.76043   9856.69998  1.08037         5379.32996     17.28169  0.00011   57573.8642   3.20193  0.22121   847545.82574  45.32506  18.50243   57604.8419    50.79662       44.34132   16.82692  22.43589   23.0    0.52649  -21.53906  0.97529 
  -32.04267   0.1783  0.82345     14.75898  1.80469  0.59224   10.2135  0.14794     0.01056    12888.291   5659.32947  0.59814         3046.81453     19.23928  0.00964  57566.28684  10.12028  1.82105      3447.6638  49.15645  18.54406  57605.73769    50.93836       44.33065   16.82692  35.52349   29.5    0.40129  -20.72126  0.99832 
  -25.87987  0.11174  0.87951     14.71348  1.89568   0.6489   9.09851  0.18647     0.02046  16282.86988   5884.82364  1.87534         2066.30175     20.54691  0.19572  57572.44964  14.38995  1.01664     5094.48291  48.95103  18.47967  57605.73769    50.95965       44.37296   14.95726  35.52349   26.0     0.3936  -21.41366  0.99876 
   -9.38414  0.01914  0.94238     14.99433  2.07643  0.64712  18.00409  0.04602      0.0494  12969.63358     7594.119  3.24303         3236.19646     18.58577  0.00214  57588.94537  18.06566  0.34462     1757.61046  49.39279  18.45821  57601.18695    50.99327       44.38255   14.95726  31.78418   25.5    0.48765  -21.16123  0.99983 
  -23.45522  0.07318  0.94853     14.63205  1.66576   0.8126  10.36975  0.15149     0.03557  15354.86667   7554.25767  0.58449         4608.76004     18.05527  0.00063  57574.87429  14.58437  0.75883     7575.79483  48.65693  18.44614  57603.46232    50.91275       44.37046   11.21794  28.70601   27.0    0.38647  -21.69716  0.99873 
  -16.26675  0.01906  3.13276     14.63898  1.75529  0.80183   4.51356  0.10694     0.05215  10282.91554   8151.05498  1.95721         3834.00559     18.51821  0.00183  57582.06276   2.84695  0.08603    84344.89503  46.59528  18.48091  57603.46232    50.87107       44.32915   20.56623   26.1752   25.0    0.53163  -21.28399  0.99581 
  -30.33289  0.02209  0.76848     14.61405  1.91505  0.98715   23.4303  0.08732     0.06281  15055.50572   4173.23544   0.3361         3248.24933     16.36774    1e-05  57567.99662  31.68077  0.51754     6211.10448  48.98659  18.45638  57605.73769    50.85955       44.35307    9.34829   26.1752   32.5    0.31707  -20.75608  0.99968 
  -20.57514  0.09504  4.03064     14.67159  1.91747  0.61704   5.52816  0.10575     0.03427  11836.63891   4900.77794  1.75856         3383.28859      19.2213  0.00925  57577.75436   4.62024  0.52537   131254.70232  46.22271    18.506  57608.01306    50.87056       44.34181    13.0876  29.91452   28.5    0.44768  -21.33254  0.96294 
   -26.3467  0.03349  4.90311     14.38774  1.71661  0.49839   1.40003  0.18642     0.11528  12210.65179   3922.07745  0.71665         4145.45967     17.81567  0.00036  57571.98281   1.24521  0.04688   642608.73291  45.31463  18.50868   57604.8498    50.94501       44.37525   24.30555  28.04486   37.0    0.41227  -21.33221  0.99389 
  -21.23668  0.05759  2.44192     14.57261  1.83721  0.99913   7.63255  0.10043      0.0315   10289.7064   6677.13896  1.53347         4128.67374        16.31    1e-05  57577.09283   4.82062  0.43957    72813.39386  46.89533  18.44004  57605.73769    50.90399       44.36597    13.0876  28.04486   30.0    0.36646   -21.3363  0.98845 
  -30.63227  0.05202  1.10257     14.52034  1.76309  1.02836  10.28811  0.15217     0.15082  13766.54691   4039.66095  1.32764         2185.22465      19.3351  0.01202  57567.69724  11.63089  0.53518    18122.61185  48.17209   18.4312  57603.46232    50.84197       44.31944   18.69657  24.30555   32.0    0.31487  -20.84095  0.99826 
  -23.73672   0.0071  3.06673      15.0646  2.09802  0.28161    6.9394  0.12274     0.05169   9766.49826   4468.68753  1.22565         5827.73682     18.18283  0.00085  57574.59279   3.94845  0.04928     13607.7429  47.48352  18.49964  57603.46232    50.98232         44.388    13.0876  33.65383   31.0    0.34638  -21.55258  0.99822 
  -23.51764  0.00638  0.70003     14.58031  1.56101  0.81136   7.84637  0.28451     0.05185  18619.57887   5269.96345  0.19788         5581.71215     19.23545  0.00955  57574.81186  16.22691  0.05003     4907.24082  49.08118  18.43835   57604.8419    50.84766       44.33045    13.0876   26.0447   25.5    0.41967  -21.70066  0.99997 
  -28.21753  0.07512  3.85099     13.80991  1.70368  1.12976     3.209  0.17452     0.01825  14689.73796   4427.74896  0.95019         2824.05298     17.10416    7e-05  57570.11198   4.13071  0.24105  5630298.84672  44.57856  18.51586  57603.46232    51.03325       44.46989    13.0876  27.16343   29.5    0.50099  -21.47456  0.98005 
  -26.61612  0.12612   1.5276     14.46196  1.65206  1.34911   7.08887  0.10248      0.0209     8988.418   4162.14027  1.03363         5603.84201     17.98157  0.00053  57571.71339   3.41642  0.89406    42652.90651  47.48891  18.40183  57605.73769    50.88596       44.37874   11.21794   26.1752   31.5     0.3419  -21.21851  0.99156 
  -16.30197   0.0222   5.1095     14.88479  1.78241  0.24892    4.0416  0.08665     0.03373  11676.03557   3365.81488  2.61611         3401.63363     16.70963    3e-05  57582.02754   3.28678  0.08974    73452.37693  46.23709  18.47016  57608.01306    50.92972       44.33202    13.0876  35.52349   28.5    0.53301  -21.40146  0.98822 
  -19.00757  0.04805  2.97865     14.67546  1.44227  0.45652   5.82757  0.08469     0.01757  10373.81922    8503.4649  1.40186         4764.23423     16.69627    3e-05  57579.32194   3.74104     0.28    52965.07169  46.75586   18.4392  57608.01306    50.86584       44.31169   22.43589   26.1752   24.0     0.5248  -21.41027  0.98331 
  -29.13285  0.17267  3.85222     14.60458  1.80547  0.43574   3.94051  0.16421     0.02829  11564.49737   4758.17556  1.03972         3445.45411      20.2388  0.09628  57569.19666   3.14364   0.6804   153700.82555  46.16734   18.4305  57608.01306    50.85631       44.36634   11.21794   26.1752   30.0    0.41232  -21.38672  0.95216 
  -29.22902  0.06978  3.63103     13.72347  1.69953  1.22641   3.68603  0.17616     0.01429  14519.47617    4387.2103  0.94065         2590.36264     16.48527    2e-05  57569.10049   4.63541   0.2572  7434583.16717  44.50786  18.41994  57608.01306    50.87429       44.31413   24.30555  28.04486   30.5    0.44849  -21.42587  0.98078 
  -30.81512  0.14611  1.17663     14.77243  1.73733  0.51503  10.91057  0.10859     0.04694  12617.63202   5032.89435  0.34876         4272.79405     18.94458  0.00489  57567.51439  10.36168  1.59409     6369.79433  48.56332  18.41633  57608.01306    50.77473       44.32913   14.95726  22.43589   36.0    0.32572  -20.91524  0.99377 
  -27.05955   0.0767  0.71414     14.96431  1.70699  0.40544   25.7394  0.05241     0.11195  16164.49207   3257.99447    0.468         2322.52365     18.73972  0.00305  57571.26996  40.11897  1.97409      952.80641   49.8145  18.46071  57603.46232    50.88896       44.36065    13.0876  28.04486   32.0    0.37554   -21.0111  0.99917 
  -23.87239  0.02047  1.18113      14.8345  1.61814  0.47795  17.17461     0.05     0.03229  11139.26063   7361.48537  0.92042         4774.03314     17.47876  0.00017  57574.45712  12.71238  0.35162     4491.84906  48.68084   18.4665  57605.73769    50.90004       44.35172   20.56623   26.1752   28.0    0.41632  -21.26418   0.9987 
  -24.08909   0.0089    3.593     14.51255  1.48724  0.49746   3.15911   0.1932     0.04605  13196.77947   7911.64977  0.78871         4149.92866     17.77048  0.00033  57574.24042   3.28192  0.02812   168270.69498   46.1043   18.4779  57605.73769    50.90893       44.32601   14.95726  33.65383   24.0    0.50336  -21.39318   0.9976 
  -26.31566  0.04226  0.82232     14.73571  1.68595  0.62196    20.152   0.0757     0.10005  13830.76018    4603.6751  0.61774         4724.53234     17.70932  0.00028  57572.01385  22.99522  0.85158     3575.31997  49.11229  18.44141  57608.01306     50.9663       44.36308    13.0876  33.65383   32.0    0.33089  -21.10467   0.9992 
  -30.40936  0.08062  1.10609     14.91442  2.03671  0.43157  10.77878  0.18283     0.01568  15185.69924   7117.59818  0.69588         2185.24937     19.40989  0.01428  57567.92015  14.82745  0.86902     3431.51083  48.95471  18.50832  57605.73769    50.88363       44.33667    13.0876  29.91452   27.5    0.40436   -20.9041  0.99796 
  -26.21343  0.25302  0.70275      14.7645  1.80913   0.7756   13.4223  0.12215     0.02101  16746.37108   4571.40976  0.30169         3505.63325     19.51395  0.01814  57572.11608  22.45409  3.39606     2454.10647  49.44282  18.51012  57605.73769    51.09763       44.47059   18.69657  35.52349   31.0    0.33302  -21.17824  0.99893 
  -20.57215  0.09656  1.28285     14.58737  1.74525  1.01968   8.59976  0.17283     0.01876  16034.61574   8609.95635  1.06366          3498.3702     17.66918  0.00026  57577.75735  13.18957  0.83037    17834.99299  48.04308    18.546  57598.91157    51.09121       44.51282   14.95726  31.78418   22.0    0.45306  -21.50138  0.99632 
  -25.99627  0.03046  1.69745     14.48684    1.692  1.05917   7.32379  0.14576     0.12529  12726.22811   6020.94004  0.82962         3798.78433     18.79487  0.00346  57572.33323   7.07558  0.22309    48097.56152  47.35553  18.47799  57603.46232    51.00851       44.39913   14.95726  35.39299   29.0    0.37035  -21.25947  0.99712 
   -24.1534  0.00714   0.8793      14.5447  1.58017  0.84636   7.13399  0.29121     0.05375  17351.26618   5358.82135  0.21625         5469.33222     19.04128  0.00611  57574.17611  12.81216  0.05097     9234.21423  48.61387  18.52228  57603.46232    50.99847       44.35794   16.82692   39.2628   26.5    0.35947  -21.53629  0.99991 
  -26.02746  0.34488  1.08486     14.77034  1.89986  0.80119  10.47456  0.12614     0.01801  16132.02327   5602.67666  0.28396         4013.58401     19.41887  0.01457  57572.30205  16.26074   3.6125     5978.62377  48.70022  18.48181  57605.73769    50.92269       44.36482    13.0876  31.65367   29.0    0.40697  -21.26947  0.99431 
