 log(Bfield)      Mns    Pspin  cutoff_power  cutoff_wavelength  fnickel    kappa  kappagamma   mejecta  log(nhhost)  temperature  texplosion  thetaPB      vejecta      A_V        MJD_0   log(KE)      M_Ni  Peak_mag     Peak_MJD 
    14.30889  1.39954  2.28557       0.09765          5542.4812  0.04348  0.05029     0.49141  17.94818     19.44621   4579.23167   -28.76509  0.99418  12622.25017  0.01552  57569.56442  52.85388   3.26757  18.49636   57601.8314 
    14.54045  1.81908  2.46947       0.53182         4256.62747  0.04316   0.1009     0.01662  10.30482      16.6813   6726.50646   -26.41123  0.87483   11054.1299    3e-05  57571.91828  52.68962   2.89774  18.36965  57609.82349 
    14.37184  1.51558  1.31963       0.40418          2062.8442  0.05782  0.22729     0.11705   6.35642     17.35734   4762.54618    -31.8886  1.03109  11622.62295  0.00013  57566.44091  52.68545    3.4776  18.46281  57604.49543 
    14.22748   1.4629  2.20487        0.9668         2292.46258  0.04014  0.14866      0.1371   6.41989     20.14534    4508.6446   -28.06605  1.41473  11680.80097  0.07764  57570.26346  52.69082   2.42001  18.52622  57604.49543 
    14.25014  1.69228   4.6905       0.01849         5048.89747  0.19065  0.04834     0.01068   8.37422     17.45594   6431.82318   -28.36598   0.5617  14340.39959  0.00016  57569.96353  52.89584  12.22725   18.5091  57604.49543 
    14.42743  1.83557  1.62769        1.2258         2270.15807  0.04012  0.16958     0.02515   6.84431     16.90171   3577.61317   -33.83193  1.30794   9419.16768    4e-05  57564.49757  52.51052   2.45577  18.49915  57607.15946 
    14.88299  1.71714  3.94212       0.58607          5543.3857  0.29914  0.15068     0.09241   3.41275     19.70835   5576.38763   -22.33341  0.30997  12130.44048  0.02838   57575.9961  52.65225  15.30174  18.50071  57604.49543 
    14.57188  1.89944  3.89798        0.5876         3252.77589  0.18286  0.07889     0.04355  10.23405     19.29505   5775.03014   -18.83571  0.98151  16459.91941  0.01096   57579.4938  53.03478  12.25826  18.48784  57607.15946 
    14.62161  1.79308  4.26151       1.86347         4408.77596  0.01384  0.06425     0.06626    3.9262     17.70339   6256.06867   -18.52285  0.69184   6115.55322  0.00028  57579.80666  52.07424     0.736  18.43318  57607.15946 
    14.43313  1.64067  3.35624       1.73043         2444.97924  0.16499  0.19335     0.09256   4.18025     16.33251   3861.62317   -21.59486  0.88232  14421.84471    1e-05  57576.73465  52.82675   8.92357  18.50472  57604.49543 
    15.04358  1.76762  1.94942       0.94359         2642.03655  0.00811  0.09507     0.28294  12.37824     16.98879   4282.35518   -30.20983  0.22323  10622.59117    5e-05  57568.11967  52.67185   0.56616  18.45908   57604.8498 
    14.76389  1.89481  2.71071        2.3472         2559.77003  0.04219  0.16321     0.10812   5.23554     16.46047   7103.14227   -19.12146  0.57032  12623.09282    2e-05  57579.20805  52.73643   2.41902  18.45916  57607.15946 
    14.87392  1.76054  2.11351       1.69776         2645.69628  0.04702  0.06205     0.07826  16.85211     17.37168    3291.5945    -16.9696  0.45176  15120.55308  0.00013  57581.35991  53.00544   3.49148  18.41997   57604.8498 
    14.86783  1.81634  1.31806       0.53859         5297.05043  0.00872  0.07522     0.07299  13.58424     17.81498   3987.80333   -34.13273  0.38451   8270.04589  0.00036  57564.19678   52.4627   0.62033  18.47337  57607.15946 
    14.09465   1.6971  4.71424       1.19315         2247.33926  0.45798  0.14931     0.02067   4.15234     18.24532   3608.65568   -27.55294  1.07833  13738.45831  0.00098  57570.77657  52.78381  24.72571  18.44114   57610.2659 
    14.65062  2.04697  2.43612       0.14624          2262.2884  0.01459   0.1443     0.18442   7.63689     16.85326   9975.40373    -32.6186  0.69957  10809.16814    4e-05  57565.71091  52.64118   0.91656  18.40768  57607.15946 
    14.32918  1.36595  2.89991       0.33775         3194.39894  0.05364  0.22901     0.11088   4.35019      17.2168    8889.6408   -22.27333  0.75169  15173.59754    9e-05  57576.05618  52.87549   2.93184  18.45954  57604.49543 
    14.90125  1.70763  1.65206       1.93246          2361.3395  0.00146  0.22412      0.1993   5.42708     17.87689   4384.11166    -24.4807  0.34174  11998.07818  0.00042  57573.84881  52.69624   0.08454  18.43057  57604.49543 
    14.69683  1.83203  2.01456        0.4388         2037.59337  0.11046   0.1062     0.06676   9.93689     18.87406   5851.77223   -22.65394  0.75485   14608.5965  0.00416  57575.67557  52.92837   7.35756  18.50244   57604.8498 
    14.42074  1.45637  3.98169       0.86806         2718.65291  0.04948  0.30569     0.06023   2.10191      16.8926   6013.71557    -26.1026  0.36137  13924.45876    4e-05  57572.22691  52.70805     2.184  18.52873  57607.15946 
    14.89565  1.87342  3.09793       0.06259         3955.10042  0.39058  0.08985     0.01226  12.39668     16.20412   5988.32808   -23.86188  0.46753  15972.33949    1e-05  57574.46763  53.02626  27.26498  18.46788  57607.15946 
    14.20849  1.68107  5.46122       0.90233         3749.74713   0.3282   0.0655     0.01891   4.54015     18.53157   3060.86687      -20.11  1.05265    13642.888  0.00189  57578.21951  52.78801  18.14287  18.46741   57604.8498 
    14.98494  1.73005  1.77745       0.01908         5769.54193  0.03926  0.09606      0.0802  13.23582      17.3199    5005.1506   -25.92197  0.28875  13584.18254  0.00012  57572.40754  52.89145   2.77759  18.41606  57607.15946 
    14.69092  1.70935  3.73005        0.4872         2419.12408  0.45071   0.1549     0.01444   6.50398     19.17257    5674.7342   -28.68593  0.39345  12895.28709  0.00827  57569.64357  52.77809  27.25864   18.4926   57604.8498 
    14.65245    1.683  0.82636       1.36116         2077.41228  0.11062  0.04433     0.43407  24.14836     20.51736   5375.67449   -17.09965  1.04875  18879.86938  0.18285  57581.22986  53.22772   8.78907  18.46214  57607.15946 
    14.22101  1.30735  3.21883       2.60648         3309.13441  0.00707   0.0658     0.39245   4.91236     20.17781   8884.78606    -13.9433  1.24115   9527.17606  0.08366  57584.38621  52.48499   0.39881  18.42978  57607.15946 
    14.68198  1.85128  1.77904       0.92933          2134.4844  0.01337  0.21286     0.47697   5.96194     20.45186   3752.26903   -24.16219   0.5702  14185.05191  0.15725  57574.16732  52.85176    0.7916  18.44198  57607.15946 
    14.65885  1.93818  5.89425       1.18184         5532.15741  0.04159  0.10467     0.03535   2.21559     17.34295   7188.77273   -18.34768   0.4342  10194.41031  0.00012  57579.98183  52.44464   1.86751  18.47233  57607.15946 
    14.42573  1.29869  1.38953       0.00098         5089.47419  0.05101  0.05796     0.03624  22.08565      16.1972   5976.74027   -26.85376  0.73348  13313.28706    1e-05  57571.47574  52.91718   3.98674  18.49067   57604.8498 
    14.67331  1.30121    3.385       0.58599         2141.78134  0.08684  0.08139     0.01938  10.48297     18.93547   6599.34156   -25.92771  0.23951  14869.68918  0.00479   57572.4018  52.94878   5.85148  18.51045  57604.49543 
    14.55547  1.66213  1.85769       1.99384         2377.86309  0.10176  0.12769      0.0769   7.80539     20.59763   5092.53049   -17.31977  0.77138  15508.30284  0.21997  57581.00973   52.9569   6.42247  18.51201  57607.15946 
    15.11327  1.91133   1.2439       3.13834         2704.43663  0.01082  0.04573     0.01642  21.72754     18.18037   6964.12769   -16.50991   0.3092  10623.23064  0.00084   57581.8196   52.7198   0.84326   18.4696  57604.49543 
    14.40991  1.44438  1.72192       0.24212         3099.43939  0.01602  0.13345     0.32596    9.6935     17.01665    5074.4601   -28.28258  0.79242  12489.33299    6e-05  57570.04693  52.78989   1.06114  18.53357   57604.8498 
    14.40709   1.4502  2.66454       3.81564         3141.85262  0.00779  0.10453     0.06743   3.03306     18.08369    8043.0673   -11.81445  1.35807   7562.43365  0.00067  57586.51506  52.22709   0.38505  18.47482  57604.49543 
     14.6111  1.85811  3.30753       1.38992         2423.64592  0.08453  0.03663     0.01328  22.64939     18.07739   4967.11227   -21.38249  0.88634  14934.42442  0.00066  57576.94702    53.019   6.63756  18.44958  57607.15946 
    14.33516  1.85654  3.69301       1.00703         2388.13812  0.04648   0.0834     0.01919  10.37197     16.93764   4076.21253   -29.12529  1.27135  12304.81067    5e-05  57569.20422  52.78333   3.12443   18.4112  57607.15946 
    14.66696  1.59374  1.88151       1.40272         2587.52892  0.00801  0.15566     0.05385    7.3363     18.45339   5572.59261   -24.57916  0.49803  11619.17001  0.00158  57573.75035  52.69991    0.4982  18.45441  57604.49543 
    14.51239  1.37558  3.19836       1.15361          2433.5655  0.24023  0.08102     0.01978    9.5273     16.46614   4450.36153   -22.21843  0.56593  14351.74317    2e-05  57576.11107  52.90898  15.85492  18.47539  57604.49543 
    14.58074  1.62646   4.5393       0.09221         4211.05962  0.07272  0.05031     0.01115  11.83681     16.86777   4751.17394   -25.85117  0.30118  15210.22616    4e-05  57572.47834  52.97962   5.02763  18.47222   57604.8498 
    14.45305  1.55694  2.91843         1.011         4997.97769  0.03967  0.03102     0.01923  15.92768     16.06299   3372.82146   -20.29071  1.05774   9363.44121    1e-05   57578.0388  52.58438    2.9128  18.42434  57607.15946 
    14.61035  1.96513  3.98787       0.33229          5207.5565  0.05181  0.18167     0.04549   4.89643     17.21958   5857.29557   -21.42086   0.6554  14022.05337    9e-05  57576.90865  52.82032   2.92063  18.48629  57607.15946 
    14.99788  1.64975  0.97973        0.0234         5736.19791  0.29071  0.09144     0.14327  11.15086     19.88588   6113.91996   -18.34643  0.45255  18620.09873  0.04272  57579.98308  53.14986  19.84808   18.4895  57604.49543 
    14.37445  1.39598  0.88145       0.44197         5328.69761   0.0612  0.06244     0.01142  15.67773     18.63852   3569.56293   -29.27717  1.23891   9701.10615  0.00242  57569.05234   52.6138   4.48035  18.38017  57607.15946 
    14.94108  2.01695  5.41466       2.16649         2793.49966  0.02518  0.21674      0.0383   1.94181     16.56019   4440.00628   -21.71766  0.19006  12402.93951    2e-05  57576.61185  52.59612   1.08286  18.50612   57604.8498 
    14.77384    1.585  4.86903        1.4078         5528.36866  0.01533  0.03714     0.02304   5.24442     16.24681   8302.17304   -16.81139  0.31872   8177.35777    1e-05  57581.51812  52.35951   0.87969  18.46334  57607.15946 
    14.72656  2.03601  5.19739       0.70943          4586.9315  0.08815  0.09411     0.12513   4.68882     19.82393    7055.6951   -17.33854  0.55942  14084.47362  0.03704  57580.99097  52.81933   4.91386  18.44005  57607.15946 
    14.93817  1.35239  2.98535       0.80754         2177.62758  0.11524  0.06187      0.0223  14.11915     16.60013   4503.02572   -24.91485  0.18282   15104.1243    2e-05  57573.41466  52.98927   8.26164  18.51639   57604.8498 
    14.62294  1.78755  5.19785        1.8864         4807.54171  0.06388   0.0243     0.01182   6.61274     18.25523   3464.21224   -14.47596  0.80099   6656.48944    0.001  57583.85355  52.20544   3.87859  18.46918  57607.15946 
    14.31033  1.76262  3.39322       0.08319         5981.44192  0.10365  0.07599     0.01114  12.98895     18.94116   5268.80368   -29.24012  1.30566  12892.90675  0.00485  57569.08939  52.84441   7.30524   18.4554   57604.8498 
    14.51857  1.63342  2.83253       0.36751         5467.99482  0.03234   0.0832     0.02746  11.72757     18.22025   4304.99072   -22.32948  0.72296  13246.11016  0.00092  57576.00003  52.85868   2.23174  18.42691   57604.8498 
    14.60316   1.5607  4.67778       0.77351         3516.83782  0.01275  0.22413     0.07371   1.28183     18.16391   7764.26125   -22.24737  0.23693  13550.31815  0.00081  57576.08213  52.60762   0.47164   18.4863   57604.8498 
    14.53977  1.80166  3.35276       0.49293         5704.87715  0.04912  0.10024     0.06455   8.16242     16.52537   3949.31721   -24.73239  0.71642  11194.84179    2e-05  57573.59712  52.67824   3.13192   18.4904  57607.15946 
    15.10263  1.93874  1.75798       1.86751         2463.16703  0.03893  0.13321      0.0304   8.98545     19.30867   7098.23501   -20.10542  0.28191  13094.03303  0.01131  57578.22409  52.82371   2.53641  18.43909  57607.15946 
    14.68765  1.48094  2.42653       0.08989         4715.19597  0.12447  0.04704     0.01342  20.23036     18.38858   5736.96323   -21.55787   0.5287  16273.29516  0.00136  57576.77164  53.08445   9.57056  18.53763  57599.16737 
    14.84013  1.54859  1.02525       2.34135         2190.50166  0.15564  0.04376      0.0224  21.18245     20.48623   3046.44826    -11.6651   0.6207  22667.95717   0.1702  57586.66441  53.37606   12.0706  18.52656   57601.8314 
    14.60611   1.6698  4.30937       0.52114         4497.43886  0.45876  0.26676     0.33788   1.97908     17.55225    3530.7049   -15.97333  0.67498  17479.15674   0.0002  57582.35618  52.89688  19.85172  18.49624   57604.8498 
    14.51254  1.52842  0.84846       0.03766          5584.3354  0.00509  0.22789     0.25464   6.99435     16.87263    3477.7439   -26.78979  0.85709  12804.52978    4e-05  57571.53972  52.77944   0.31319  18.51961  57604.49543 
    14.97367  2.13556  1.96942        0.1004         4756.77988  0.33924  0.08261     0.01137  12.09384      18.4866   4498.42751   -24.46983  0.57602  14269.82672   0.0017  57573.85968  52.92613  23.56034  18.48339   57604.8498 
     14.7072  1.91014  4.38753       2.12478         3637.34586  0.00723  0.06464     0.33191   5.76717     17.85411   6284.94117   -15.91585  0.58564   9007.12668   0.0004  57582.41366  52.45373   0.42491  18.45606   57604.8498 
     14.3511  1.55837  4.13441       1.73965         2031.04855  0.16691  0.13745     0.11011   4.19416     19.86233   6945.27622   -21.09464  0.78447  16168.21349  0.04046  57577.23487  52.92642   9.03545  18.45583  57607.15946 
    14.33021  1.74742  4.38925       0.85638         4652.45218  0.07845  0.21365     0.03654     2.571     17.50809   3093.54689   -23.81958  1.02592  10540.98943  0.00018  57574.50993  52.49401   3.69152  18.46869  57607.15946 
    14.24086  1.55417  4.86495       0.13946         2930.04737  0.36246   0.0647     0.01446  10.21644     18.00241   3378.41016   -27.80875  0.90919  15371.96682  0.00056  57570.52076  52.97522  24.28866  18.45966  57607.15946 
    14.31267  1.80819  5.05098       0.43277         3339.47711  0.33669  0.10115     0.01829   4.89869     17.18342   5785.00664   -29.16155  0.74268  12541.88613    8e-05  57569.16796  52.72348   18.9824  18.43822  57607.15946 
    14.40544  1.46065  0.98261       1.30825         2619.86199  0.06958  0.19271     0.06134    6.5843      17.0399   5496.38799   -22.07874  1.35958  12483.49794    6e-05  57576.25077  52.75118   4.22035  18.48851   57601.8314 
    14.56168  1.60671  2.13445       0.19616         5262.96007  0.38696  0.16834     0.07265   5.96731     17.87435   4170.32458   -18.98547  0.97765  16295.16997  0.00042  57579.34404  52.97231  22.92081  18.53945   57601.8314 
    14.92663  2.02571  2.07543       1.64844         2043.93363   0.0411  0.12441     0.02851  11.12373     17.40542   7373.81862   -29.06574  0.37241  11939.45681  0.00014  57569.26377  52.76364   2.80454  18.43868  57607.15946 
    13.80052  1.30808  3.52627       2.66881         2664.67822  0.02195  0.15146     0.02523   1.66281     20.02402   5883.86629   -20.53656  0.88878  12896.36281  0.05871  57577.79295  52.60673   0.89443  18.53072   57604.8498 
    15.02261  1.96972  3.14928       0.57781         5811.81436  0.02902  0.14815     0.14426   5.52263      18.7393   4431.04426   -25.58328  0.26384  10236.64041  0.00305  57572.74623  52.56022   1.68664  18.44839  57607.15946 
    14.05952  1.52375  4.15862       0.97228         2308.09267  0.12691  0.11472     0.02187   4.93639     17.33415   3041.97956   -30.25895  1.17183  11982.85937  0.00012  57568.07056  52.68472   7.16903  18.47086  57607.15946 
    14.65929  1.95195  1.80125       2.09971         2252.03057  0.33604  0.18225     0.05308   5.91783     16.86832   3831.48927   -19.90542  1.17669  14632.33251    4e-05  57578.42409  52.87794  19.86443  18.43337  57607.15946 
    14.53267  1.65642  2.79571       0.03562         4497.06142  0.03793  0.17982     0.05834   5.96493     18.98947   3734.48657   -32.83726  0.54169  11274.02414  0.00542  57565.49224  52.65231    2.2463  18.35332  57609.82349 
    14.33173  1.70801    2.113       0.73819         2776.43806  0.10701  0.21627     0.33567   4.59887     20.53269   4356.15866    -26.0473  1.33164  13165.07645  0.18941  57572.28221   52.7585    5.9354  18.43871   57604.8498 
    14.46554  1.75439  2.70857        1.0414         2240.85891  0.03125  0.10328     0.01649   9.37611     17.02436   7423.84477   -34.65285  0.73816   9945.88049    6e-05  57563.67665  52.58893    2.0553  18.42115  57607.15946 
    14.71705  1.77098  5.21183       0.19089         2764.45959  0.49922  0.10547     0.01541   6.40363     17.85414   5626.30626   -27.15195  0.26528   14902.9584   0.0004  57571.17756  52.90216  30.07988  18.45023   57604.8498 
    14.61508  1.91699   1.3525       0.12997         4532.73667  0.01205  0.06046     0.03961  18.36796     19.66736   5108.08247   -35.87267  0.76615   9761.76009  0.02583  57562.45683  52.63259   0.90971  18.51133  57599.16737 
    14.73381  1.73974  1.43591       2.25041         2619.16662  0.21343  0.06352     0.02704  11.69641      17.3174   7828.37039   -14.56102   1.0334  15440.44892  0.00012  57583.76849  52.99158  14.71973   18.4526  57607.15946 
    14.50418   1.8198  1.31096       0.16745         4593.86271  0.01354  0.07092     0.01324  17.42355     19.19998   6030.64915   -33.97182  0.99991   9756.66243   0.0088  57564.35769  52.62772   1.01162   18.4458  57607.15946 
    14.49768  1.34035  0.88197       1.13975         2483.93554  0.00842  0.09975     0.04657  13.43302     17.36763   5313.24662   -23.89612  0.73001  12108.70855  0.00013  57574.43338  52.79289   0.59739  18.44571   57604.8498 
    14.81348  1.72146   2.8715       0.10602         5205.76678  0.04358   0.0661     0.01504  17.96527     16.46257   6044.19573   -27.57517  0.32618  13040.20789    2e-05  57570.75434  52.88226   3.27578  18.50983   57604.8498 
    13.75932   1.4804  3.54126       2.37134         2142.41389  0.01428  0.18473     0.01302   3.49057     18.37864   6772.32268   -28.03987  1.37806  12782.79684  0.00133  57570.28964   52.7005   0.73514  18.48838  57607.15946 
    14.50582  1.61087  4.48913       0.87255         2997.99887   0.1443  0.08484     0.02307   7.79712      18.7872   4405.26698   -22.51228  0.47201   15239.4283   0.0034  57575.81723   52.9416   9.10524  18.43576  57607.15946 
    15.15439  1.71981  1.34298       0.11258         3607.23808  0.03704  0.05662     0.05255  21.44038     17.92633   4989.43796   -23.72957  0.21655  13556.02962  0.00047  57574.59994  52.93048   2.87889  18.42705  57607.15946 
    14.69949  1.69525  3.49309       0.26694         3644.41709  0.24537    0.089     0.02716   9.91204      18.5921   5731.48378   -22.87123  0.50934  14784.41803  0.00217  57575.45828  52.93853  16.33496  18.45301  57607.15946 
    14.86744  1.69249  3.89921       2.41828         2894.70617  0.10124  0.09712     0.20581   5.11339     16.78094   3329.22017   -16.14449  0.33367  12637.01328    3e-05  57582.18502  52.73479   5.77044  18.38549   57604.8498 
     14.5659  1.79244  3.70102       1.00182         3254.25176  0.22752  0.09706     0.42426   6.53867     16.29307   3982.93425   -14.86279  1.18047  16598.29731    1e-05  57583.46672  52.99791  13.77771  18.49634   57604.8498 
