 texplosion  fnickel    Pspin  log(Bfield)      Mns  thetaPB   mejecta    kappa  kappagamma      vejecta  temperature    alpha  cutoff_wavelength  log(nhhost)      A_V         MJD0   kenergy   mnickel             TSD   log(L0)  Peak_mag     Peak_MJD  log(E_rad)  log(Peak_lum)  Rise_Time    E_fold  tau_1  delta_m15     r_peak     frac 
   -9.98987  0.09915   2.7671     13.64206  1.51762   1.3355    5.3221  0.14425     0.02888   9954.64921   4541.46075  0.25326         4559.47904     20.02182  0.05842  54027.17013   3.14603   0.52771   5609226.01975  44.81706  19.39441  54090.88621    51.24746       44.49983   36.21756  42.25382   49.0    0.18636  -21.77625  0.97362 
   -9.03808  0.37801  3.05054     14.11342  1.72354  0.32926   5.88172  0.05994     0.05594   8336.79849   3816.69159  0.54819         4127.82595     20.41413  0.14417  54028.12192   2.43854   2.22336    883368.52331  45.59037  19.52992  54085.34895    51.12297       44.36599   34.20547   44.2659   87.5    0.10405  -21.72357   0.8951 
   -8.56909  0.37976  3.91268     14.18079  1.89253  0.43217   3.22853   0.0995     0.06981    7660.9726    8126.8269  0.62732         4224.65579     18.23298  0.00095  54028.59091   1.13032   1.22606   1170094.93157  45.29272  19.52143  54082.58032    51.10289       44.42418    30.1813  36.21756   73.5    0.13519  -21.43561  0.91627 
   -7.74726  0.15673  3.22047     13.97108  1.47696  0.93614   6.57384  0.11051     0.05197   9176.58411   5255.70754  0.61198         3997.06993       16.692    3e-05  54029.41274   3.30224   1.03035   1625056.10978  45.21151  19.32749  54093.65484    51.33892       44.55962   36.21756  46.27799   53.5    0.20789  -21.49388  0.93217 
   -9.70311  0.03978  3.24189     13.74368  1.65094   1.4526   6.58159  0.08876     0.01757   8554.22969   5524.17849  0.51779         4155.86621     16.21939    1e-05  54027.45689   2.87289   0.26182   5245472.62846   44.7452   19.3615  54096.42347    51.30848       44.45836   40.24173  54.32634   51.5    0.19203  -21.57819  0.98404 
   -8.73259    0.136  3.95617      13.8468  1.82445  1.38962  11.16231  0.04151      0.0344   8041.73325   5485.21522  0.92389         3752.34225     16.18868    1e-05  54028.42741   4.30606   1.51808   5368962.92257  44.60554  19.61174  54079.81169    51.10853       44.36233   28.16921  46.27799   78.5     0.1544  -21.47551  0.89205 
   -8.64057  0.30255  3.38925      14.0282   1.6263  0.59212   4.70985  0.13261     0.01777   9105.92776   5984.99001  0.58403         3763.02653     17.57319  0.00021  54028.51943   2.32961   1.42498   1523434.49957  45.23701  19.62347  54077.04306    51.18363       44.44499   24.14504  40.24173   44.5    0.23636   -21.5447  0.91047 
   -9.35985  0.41824  4.10603     13.90835  2.08576  0.95241   4.24003  0.10367     0.03632   7887.67133   3913.41434  0.91877         3887.01547     18.32069  0.00116  54027.80015    1.5736   1.77335   4980029.14721  44.66403  19.51148  54085.34895    51.22049       44.44065    30.1813  42.25382   68.0    0.13464  -21.55098   0.8873 
   -9.18449  0.00644  3.97653      14.1141  1.79923   0.8206   3.80762  0.15477      0.0287  10003.26844    6377.1023  0.40808         3680.17974     19.55791  0.02007  54027.97551   2.27282   0.02452   1562137.79439   45.1312  19.69851  54074.27442     50.9637       44.35499   26.15712   30.1813   38.5    0.27891  -21.39609  0.99803 
   -8.41847  0.04212   3.5774     13.93042  1.78323  1.44718    4.3511  0.11681     0.07493   7086.72547   5740.23439   0.7791         4080.73262     18.01093  0.00057  54028.74153   1.30352   0.18326   2919541.85491   44.9476   19.5935  54079.81169    51.09117        44.4338   28.16921  34.20547   66.0    0.18086  -21.40996  0.98804 
    -4.9321  0.06688  0.75576     14.40531  1.67305  0.44547  46.62803  0.12928     0.01504  10343.68009   4019.09604  0.64071         3865.51401      19.6467  0.02463   54032.2279  29.75941   3.11864     13723.43259  48.59812  19.57487  54082.58032    51.15604       44.39654    30.1813  42.25382   63.0    0.06872  -21.91756  0.99157 
   -9.91736   0.0409  3.61133     13.82829  1.71042  1.04469   6.19505  0.09664     0.09491   9479.67544   4313.41974  0.73086          3558.9418     18.00879  0.00057  54027.24264   3.32092   0.25337   4567425.12421  44.72694  19.38358  54093.65484    51.22971       44.44306   36.21756  46.27799   70.0    0.15969  -21.54445  0.98174 
  -10.30648  0.17617  2.93691     14.08483  1.76083  0.59463   7.16502  0.17442     0.01754    8701.2591   3237.21125  0.59826         3791.51359     16.74552    3e-05  54026.85352     3.236   1.26229    954213.86899  45.59913  19.37433  54093.65484    51.28544       44.54214   34.20547  42.25382   48.0    0.17476   -21.7271  0.94581 
   -8.18243  0.07782  3.01385     13.82982  1.50985  1.40261  15.73884  0.04463     0.33163   7729.24189   3633.62062   0.7499         4054.34984     19.19136  0.00863  54028.97757   5.60885   1.22477   2788339.07434  45.04419  19.37246  54093.65484    51.34103       44.48676   36.21756  50.30216   67.0    0.16516  -21.54046  0.93152 
   -9.66317  0.00942  2.87005     13.45327  1.58064  1.46117   5.35029  0.07412     0.07761   10226.3991   3710.66244  0.43908         3665.97357     19.68929  0.02717  54027.49683   3.33772   0.05039  14993334.50083    44.376  19.31599  54096.42347    51.31399          44.47   38.22964  52.31425   77.5    0.09675  -21.67808  0.99721 
   -8.46252  0.09658  3.22758     13.92966  1.71505  0.93121  13.03976  0.05012     0.03646    7413.7961     4114.093  0.76705         3953.00208     18.68001  0.00266  54028.69748   4.27541   1.25932   2293612.90288  45.12485  19.56748  54082.58032    51.07647       44.38361    30.1813  38.22964   74.5    0.15136  -21.57776  0.93275 
  -10.59685  0.46076  3.19594     13.64543  1.58169  1.36593   4.32846   0.1937     0.02229  10905.33079   4160.87167   0.5602         3190.12559     17.01568    6e-05  54026.56315   3.07071    1.9944   7678377.28537   44.5735  19.63525  54079.81169    51.06575       44.39147   28.16921  36.21756   43.0    0.23821  -21.63828  0.88458 
  -10.21507  0.37591  2.93664     14.05247  1.74381  0.49396   5.85783  0.18663     0.01096   8551.03369    3017.7423  0.71717         3704.08586       16.136    1e-05  54026.94493   2.55506     2.202   1096664.98795  45.53457  19.31732  54096.42347    51.48096       44.64504   38.22964  50.30216   46.5    0.20085  -21.70871  0.90672 
  -11.33811  0.00368  2.51111     13.45389   1.6593  0.92485   5.73796  0.11165     0.01247   10744.8748   3721.91483  0.43079         3276.76829     19.54982   0.0197  54025.82189   3.95173   0.02111  12014281.88238  44.60934   19.5541  54085.34895    51.21514       44.39395    30.1813  50.30216   49.5    0.21056  -21.67877  0.99914 
   -8.17872  0.25647  3.11196     14.23744  1.89406  0.65347   5.73704  0.23378     0.06298  10201.22517   4628.75542  0.28435         5184.09143     17.13671    8e-05  54028.98128   3.56139   1.47135    570678.23701  45.80378  19.36411  54090.88621    51.39352       44.69086   32.19338  38.22964   47.5    0.16804    -21.738   0.9377 
   -9.06346  0.03997    3.437     14.04086  1.74236  0.53673   4.49258  0.11732     0.07794   10212.7549   6216.66934  0.24227         3846.24515     19.67253  0.02614  54028.09654   2.79517   0.17958   1583442.06067  45.23802  19.52007  54085.34895    51.18841       44.39728   32.19338  46.27799   64.5    0.16479  -21.60631  0.98852 
   -9.43673  0.28429  3.16649     13.88035  1.54295  0.62531   6.77304  0.07062     0.11221   7724.19373   3161.43635  0.70589         3977.11139     16.17463    1e-05  54027.72327   2.41056   1.92554   2492415.17252  45.05942  19.53428  54082.58032    51.09937       44.41309   32.19338  36.21756   93.5    0.12589  -21.56253  0.88686 
   -9.10644  0.04053  3.35406     13.86822  1.73277  1.51703   9.82561  0.07904     0.01813   8472.43274   5208.44724  0.69006         3959.90432     18.32824  0.00118  54028.05356   4.20729   0.39827   3320918.91794  44.93519  19.67907  54082.58032    51.11736       44.33059   27.74249  52.74097   52.5    0.17211  -21.58044  0.97637 
   -9.49037  0.01766  3.15812     13.76851  1.78406  0.98292   6.99824  0.09043     0.02224   8512.91037    6051.0364  0.59311          3855.8652     18.27915  0.00106  54027.66963   3.02532   0.12357   4798051.25732  44.84033  19.38222  54090.88621    51.26509       44.46873   34.20547  48.29008   60.5    0.14637   -21.6899  0.99348 
   -7.82033  0.01226  3.32891     14.10867  1.72966  0.92613   6.81085  0.14422     0.08123    9797.0861   4200.52714  0.51639          3821.8468     18.03639   0.0006  54029.33967   3.89962   0.08348   1079057.83735  45.42916  19.46279  54088.11758    51.33868       44.58514   32.19338   44.2659   47.0    0.20428  -21.50411  0.99508 
   -8.85801  0.02688  3.56147     13.99985  1.83227  1.02251   8.53781   0.0854     0.01063   8566.59599   5262.93454  0.68186          3758.0709     18.07136  0.00065  54028.30199   3.73758   0.22946   2159530.87501  45.09422  19.44313  54088.11758     51.3467        44.5094   34.20547  52.31425   42.5    0.22889  -21.50827  0.98577 
   -9.79343  0.00859  2.71029     13.79162   1.6487  0.98659  14.46143  0.04104      0.0762   6997.32802   3289.32237  0.68991         4073.58645     20.30471  0.11206  54027.36657    4.2238   0.12429    2935907.7951  45.15221  19.52442  54085.34895     51.2022         44.427    30.1813  42.25382   85.5    0.13149  -21.70161  0.99468 
   -9.45591  0.01539  2.98043     13.75944  1.64096   0.9516   9.48194  0.06283     0.02922   7575.52806   4935.16974  0.74104         4137.15361     19.33679  0.01206  54027.70409   3.24601   0.14591   4098161.28934   44.9228  19.36921  54093.65484    51.27871       44.48915   38.22964  46.27799   76.5    0.12742  -21.67135   0.9923 
  -10.00635  0.28421  3.24769     13.75267  1.63044   1.1668   5.98819  0.12653      0.0721   9505.51282   3031.50856  0.57433          3583.4696     16.00624    1e-05  54027.15365   3.22756   1.70188    4988019.5803  44.76007  19.49039  54085.34895    51.13786       44.41226   32.19338  40.24173   69.5    0.14141   -21.6765  0.90232 
   -9.65136  0.12126  3.31394     13.75048  1.66316  1.08746   5.39457  0.11998     0.07937   9833.49004    3572.3258  0.51898         3563.77355     16.39013    1e-05  54027.50864   3.11171   0.65417   5351488.04192  44.72062  19.54224  54082.58032    51.09292       44.42733    30.1813  34.20547   68.5    0.15151  -21.64308  0.95936 
   -9.45728  0.01245   2.1082     14.10449   1.5864   0.1424   5.13248  0.05735     0.03449   7796.93432    3011.8724  0.75777         3622.68968     20.54674  0.19565  54027.70272   1.86124   0.06388    404632.80639  46.21437  19.51537  54085.34895    51.14924        44.4172    30.1813  42.25382   85.5    0.05316  -21.93068  0.99803 
   -9.26333  0.01923  3.74918     14.16411   1.7655  0.51734   5.61398   0.1163     0.03067  10489.58095   5325.63641  0.35625         3661.70772     16.90107    4e-05  54027.89667   3.68481   0.10798   1082290.22842   45.3335  19.27604   54099.1921    51.34258        44.5067   42.25382  52.31425   45.5    0.22222  -21.52896  0.99202 
   -9.55498  0.18052  3.01653     14.04561  1.72647  0.30913  13.97451  0.01833     0.03336   6607.41308   3571.89838  0.65708         4555.03416     19.87392  0.04156  54027.60502   3.63937   2.52275   1182426.40918  45.47421  19.55688  54082.58032    51.06903       44.39203    30.1813  36.21756  118.0    0.06308  -21.61277   0.8819 
   -9.20152  0.02524  2.95219     13.85391  1.50062  0.52503   7.95682  0.04231     0.03083   7380.35647   3714.27781  0.70103         4412.57833     18.56996  0.00206  54027.95848   2.58536   0.20086   2379847.89845  45.12828   19.5099  54085.34895    51.22156       44.41794   32.19338  42.25382   84.0    0.11289  -21.54974  0.98791 
   -8.09017  0.14499  3.19414     13.80777  1.53672  1.35212   3.70174  0.11719     0.01056   6678.49126   5049.79629  1.02469         3953.58537     20.01996  0.05817  54029.06983    0.9849   0.53671   3528439.24042  44.89915  19.47854  54088.11758    51.25378       44.44327   32.19338  46.27799   43.5    0.25357  -21.42386  0.96575 
   -9.76365  0.03462  3.29509     13.72363  1.80775  0.96982   3.44284  0.10195     0.04257   8265.73867   5805.88401  0.52562         4026.39439     19.83728   0.0382  54027.39635   1.40316   0.11919   6507585.56881  44.67683  19.63208  54077.04306    51.04105       44.39305   29.75458   32.6201   67.5    0.11597  -21.56824  0.99315 
   -8.97482  0.00333   2.9607     13.86879  1.56828   0.9378   6.32443  0.08722     0.01319    6048.8683   4545.42809  0.99597         4164.24904     16.22688    1e-05  54028.18518   1.38037   0.02109    2335912.8338  45.15302   19.5379  54082.58032    51.11696       44.44476    30.1813  34.20547   57.0    0.15949  -21.50424  0.99884 
   -8.24315  0.00856  3.54322     13.84907  1.70076  0.87632   2.89246  0.09145     0.07208   7109.99743   3596.47699  0.70587         4305.49222     19.12915  0.00748  54028.91685   0.87224   0.02477   3973027.55489  44.80157    19.463  54088.11758    51.17862       44.43044   34.20547  42.25382   79.5    0.13669  -21.38536  0.99823 
   -8.72828  0.02826  3.02303      13.7838   1.5784  1.41191   7.31872  0.08813     0.02221   8656.71693   6535.04511  0.49547         4182.25478     19.95734  0.05036  54028.43172   3.27166   0.20686   3625151.91881  44.94685  19.51904  54085.34895    51.23635       44.44627    30.1813  46.27799   51.5    0.18688  -21.61436  0.98837 
   -9.31082  0.00653  3.49491     14.24434  2.10579  0.54962   8.94538  0.07638     0.02742   7222.69859   3928.16152  0.57757          4558.7088     18.82729  0.00373  54027.84918   2.78372   0.05842     775220.8266  45.61596   19.3104   54099.1921    51.47439       44.65196   38.22964  50.30216   64.5    0.14995  -21.60601  0.99714 
   -9.09125  0.20533  3.06952     13.90284  1.54979  0.99309  10.12845  0.06849     0.01638   7915.48874   4719.92117  0.55856         4446.83434     19.67933  0.02655  54028.06875   3.78552   2.07963   2120993.85132  45.15844  19.59025  54082.58032    51.22251        44.4185    30.1813   44.2659   56.5    0.16179  -21.57896  0.88914 
   -8.37383  0.13655  4.08388     14.07955  2.03121  1.22114   7.57992  0.08601     0.02067   8681.62094   6680.97831  0.60593         3989.73611     16.09217    1e-05  54028.78617   3.40795     1.035   2180779.21582  45.01584  19.72775  54074.27442    51.00437       44.37283   24.14504  34.20547   48.5     0.2037  -21.47517  0.93188 
   -7.83195  0.02697  3.30006     14.04824  1.84884  0.92166   7.28506  0.06014     0.01932     6407.655   5346.94919  0.76756          4289.7768     20.19164  0.08637  54029.32805   1.78426   0.19644   1497168.25983  45.32343  19.54835  54082.58032    51.06444       44.37309   34.20547  36.21756   61.0    0.18572  -21.46637  0.98969 
  -10.82543  0.00926  2.85403     13.68461  1.75332  1.25268   5.74606  0.16801     0.01954   8638.14094   6222.65617   0.5916         3809.33058     18.86829   0.0041  54026.33457   2.55763   0.05323   5667401.84055  44.84841  19.36786  54090.88621    51.31422        44.4778   34.20547  52.31425   51.5    0.16464  -21.78891  0.99765 
   -8.65913  0.05045  3.60038     13.71215  1.70215  1.53033   7.06028  0.04245     0.05949   7335.45676   5042.12395  0.84038         4145.68979     16.83395    4e-05  54028.50087   2.26623   0.35621   7712811.83232  44.49993  19.34263  54093.65484    51.33298       44.49659   38.22964  56.33842   91.0    0.13537  -21.42143  0.97419 
   -7.89592  0.02972   2.7943     14.07693  1.73753  0.70301   5.20727   0.2444     0.02315   9431.07141    9112.3701  0.58613         3667.23765     19.77146  0.03282  54029.26408   2.76286   0.15478    883966.68843  45.66979  19.42654  54090.88621    51.28703       44.44857   34.20547  52.31425   36.0    0.20736  -21.72867   0.9936 
   -8.89265  0.00145  3.75298     13.81996   1.8384  1.51139   3.53132  0.13264     0.01621   8894.10866   4265.39964  0.53501         4002.31444     16.53304    2e-05  54028.26735   1.66636   0.00512   5509270.53009  44.64344  19.68056  54074.27442    50.93305       44.37612   26.15712  26.15712   42.0     0.2802  -21.43688  0.99964 
   -8.72554  0.08484  3.87054     14.33175  2.02401  0.41595   3.92485   0.1316     0.03491   7778.04894   6460.58944  0.72798         4005.53774      19.8457  0.03894  54028.43446   1.41642   0.33298    611040.00918  45.61345  19.52915  54082.58032    51.13574       44.39645    30.1813   44.2659   57.0    0.17285  -21.51519  0.97898 
  -10.80172  0.01396  2.96468     13.86178  1.95893  1.40113   4.87677  0.29501     0.18813  10693.84953   3976.78306  0.51862         2303.32382     20.16865  0.08192  54026.35828   3.32681   0.06806   3021552.80004  45.13668    19.426  54090.88621    51.24799       44.44742   36.21756  48.29008   61.0    0.13809  -21.89343  0.99732 
   -8.16839  0.00382  2.85091     13.47967  1.40356  1.06854   3.02394  0.10781     0.01428  10385.48974   4001.48403  0.52137          3774.0761     18.01072  0.00057  54028.99161    1.9456   0.01155   11632411.1577  44.44044  19.32658  54093.65484    51.32788       44.51251   38.22964  50.30216   42.0    0.29348   -21.3668  0.99925 
   -7.68332  0.06132  3.29744     14.29071   1.7328  0.39581   4.13598  0.19816      0.0168   9705.28113   5110.11982  0.41704         4090.66004     17.24437   0.0001  54029.47668   2.32392   0.25364    458675.28536  45.80974  19.65498  54077.04306    50.96392       44.36384   27.74249  28.59593   37.5    0.28751   -21.5633  0.98535 
   -9.18804  0.06311  3.13777     13.78322  1.76827  0.79913   8.71591  0.05746     0.02625   8869.21537   6027.71961    0.511         3888.66047     19.75196  0.03138  54027.97196   4.08988   0.55003    4386924.5522  44.88099  19.50318  54082.58032     51.0859       44.43209    30.1813  34.20547   71.0    0.12317  -21.70089  0.97129 
    -9.1403  0.01941   3.0694     13.57317  1.42937  1.28445   3.69041  0.09234     0.04335    8063.0192   3582.26874  0.81622         3822.38491     18.57994  0.00211   54028.0197   1.43119   0.07162   8927513.99515  44.49915  19.50488  54085.34895    51.42717       44.73744   27.74249  36.64427   67.5    0.13009  -21.46036  0.99495 
   -9.91248  0.33671  4.16087      14.0821  2.14471  0.70011   3.67093   0.1129      0.1566   6924.06546   6148.63853  0.85746         4013.50909      18.1109  0.00072  54027.24752   1.04985   1.23606   2362384.14221   44.9885  19.55587  54082.58032    51.26203        44.4281   28.16921  50.30216   96.5    0.13094   -21.4668  0.92086 
   -8.56004  0.34412  3.49499     13.87306  1.37137  0.77176   2.63697  0.21107     0.12108  11293.97677    9007.1816  0.67739         3004.31154     16.80452    4e-05  54028.59996   2.00644   0.90744   2790842.36696  44.87337   19.5351  54085.34895    51.14586       44.40516   32.19338  42.25382   44.5    0.20893  -21.46219  0.92061 
   -7.81746  0.00393  3.18635      13.6322  1.32159   1.1103    2.6938  0.12308      0.0994  10818.48967   7163.81702  0.26566         4092.35706     18.30427  0.00112  54029.34254   1.88073   0.01058    6777804.2283  44.55227  19.62162  54079.81169    51.17833       44.38967   27.74249  44.69262   58.5    0.17329  -21.43477   0.9991 
   -9.56665  0.02767  3.24101     13.95692  1.81233  0.85626   6.81441  0.12919     0.05983    8687.2713   3051.99517  0.60279          3779.6985     17.81301  0.00036  54027.59335   3.06777   0.18854   2155609.93359  45.17215  19.35848  54096.42347    51.36398       44.52802   34.20547  52.31425   63.0    0.15182  -21.66571  0.99005 
   -7.87244   0.0853  3.68369     13.89634   1.7498  0.74565   4.60394  0.10908     0.02957  11214.15944   5871.99643   0.4916         3230.37358     17.39561  0.00014  54029.28756   3.45375   0.39274    3553842.0418  44.82857  19.56374  54082.58032    51.21307       44.48752   28.16921  42.25382   46.5    0.22764  -21.55948  0.97148 
