 texplosion  fnickel    Pspin  log(Bfield)      Mns  thetaPB  mejecta    kappa  kappagamma     vejecta  temperature    alpha  cutoff_wavelength  log(nhhost)      A_V         MJD0  kenergy  mnickel             TSD   log(L0)  Peak_mag     Peak_MJD  log(E_rad)  log(Peak_lum)  Rise_Time    E_fold  tau_1  delta_m15     r_peak     frac 
   -6.18894  0.00949  4.16525     13.47469  1.69093  1.30344   3.5352   0.3093     0.01442  6027.16525   5662.22893  0.00469         3408.22918     16.74727    3e-05  59134.29004  0.76607  0.03354  30608278.26046  43.77185  15.37179  59207.30214    50.67974       43.73145   58.81654  67.19386   64.0    0.12786  -20.39583  0.99601 
   -7.49492  0.00755  4.21467     13.48207  1.56472  1.32418  4.78377  0.24728     0.01207  5867.98557   5511.15838  0.23108          3318.6302     16.80632    4e-05  59132.98406   0.9826   0.0361  28031108.32706  43.76611  15.35217  59206.91486    50.66969        43.7196   60.00001  66.88057   65.0    0.11842  -20.37452  0.99519 
   -7.01946  0.01033  4.16988     13.48084  1.76818  1.18904  3.96906  0.25126     0.01053  5629.71778   5837.74663  0.21998         3727.86899     17.79673  0.00035  59133.45952  0.75039    0.041  31181811.84268  43.78222  15.42813  59208.36565    50.67819       43.71262   60.85272  68.30426   65.0    0.12704  -20.35946  0.99531 
   -6.19162  0.00179  4.44109     13.57963  1.81861  1.08572  4.45306  0.30735     0.01194  6203.58211   5873.93468  2.17953         2027.78058     16.88521    4e-05  59134.28736  1.02228  0.00797  23081886.55058  43.87033  15.36948  59207.30214    50.67392       43.72842   55.50262  65.97293   63.0    0.12289  -20.38815  0.99904 
    -6.1992   0.0851  4.54275     13.74629  1.67287  0.63361  5.23607  0.22352     0.01133  6059.37653   5720.23617  0.15403         4647.55327     16.18488    1e-05  59134.27979   1.1468  0.44559   10311686.2772  44.16434  15.43809  59208.36565    50.66282       43.70122   60.00001   68.8469   63.5    0.12765  -20.40494  0.94085 
   -7.39709  0.00707  3.82299     13.44967   1.4144  1.04379  4.62614  0.25582     0.01267  6027.11254    5606.0325  0.03818         2026.31675     17.83813  0.00038  59133.08189  1.00245  0.03269   24201654.8779  43.87077  15.40329  59208.36565    50.66749       43.71354   60.00001  67.55814   65.0    0.12342  -20.39094   0.9958 
    -6.6342  0.00194  4.22067     13.52306   1.5068  1.10857  5.64344  0.19614     0.01113   5927.0248   5742.71196  0.24243         2138.59156     17.62979  0.00024  59133.84478  1.18262  0.01092   22414152.5995  43.84562  15.38464  59208.36565    50.67897       43.72886   59.91583  66.61519   64.5    0.12013  -20.38068  0.99847 
   -6.74756  0.01462  4.66951     13.59882  1.86529  1.16065  4.32294  0.30094      0.0162  6613.67606   5830.15029  0.01972         5357.56245     17.24119   0.0001  59133.73142  1.12796  0.06319  23958603.91861  43.82159  15.39685  59209.31641    50.67709       43.72387   60.00001  67.55814   64.0    0.12997  -20.45282  0.99203 
   -7.25764   0.0135  4.13362      13.5809  1.61941  0.85252  4.48641  0.26693     0.01179  5916.78334   5586.96318  0.11749         3109.45805      16.3438    1e-05  59133.22134  0.93691  0.06059  17702660.54154   43.9975  15.36292   59206.3815    50.67385       43.72564   58.80897   65.9805   65.0    0.12206  -20.38911  0.99256 
   -7.98334  0.03842  4.26475     13.73894  1.57402  0.57995  5.05948   0.2306     0.01145  5810.50589   5674.87958  0.07798         2911.01509     17.67179  0.00026  59132.49564  1.01897   0.1944   8845681.41032  44.25934  15.37758  59208.36565    50.67694       43.72509   60.00001  66.94767   64.5    0.12197  -20.37561  0.97433 
   -6.83746  0.02363  4.05618     13.49099  1.58633  1.05132  5.08076  0.22837     0.01084  6127.31572   5521.05248  0.04757         2487.01374      17.3818  0.00013  59133.64152  1.13788  0.12008  25261867.26833  43.85054  15.39447  59208.36565    50.67794       43.72521   60.63755  67.24231   64.0    0.13039  -20.39224  0.98529 
   -7.21784  0.00437  3.60056     13.57339  1.33388  0.62696  4.86125  0.24894     0.01104  5946.42722   5830.97931  0.05385         3829.35015     17.48363  0.00017  59133.26114  1.02539  0.02124  11452333.04122  44.22233  15.38303  59208.36565    50.67172       43.71157   61.11435  68.04264   65.0    0.12299  -20.39078  0.99736 
   -7.08131  0.01072  4.57174     13.55478    1.694  1.29772   5.3828  0.19805     0.01153  5967.59578   5858.45834  0.01695          2654.3634     19.38758  0.01356  59133.39767   1.1435  0.05768  25546924.27877  43.77026  15.40034  59209.31641    50.66872       43.71202   60.85272  67.35465   65.5    0.12168  -20.38483  0.99206 
   -7.32927  0.23328  4.77185     13.62923  1.86878  0.95009  3.89257  0.32168     0.01417  6025.25002    5781.1487   0.1661         3036.34235     16.60665    2e-05  59133.14971  0.84297  0.90804  21790933.03245  43.84475  15.39123  59207.30214    50.67097       43.71464   59.67319  67.67442   65.0    0.11747  -20.38262  0.88977 
   -7.41348  0.00165  3.63427     13.73428  1.50211  0.41435  4.42313  0.26207     0.01013   5899.4491   5744.32108  0.05581         2170.99415     19.02663  0.00591   59133.0655  0.91829  0.00729   6263197.07986  44.52792  15.38749  59208.36565    50.67477       43.71033   60.85272  69.02132   64.5    0.12674  -20.36589  0.99919 
   -7.01284  0.00185  4.73881     13.77938  1.75952  0.69079  5.61844  0.20202     0.01089  5893.20199   5606.79765  0.30887         2169.84939     17.37177  0.00013  59133.46614  1.16398  0.01037  10134276.12606  44.15711  15.38233  59208.36565    50.67132       43.71364   61.11435  67.73256   64.5    0.12397  -20.38497  0.99856 
   -6.44175  0.06365  4.47954     13.53534  1.59793  1.32536  6.35621  0.20188     0.01034   6181.3825   5618.61769  2.09114         2132.42991     19.40634  0.01416  59134.03723  1.44876  0.40458   25301993.7031  43.76678  15.39932  59208.36565    50.67349       43.72338   59.88373  66.64729   63.0    0.12485  -20.40905  0.94494 
   -6.17205  0.01788  3.95286     13.55712  1.42918   0.8057  5.13948   0.2086     0.01127   5879.5446   5629.57747  0.22846         3284.71026     18.65626  0.00252  59134.30693  1.05982   0.0919  15939865.90714  44.02763  15.39026  59208.36565    50.68012       43.71607   60.00001  69.15698   65.0    0.12581   -20.4008  0.98781 
   -6.54934  0.00346  4.49054     13.80656  1.83563  0.56683   4.0299  0.27993     0.01317   6073.0082   5572.93504  0.07763         4193.74801     17.57906  0.00021  59133.92964   0.8866  0.01392   8376906.76644  44.30495  15.38703     59210.04    50.67315       43.71122   61.83141  68.14193   62.5    0.12718   -20.4283  0.99832 
   -7.33481  0.10852  5.38067     13.94131  2.08209  0.52915   5.8138  0.19267     0.01033  5986.45596   5579.62898  0.09556         2425.06573      17.2962  0.00011  59133.14417  1.24287   0.6309    7334514.0496   44.2603  15.36691  59208.36565    50.66567       43.70561   61.11435  68.04264   65.5    0.12157  -20.36503  0.91617 
   -6.86978  0.04811  4.09852     13.47116  1.63772  1.21751  4.30126  0.31008     0.01234   6175.5959   5707.58696  0.16175         2454.35389     17.70317  0.00028   59133.6092  0.97855  0.20691   29173704.2019  43.79284  15.37979  59209.31641    50.69339       43.74629   59.70529  66.30511   65.5     0.1269  -20.38364  0.97555 
   -7.80175  0.00305  3.93516     13.49218  1.43055  0.98851  5.17635  0.22223      0.0101  5623.24041   5781.97185  0.15585         2810.68515     17.87802  0.00042  59132.67723  0.97639  0.01581  21324256.52817  43.90555  15.39244  59207.30214    50.68055       43.73274   58.80897   65.9805   66.5    0.11665  -20.34398  0.99791 
   -8.48216  0.01128  4.39828     13.57976  1.75327  1.00615  4.60452  0.24759     0.01087  5661.66085   5724.91448  0.26299         3005.25834     16.01798    1e-05  59131.99682  0.88044  0.05192  21813136.82854  43.88741  15.39312  59208.36565    50.66856       43.71057   60.85272  67.35465   65.5    0.11893  -20.36699  0.99356 
   -6.97811  0.06259  4.74967     13.76667  1.82739  0.67792  4.59385  0.27585     0.01248  5984.53944   5660.81696  0.14818         3733.21991     16.30859    1e-05  59133.50087  0.98144  0.28754  11210634.68703  44.12772  15.41432  59209.32422    50.66386       43.69574   61.83141  69.06008   64.5    0.12175  -20.37309  0.96252 
   -7.07271  0.05272   4.6659     13.76335  1.77778  0.67404   3.8664  0.29831      0.0146  5986.46858   5834.38057  0.18849         2422.30861     18.66988   0.0026  59133.40627  0.82656  0.20382  10686966.78943    44.152  15.40081  59208.36565    50.66492       43.69972   61.83141  68.95349   64.0    0.12688  -20.38451  0.97324 
   -7.29339  0.00531  4.35807      13.5963  1.79326  0.95258  4.79015   0.2526     0.01014  5905.62947   5711.82582  0.00587         2732.22298      16.8219    4e-05  59133.18559  0.99657  0.02545  20297761.99484  43.93645  15.42652  59208.36565    50.66299        43.6975   60.85272  69.12062   63.5    0.12126  -20.37639  0.99699 
   -7.12476  0.02491  5.20764      13.7504  2.10332  0.90565  5.46748  0.19981     0.01015  5808.28306   5613.14407  0.08901         5460.56893     19.21614  0.00914  59133.35423   1.1003  0.13619  16718455.18136  43.93527  15.38199  59208.36565    50.66804       43.71244   60.75137  67.73256   65.0    0.12204  -20.39424  0.98231 
   -6.21736  0.18442  5.41714     13.82213  2.04906  0.76007  5.05185  0.23866     0.01172  6026.01295   5634.32607  0.11842         2896.65036     16.86768    4e-05  59134.26162   1.0943  0.93164  12666221.78136  44.01021  15.39858  59208.36565    50.66628       43.70764   60.85272  67.99419   64.5     0.1207  -20.39472  0.87873 
   -6.07463  0.01623  3.86967     13.42134  1.37768  1.20162  4.06398  0.26861     0.01518  6163.64008   5644.57237  0.05941         3101.54796     18.67829  0.00265  59134.40435  0.92099  0.06597  27518885.92794  43.79301  15.41016  59208.36565    50.66576       43.70683   60.00001  68.20736   64.0    0.12841  -20.39395  0.99108 
   -7.31984   0.0106  3.51416     13.38471  1.26156  1.02805  5.25032  0.22105     0.01089  6013.80748   5805.49037  0.24783         2099.24097     16.16473    1e-05  59133.15914  1.13269  0.05563  24600268.07984  43.88717  15.39413  59208.36565     50.6662       43.70573   60.85272  67.99419   63.5    0.12354  -20.39849  0.99289 
   -7.77239  0.05412  4.43725     13.65464  1.73779  0.77881  5.36761  0.22418     0.01023  6031.86125   5619.67852  0.13333         2279.12781     17.60984  0.00023   59132.7066  1.16496  0.29047  15586880.73898  44.02186  15.40712  59207.30214    50.67181       43.72427   59.01951   65.9805   64.0    0.12242  -20.37436  0.96377 
   -7.51214  0.01619  4.35966     13.72579   1.6208  0.66165  5.58842  0.22246     0.01038  5847.13566   5670.02741  0.00344         2381.92042     16.10207    1e-05  59132.96684  1.13973   0.0905   10112953.2799  44.19479  15.36974  59207.30214     50.6741       43.72638   55.50262  67.19386   64.0    0.11813  -20.38383  0.98806 
   -7.49351  0.00796  3.96154     13.44513  1.59135  1.28865  4.68543  0.26039     0.01015  5897.56614   5698.66135  0.11249         2693.31594      16.2809    1e-05  59132.98547  0.97212  0.03732    29857724.897  43.79983  15.36121  59209.31641    50.67648       43.72117   61.11435  67.73256   64.0    0.12699  -20.38217  0.99565 
   -7.53531   0.0022   3.9077     13.48394  1.49118  1.04581  4.52354   0.2576     0.01059   5649.2574   5537.29876  0.12554          2468.8101     18.19518  0.00087  59132.94367  0.86117  0.00993  22767023.76758  43.90123  15.38091  59208.36565    50.68325       43.73288   59.88373  66.33721   64.5    0.12215  -20.36899  0.99877 
   -7.77158  0.00811   4.1064     13.62557  1.59556   0.7399  4.54002  0.25798     0.01109   5793.4105   5597.38998   0.0362         3065.79227     18.67792  0.00265   59132.7074  0.90898   0.0368  14012014.70383  44.09834  15.37715  59208.36565    50.67648        43.7229   60.85272  66.70543   65.5    0.11815  -20.37077  0.99544 
   -7.21745  0.00143  3.61541     13.57157  1.35893  0.61523  4.43609   0.2615     0.01285  6220.15205   5755.13584  0.16653         2594.60936     18.31877  0.00116  59133.26153  1.02383  0.00634  11862777.81286  44.21154  15.41042  59209.32422    50.66507       43.70105   61.83141  68.57364   65.0    0.12912  -20.40001  0.99921 
   -7.51801  0.00453  4.10219     13.45474  1.61592  1.50709   5.4777  0.24726     0.01098  6314.37738    5803.6273  0.04709         2481.45902     17.10152    7e-05  59132.96097  1.30283  0.02482  31101210.56617  43.75846  15.38917  59208.36565    50.67309       43.71737   60.00001  67.55814   65.5    0.12111  -20.41247  0.99698 
   -7.48007  0.02215  3.90873     13.50874  1.57804  0.94501  3.84045  0.30403     0.01019  5454.15387   5672.33511  1.76293         2036.14451      17.4119  0.00014  59132.99891   0.6815  0.08507   21504124.2887  43.95037  15.37713  59208.36565    50.67991       43.72434   59.88373  67.67442   65.0    0.11406  -20.33599  0.99025 
   -6.88678  0.00583  4.93859     13.64702  1.89506   1.0592  5.04345   0.2231      0.0105  5615.99844   5675.64212  0.44774         4464.25841     16.30433    1e-05   59133.5922  0.94887  0.02938  21807667.53353  43.82065   15.3829  59208.36565     50.6691       43.71693   60.00001  66.94767   65.5    0.11891  -20.35815  0.99592 
    -7.4822  0.00502  4.06844     13.48389   1.5508  1.23598  4.71384  0.29429      0.0112   5911.0566   5955.05224  1.31496         2251.71884     16.63823    2e-05  59132.99678   0.9825  0.02365  25671600.43421  43.83109  15.39099  59209.31641    50.67791       43.72213   60.85272  67.35465   64.5    0.11907  -20.37499  0.99704 
   -7.51103  0.00513   5.0648     13.74766  2.06396  0.90507  5.84026   0.2131     0.01046  6194.46032   5681.19289  0.06172         2500.27109     16.67609    3e-05  59132.96795   1.3368  0.02994   15715493.3197  43.97809  15.41166  59208.36565    50.66645       43.70594   60.85272  67.99419   63.5    0.12496  -20.42537  0.99621 
   -5.94784  0.02121  3.43905     13.38682  1.29511  0.92149  4.33847  0.26336     0.01246  6085.51998   5689.90453  2.01884          2342.2111     19.46282  0.01613  59134.53114  0.95843  0.09203  23953413.02483  43.92891  15.36824  59208.36565    50.67832       43.72845   60.00001  66.53101   64.0    0.12803  -20.41521  0.98893 
      -7.68  0.00144  4.17238     13.57222  1.53528  0.87668  5.26669  0.20385     0.01182  5959.76236   5825.06784  0.02438         2554.89072     17.50539  0.00018  59132.79899  1.11589  0.00758  17795952.67214  43.96394  15.38563  59207.30214    50.68115       43.74012    58.1591  65.37068   65.5    0.12247  -20.38958  0.99898 
    -6.7297  0.10257  3.96193     13.56367  1.57039  0.74203   4.4415  0.26478     0.01105    5972.767   5797.47084   0.1562         3854.45867     16.62914    2e-05  59133.74928  0.94516  0.45555    17072251.866  44.03675  15.38343  59208.36565    50.67475       43.71521   61.61048  68.20736   66.0    0.12235  -20.38111  0.94688 
   -7.84855   0.0042  4.38051     13.70609  1.56234  0.66332  6.86317  0.17716     0.01059  6194.61375   5725.76922  0.60781         2283.78735     18.21306  0.00091  59132.63043  1.57101  0.02885  10776220.38636   44.1471  15.35446  59209.31641    50.66478       43.70049   63.22975  67.45119   65.0    0.12467  -20.38329  0.99588 
    -7.1461  0.02612  4.07054     13.61726  1.57986  0.73481  4.10641  0.29909     0.01273  5888.22178   5706.93203  1.99384         2038.81779     17.75594  0.00032  59133.33288  0.84929  0.10725  14165297.56836  44.09693   15.3982  59208.36565    50.67027       43.71462   60.85272  67.35465   65.0    0.11904   -20.3834  0.98683 
   -7.47364  0.00976  4.88124     13.85047  1.94487  0.58937  4.18206  0.24805     0.01242  5789.55659   5642.94706  0.13511          2494.0682     17.00647    6e-05  59133.00535  0.83619  0.04082   8566885.93907  44.24785  15.38393  59208.36565    50.67939       43.72167   60.85272  67.99419   64.5    0.12699  -20.36605  0.99471 
   -7.24952  0.00117  4.62767     13.60744  1.78393  1.04275   4.9342  0.20199     0.01059  5646.28689   5774.53716  0.44359         2145.40027     19.50435  0.01775  59133.22946  0.93836  0.00576  21628582.45589  43.85447  15.39572  59209.31641    50.66073       43.69555   61.83141  69.06008   65.5    0.11938  -20.34661  0.99923 
   -7.67286  0.03107  3.70001     13.57559  1.39737  0.64889  4.48999  0.26612     0.01045  5748.08851   5777.10591  0.53387          2149.3795     16.66041    3e-05  59132.80613  0.88495  0.13952  12541720.68804  44.17939  15.40367  59208.36565    50.66337        43.7049   61.11435  68.04264   65.5    0.12187   -20.3466  0.98297 
   -8.71072   0.0617  4.60019     13.62101  1.82759   1.0008  5.32184  0.27828     0.01042  6008.93198   5642.01628  0.32346          2344.3858     16.56906    2e-05  59131.76826  1.14626  0.32835  20569218.92483  43.89196  15.38159  59208.36565    50.68018        43.7234   60.00001  67.55814   64.5    0.11936   -20.3657  0.95983 
   -6.45932  0.00219   4.0191     13.66875  1.61641  0.62177  3.24882  0.33384     0.01581   6061.6929   5636.07621  0.08752         2195.51893     16.62308    2e-05  59134.01966   0.7121  0.00711  11145945.07405  44.22202  15.39894  59208.36565    50.66124       43.69851   61.11435  68.75969   64.5    0.12956  -20.41223  0.99916 
   -6.79495  0.07132  5.06329     13.66034  1.99576  1.17881  4.10475  0.26999     0.01391   5976.1604   5563.20051  3.43737           2008.157      17.8103  0.00036  59133.68403   0.8745  0.29276  22704454.85708  43.80398  15.39351     59210.04    50.67382       43.70062   61.62086  70.89147   64.0    0.12377  -20.40925   0.9622 
   -5.92911  0.21644   5.3069     13.73084  2.10008  0.88493   4.8212  0.21955     0.01096  5972.88429   5872.48437  1.08271          2148.7612      16.5946    2e-05  59134.54987  1.02601  1.04351  18969299.79805  43.86335  15.34783  59208.36565    50.69009       43.73977   60.00001  66.53101   64.0    0.12581  -20.38129  0.87076 
   -7.14886  0.00491  4.54863     13.88772   1.8438  0.46218  3.47311   0.3223     0.01415  5814.62948   5799.96911  0.51181         2178.41452     16.19871    1e-05  59133.33012  0.70047  0.01706   5940900.59628  44.44495  15.38331  59208.36565    50.66619       43.70282   61.11435  68.85899   66.0    0.12539   -20.3642  0.99789 
   -7.56853  0.00321  4.84408     13.62112  2.05098  1.23274  4.88031  0.27085     0.01103  6117.50668   5745.56716  0.11017         2886.16176      18.7217  0.00293  59132.91046  1.08949  0.01568  25583595.31868  43.80242  15.36503  59208.36565    50.71961       43.76801   59.02708  67.19386   65.5    0.12124  -20.38533  0.99812 
   -7.55851  0.29875  5.33117     14.02363  1.76876  0.39396  5.45476   0.2228      0.0112  5771.57725   5869.25376  0.14097         3828.21683     16.80349    4e-05  59132.92047  1.08391  1.62959   4186760.88811  44.44099  15.39562  59209.31641    50.66737        43.6964   61.83141  69.06008   66.0    0.11486  -20.36342  0.77465 
   -7.75858  0.00165   3.8539     13.50683  1.40862  0.87887  5.33615  0.20737     0.01027   5812.6237   5914.60885  0.14501         2413.63275     16.46461    2e-05   59132.7204  1.07547  0.00883  18825901.75562  43.97108  15.40455  59209.31641    50.66421       43.70267   61.11435  68.04264   65.5    0.12137  -20.36864  0.99885 
   -6.89797  0.00131  5.19061     13.74185  1.99661  0.94436  3.33751  0.31546     0.01765  5792.56452   5717.55819  3.29542         2037.46132     16.14463    1e-05  59133.58102  0.66802  0.00438  16399931.88817  43.92386  15.41496  59208.36565     50.6634       43.69918   60.00001  69.15698   65.5     0.1196  -20.37264  0.99939 
    -7.3078  0.00544  3.78544     13.61167  1.27053  0.59412  3.82663  0.26562      0.0156  5650.15162   5838.07573  0.33815         4233.52951     17.48284  0.00017  59133.17118  0.72873   0.0208  10108602.28703  44.21191  15.40123  59208.36565    50.66569       43.70617   60.85272  67.99419   66.0    0.12014  -20.36225  0.99695 
