 log(Bfield)      Mns    Pspin  cutoff_power  cutoff_wavelength  fnickel    kappa  kappagamma   mejecta  log(nhhost)  temperature  texplosion  thetaPB     vejecta      A_V        MJD_0   log(KE)      M_Ni  Peak_mag     Peak_MJD 
    13.80051  1.98311   1.9525       4.88094         2754.98723  0.00811  0.03427      0.0766  49.43796     17.98971   4017.04206   -11.55891  1.49776  3317.54632  0.00054  59155.78576   51.7706   0.72838  18.01861  59240.71127 
    13.64813  1.50656  0.89417       0.08424          3756.3166  0.00416  0.01942     0.05076   86.4484     18.53809   3539.20207   -19.40331  1.25916  3429.57343  0.00192  59147.94136  51.83686    0.4076  18.03841  59246.28356 
    13.53794  1.26756  1.33805       2.43698         3516.69175  0.00414  0.03969      0.0326  41.57141     19.14276   4622.62911   -10.93966  1.40767  2865.63543  0.00772  59156.40501  51.63111   0.36118    18.071  59248.28159 
    13.89174  1.73699  1.51015       3.82168         3169.67789  0.00566   0.0322     0.02634  64.01328     18.58844   3612.69865    -9.49387  0.84662  2929.60404  0.00215   59157.8508  51.68028   0.52966  18.03864  59248.19241 
    13.82043   2.0365  1.62335       3.11131         2311.27871  0.01872  0.06911     0.02106  30.06722     18.12069   3579.43254   -13.55871  1.55068  3654.52711  0.00073  59153.78597  51.81838   1.54664  18.06761  59244.28134 
    13.64156  1.39901  1.11924       4.62789         3001.47148   0.0173  0.05616     0.08015  46.75225      17.5841   4121.22901   -10.22058  1.37852  2987.14011  0.00021  59157.12409  51.67555   1.53962  18.05815  59246.28356 
    13.97375  1.99126  1.68853       3.68258         2961.81335  0.00891  0.04652     0.06724  41.02944     17.60935   3176.96655    -9.55198  0.84438  3005.68835  0.00023   59157.7927  51.67161   0.77655     18.04  59244.28134 
    14.14364  2.04353  1.29016       2.22356         3043.39114    0.033  0.03418     0.06385  66.08992     16.71906   4111.78753    -7.73213  0.60465  3010.06275    3e-05  59159.61254  51.70595   3.10232  18.03111  59244.28134 
     14.1062  1.59707   0.7974       0.98666         3809.74194  0.00513  0.02486      0.0202  83.55805     20.65425   4075.03185   -15.34579  0.37242  3191.54318   0.2506  59151.99889   51.7722   0.50014  18.04018  59248.28159 
    13.74485  1.67862  1.31662       4.80304         2829.63719  0.00389  0.05254     0.01332  44.23488     17.18464   3566.16786   -11.81933  1.49889  2953.23812    8e-05  59155.52535  51.66171   0.34319  18.05396  59240.71127 
    14.22362  2.11643  1.18637        4.2081         3377.18342  0.01365  0.03497     0.01666  61.05614     19.77672   4164.35329    -3.73115  0.61844   2237.8719  0.03322  59163.61352  51.44315   1.26728    18.028  59244.28134 
    14.00346  2.13248  0.87426       0.47631         4171.53139  0.05325  0.02055     0.32749  73.15025     18.29911   3470.67648   -14.71182  1.10778  2930.91444  0.00111  59152.63285  51.68954   5.08419  18.02982  59240.71127 
    13.81945  1.88819  1.34243       4.85217         2484.20242  0.00541  0.01952     0.07463   95.5042     19.78597   3374.89381    -9.25263  1.29744  3021.56818  0.03394  59158.09205  51.73319   0.53731  18.04406  59248.28159 
    13.78777  1.68172  1.19066       1.12595         3988.17439  0.00789  0.01693     0.01664  91.49881      16.8453   4478.19049   -11.87962  1.24102  2774.57948    4e-05  59155.46505  51.65641   0.77889  18.02424  59244.28134 
    14.00234  1.79508  0.82542       0.42287          4283.5854  0.02793  0.02003      0.2364  73.80865     19.25056   3630.61962   -15.18806  0.69302  2930.59888  0.00989  59152.15662  51.69003   2.66986  18.07137  59250.18716 
    13.90721  1.85742  1.45555       3.34023         3332.47493  0.00834  0.04728      0.0403  47.03289     17.23043   4394.87019    -10.9663  0.95164  2690.83882    9e-05  59156.37837  51.58524    0.7431  18.06174  59245.37195 
    13.86896  2.02842  1.02875       0.27784         3801.50258  0.00154  0.02745     0.09108  65.71158     17.60159   3856.08033   -17.02644  1.23631  3244.47406  0.00022  59150.31823  51.77071   0.14449  18.03484  59244.28134 
    13.87933  1.78932  1.21102       2.59939         3067.74918  0.00336  0.02285     0.02276  89.09547     16.97989   3951.75384    -6.52529  1.02132   2922.8762    5e-05  59160.81938  51.69993   0.33038  18.04018  59246.28356 
    14.01777  2.17078  0.74414       0.55897         4213.66012  0.04922  0.01348     0.04269  95.58847     16.03812    4234.3833      -7.677   1.4143  2862.21217    1e-05  59159.66768  51.68619   4.88974   18.0393  59240.71127 
    13.71659  1.44185  0.91353        0.2525         3921.45284  0.00182  0.01939     0.14353  92.23745     18.65799   4228.18042   -22.02127  0.86491  3306.23532  0.00253  59145.32341  51.80919   0.17962  18.04265  59246.28356 
    13.65277  1.31206  1.06811       1.26455         2860.50434  0.00969  0.04112      0.0699  50.94927     16.02528   4017.88369   -13.51071  0.89853  3473.04096    1e-05  59153.83397  51.81248   0.87414  18.07408  59245.37195 
    14.03305  1.67956  0.83159       0.71783         4069.38079  0.00292  0.01766     0.05688  96.82819     18.10136   3628.94856   -17.60299  0.54313  2487.29885   0.0007  59149.74169  51.56505   0.29042  18.04078  59240.71127 
    13.97532  1.90644  1.11094       1.77285          3266.8046  0.02598  0.03883     0.04192  55.75254      18.9557   3227.44595   -11.06134  0.89129  2885.58605  0.00502  59156.28334  51.65776   2.37885  18.07897  59245.28215 
    13.81481  1.98296  1.58494       4.88663         2255.31269  0.00302  0.03898     0.01391  48.59062       17.631   3812.23927   -11.55887  1.42506  3493.54187  0.00024  59155.78581  51.81428   0.27046  18.04558  59245.37195 
    13.96259  1.82092   0.7355       0.06436         4460.89609  0.04426  0.01958     0.05099  73.18477     18.93769   4179.11617   -16.81859  0.81985  3457.09677  0.00481  59150.52608  51.83299   4.22648  18.06432  59244.28134 
    13.84011   1.8247  0.87286       0.49916         4405.39089  0.03974  0.01538     0.15537  88.46957     16.89138   3440.19461   -13.53364  1.54354  2878.51828    4e-05  59153.81103   51.6862   3.90406  18.08468  59246.28356 
    13.75399  1.77209  1.52207       0.83246         3681.01654  0.00274  0.02114     0.32495  71.16337     17.48021   3660.11731   -11.34053   1.3138  3577.37828  0.00017  59156.00415  51.86085   0.26031  18.05484  59245.37195 
    13.89404  1.80423  1.13494       0.85225         3405.88343   0.0686  0.01808     0.01165  80.14238      18.2917   3848.43397    -11.1709   1.1428  3279.36958  0.00109  59156.17378  51.79308   6.64034  18.06429  59244.28134 
    13.77454  1.67625  1.87537        4.1136          3404.8239  0.00102  0.02954     0.43464   52.5239     18.79386   3315.56515   -10.55179  1.09837  2805.03167  0.00346  59156.79289  51.62905   0.09291   18.0293  59245.37195 
    13.76014  1.75706  1.32992       3.59126         2488.34702  0.01086  0.05816     0.03253  41.43415     17.17338   3624.53387   -14.73406  1.25574  3348.98268    8e-05  59152.61061  51.76626   0.94775  18.04726  59248.18233 
    13.88791  1.84753  1.23559       1.38825         3579.28483  0.04919  0.01969     0.01154  81.04759     16.52981   4013.40151    -9.60432  1.37696  2916.47695    2e-05  59157.74036  51.69194   4.76915  18.04832  59245.37195 
     13.8424  1.98607  1.05202       2.29827         3108.38613  0.00942  0.03331     0.12161  71.30319     20.34572   4198.83252    -9.73085  1.53737  2925.91205  0.12315  59157.61382  51.68637   0.89621  18.08532  59245.37195 
    13.82788  2.00077  1.52492       3.35918         2297.08066  0.00583   0.0261     0.05468  53.91427     19.93147   3464.59167    -7.93831   1.4345  3307.32091  0.04745  59159.40637  51.77393   0.53103   18.0676  59240.71127 
    13.75471  1.50948  1.05721        2.4069         3345.00944  0.00719  0.03372     0.11811  65.06163     17.87513   3952.67783    -7.75344   1.1278  2782.62465  0.00042  59159.59124  51.63666   0.67419  18.03737  59240.71127 
    13.95075  1.88246  1.76825       4.84869         2510.21181   0.0128  0.02597     0.07725  63.54443       17.539    3192.1073    -8.87107  0.75161  3390.22258  0.00019   59158.4736  51.80663   1.19649  18.07109  59245.37195 
    13.82587  1.93162  1.43478       2.06003          2862.9089  0.00669   0.0409     0.06523  49.64906     16.67886   4116.89624   -12.90909  1.27636  3163.90008    3e-05  59154.43559  51.72971   0.60094    18.047  59246.28356 
    14.01081  2.16004  2.04643       3.11484         3490.58659  0.00799  0.05336     0.27259  36.28211      16.9054   4636.14005   -11.38813  0.87378  2942.87634    4e-05  59155.95655  51.64431   0.68221  18.07223  59244.28134 
    13.86404  1.45387  0.73783       1.43975         3561.22612  0.13407  0.04576     0.14296  49.34156      19.2275   3038.55442    -6.92576  1.00182   3217.3176  0.00938  59160.41891  51.74381  12.03727  18.03704  59246.28356 
     13.8343  1.55551  1.11771        1.2621         3829.00634  0.00727   0.0148     0.49045  95.95942     18.52915   3087.91013   -10.17065   0.8561  2606.83611  0.00188  59157.17402  51.60526   0.72236  18.04391  59240.71127 
    14.11331  2.10168  0.98107       0.51163         3458.39859  0.14543  0.04572     0.02641  42.27815     16.93532   4797.85081   -14.03757  0.76854  3566.25963    5e-05  59153.30711  51.82231  12.73244  18.05482  59244.28134 
    13.94186  1.93193  1.34827        3.1306         3077.10951  0.02581  0.04828     0.07212  53.72778     16.27277   3237.66358   -13.34626  0.92206  3017.45359    1e-05  59153.99842  51.69402   2.34934  18.06352  59246.28356 
    13.86891  1.53591  1.37172       4.66409         3099.50406  0.00129  0.04636     0.04494  52.01181     17.34088   3639.80793   -10.23876  0.71717  3104.37085  0.00012  59157.10592  51.71644   0.11685  18.03551  59248.18233 
    13.74793  1.63358  1.46389       4.39183         2799.26426  0.00323  0.03317     0.13019  58.16736     19.39259   3711.85095   -10.52842  1.17632  3162.69818  0.01372  59156.81626   51.7403   0.29768  18.05841  59251.31436 
    13.69879  1.60811  1.19595       0.97653         3313.40243  0.00535  0.05217     0.02008   42.1894     17.10507   3724.19211   -16.07201   1.2404  3333.23254    7e-05  59151.27267  51.76346   0.46795  18.05479  59244.28134 
    13.90967   2.1567  1.79289       4.89155         2422.96795  0.03466  0.03974     0.35621  45.10451     16.53038   4342.36158    -9.46338   1.2745  3374.22089    2e-05  59157.88129  51.77885   3.06673  18.06457  59250.03264 
    13.80829  1.85119  1.45952       3.83067         2634.21261  0.01484  0.04763     0.01467  39.06966      16.1102   3491.07906    -7.09608  1.54668  3112.15415    1e-05  59160.24859   51.6983   1.28199  18.06876  59248.28159 
    13.86296  1.87508  1.28996       2.02511         3590.83508  0.00901  0.02238     0.07854  70.57716     19.75532   3458.51762    -6.37599  1.27427  2448.78682  0.03163  59160.96869  51.53107   0.85551  18.05307  59254.20119 
    14.21356  2.13886  1.17123       0.40388         4109.85613  0.00123  0.01515     0.02085  86.85263     18.29927   4135.57376    -14.1749  0.47864   3023.3521  0.00111  59153.16977  51.72766   0.12062  18.05734  59244.28134 
    13.74342  1.64019  1.44829       2.06258         3593.28499  0.01343  0.02326     0.04755  75.04014     19.59404   3814.73561   -10.47261  1.43998  2984.34923  0.02182  59156.87207  51.70691   1.28697  18.06608  59240.71127 
    13.58037  1.23653  0.74813       0.24634         3181.14638  0.02513    0.024     0.01946   63.9467     19.04611   5805.63945   -17.08543  1.06971  3333.37118  0.00618  59150.25925  51.79236    2.3504  18.04158  59240.71127 
    13.86004  1.72236  1.28052       1.84495         3474.17723  0.00775    0.032     0.09598  58.11176     19.56636   3121.55638    -9.27341  0.97148  2900.25089  0.02047  59158.07127  51.66499   0.71461  18.06461  59251.31436 
    13.80458  1.67843  1.15069       1.10254         3472.04561  0.00313  0.03077     0.17331   63.2017     19.53571   3044.44533   -13.25834   0.9706  3065.11101  0.01907  59154.08634   51.7187   0.29234   18.0901  59218.41427 
    13.85304  1.92206  1.46114       2.54493         3116.05584  0.04501  0.04642     0.22247  44.86044     18.48185   3544.43761   -10.18132  1.43852  3105.38801  0.00168  59157.16336  51.70635   3.97964   18.0288  59245.37195 
     13.8962  1.82019   1.2122       1.72882         2902.32067  0.00129   0.0286      0.0741  62.95719     16.67029   3806.78583   -12.77109  0.91142  2959.96984    3e-05  59154.57358  51.68812   0.12009  18.04501  59244.28134 
    13.92898  1.60032  1.00433       1.80954         3171.83311  0.01079  0.02147     0.15253  92.77968     18.97232   4244.57045    -8.19372  0.71302  2911.97073  0.00521  59159.15095  51.69927   1.06707  18.04255  59248.28159 
    13.98364  1.56032   1.1164       3.11242         3282.63344  0.00411  0.04145     0.01459  52.00689     18.87615    3462.8942    -7.23153  0.59152  2587.82617  0.00418  59160.11315  51.55836    0.3725  18.05813  59244.28134 
    13.78274  1.66945  1.02235       0.55053         4191.61662  0.00459  0.02243     0.10318  66.72396     18.18133   4126.64764   -16.39083  1.01817  2911.75478  0.00084  59150.95384  51.67775   0.43236  18.05192  59244.28134 
    13.69981   1.6119  1.36489          1.95         3094.38272  0.01427  0.05384     0.04555  37.08745     16.24455   3774.94654   -11.00481  1.40302  3305.41805    1e-05  59156.33987  51.74683    1.2221  18.02566  59244.28134 
    13.58242  1.16217  0.83836       2.22992         3341.33359  0.01503  0.02854      0.0182  60.06438     16.51297   4035.13096    -7.31029  1.22179  2449.78822    2e-05  59160.03439  51.52063   1.39224   18.0419  59246.28356 
    13.97835  2.17364  1.61756       2.25301         3384.93981  0.02001  0.01932      0.0755  89.29443     17.36399   3111.01281    -9.13136  1.23333  2873.08792  0.00013  59158.21331  51.68515   1.96822  18.06326  59244.28134 
    13.80519  1.56702  1.07018       1.19463          3609.4952  0.00135  0.02129     0.03253  84.02978     16.12193   3316.34419   -11.10784  0.91154  2839.34489    1e-05  59156.23683    51.671   0.13113  18.06814  59250.18716 
    13.57912  1.32021  0.73399       0.46453         4403.79513  0.00101   0.0176     0.03649   82.6776     17.36687   4191.42697   -13.89327  1.51029  2849.76435  0.00013  59153.45141  51.67313   0.09861  18.05055  59244.28134 
     14.1673  1.74522  1.07088       4.20266         3403.14826  0.00279  0.03539       0.202  72.25002     16.13535   5015.39914    -7.84512   0.4737  2306.46757    1e-05  59159.49955  51.48061   0.26603  18.03622  59244.28134 
     13.9294  2.06638  1.81286       3.71966          3347.8114  0.01422   0.0224     0.01904  65.69642     17.28267    3663.7491    -7.68722  1.38913   2394.4869  0.00011  59159.65746  51.50683    1.3356  18.04292  59240.71127 
    13.74616  1.70778  1.03362       0.16701         3946.46171   0.0077  0.02801     0.01138  52.81112     18.55441   4087.93917   -18.36276  1.16156  3452.95549  0.00199  59148.98191  51.80994   0.69923  18.07953  59244.28134 
    13.90716  1.89828  1.22876       1.45417         3207.91273  0.00384  0.02496      0.0802   99.7738     17.60518   3299.28216   -12.91429  0.96488  3272.67811  0.00022  59154.43039  51.80529   0.38396  18.04691  59248.18233 
    13.92152  1.66255  1.37898       3.40063         3101.30709   0.0022  0.04384     0.06947  49.44608     16.38097   3421.27907   -11.01538  0.71381  2957.08422    1e-05   59156.3293   51.6707   0.19753   18.0535  59240.71127 
     13.8074  1.72711  1.19664       0.63829         2950.16588  0.06625  0.01328      0.0705  96.65843     18.51074   3782.52892    -7.61023  1.44582  3842.15773   0.0018  59159.73445  51.94264   6.59218  18.04396  59244.28134 
    13.99967  1.97876  1.03928       4.20798           3204.762  0.00182  0.02839     0.03093  94.32362     16.91307   5764.58111    -4.95189  0.98431  2508.46065    5e-05  59162.39279  51.57076   0.18089  18.05021  59240.71127 
    13.73279  1.62756  1.15388       1.15053         3092.19699  0.00968  0.02866     0.01598  53.20731     16.90615   3230.07645   -10.02674  1.27815  3101.94353    4e-05  59157.31794  51.71734   0.87935  18.04934  59250.03264 
    13.89947  1.99351  1.14865       1.13748         3753.81841  0.00212  0.03117      0.0103  63.13559     18.36411   3836.19955   -12.43766  1.25383  2768.50957  0.00128  59154.90702  51.63023   0.19831  18.03723  59250.03264 
     13.8903    1.874   1.0689       0.50351         3947.52895  0.02429  0.01969     0.07018  75.85043     16.94733   4510.98408   -14.46776  1.02638  3127.17307    5e-05  59152.87692  51.74821   2.33156  18.05112  59244.28134 
    13.74855  1.70177  0.86992       0.36732         4101.75853  0.01099  0.01663      0.0234  93.27403     19.55648   4219.31362   -12.49221  1.49157  3164.89603  0.02001  59154.85247  51.77195   1.08811   18.0642  59248.18233 
    13.79476  1.65157  1.21294       4.86861         2196.60002  0.00248  0.02701     0.01074  88.51589     18.82222   3565.24424   -11.02244   0.9203  3463.98243  0.00369  59156.32223  51.84705   0.24403  18.06594  59245.28215 
    13.90321   1.9161  1.67965       3.00096         3198.25602  0.00214  0.04178     0.07647  47.32567     19.14108   3385.59833   -11.20256  0.93681  3041.52807  0.00769  59156.14212  51.69208    0.1906  18.04229  59244.28134 
    13.94315  1.97016  1.59769        3.9261         2767.39682   0.0055  0.04878     0.22156  41.95999     17.84561   5497.80185   -10.25292  0.88953  3120.47613  0.00039  59157.09176  51.70578   0.48078  18.06077  59251.31436 
    14.03734  2.00406  1.42003       3.06747         2424.59499  0.00176  0.05021     0.01282  42.80804     16.36354   3254.30622   -12.75798  0.64174  3298.52979    1e-05   59154.5867  51.75542   0.15469  18.06554  59250.18716 
    13.90887  1.72661  0.83108       0.62177         4204.35369  0.00131  0.01449     0.07273  94.67195     18.23669   3961.82766    -14.7577  0.78831  2510.63624  0.00096  59152.58698  51.57174   0.13042  18.07917  59250.12941 
    13.91821  2.04232  1.73846       4.99055         3239.78223  0.02033  0.04785     0.09136  43.04935     16.45235   3856.84057    -8.77051  1.23119  2609.98943    2e-05  59158.57416  51.55245   1.78542  18.06627  59248.28159 
    13.82605  1.57037  1.67127       4.68359         2976.27146  0.00164  0.04183     0.27234  44.48803     18.18068   3361.81058   -12.90164   0.7348  3206.80455  0.00084  59154.44304  51.73367    0.1447  18.04072  59244.28134 
    13.82714  1.77948  1.48346       4.91627         3237.01818  0.01202  0.05135     0.10955  43.62176     16.70542   3532.73037    -8.83827  1.32101  2700.95559    3e-05   59158.5064  51.58316   1.05812  18.06238  59244.28134 
    14.04602  1.81142  1.08408       2.29562         3232.23701   0.1202  0.04216     0.02295  52.52999      18.0521   3820.01064    -5.73805  0.83149  3245.03409  0.00063  59161.60663  51.75562  10.90082  18.03396  59244.28134 
       13.65  1.47568  0.85957       0.32188         4022.32121  0.01917  0.02179     0.22679  65.09071      19.5069   3966.46394   -17.60325   1.3673  3157.67929  0.01785  59149.74142  51.74652   1.79825  18.00489  59244.28134 
    14.11195  2.14818  1.21991       2.00848         3476.93863  0.00141  0.01719     0.01077  97.54479     19.01263    3448.6571    -8.39295  0.75251  2266.35351  0.00572  59158.95173  51.48472   0.14057  18.05091  59240.71127 
     13.7292  1.63826  1.20678       1.33122         3761.22556  0.00912  0.02283     0.04618  74.39772     19.99656    4278.7369   -11.96863  1.32705  2807.48089  0.05512  59155.37605  51.65328   0.87276  18.03523  59240.71127 
    14.07655  2.16312  1.35331       0.73704         3749.91506  0.00612  0.02658     0.18397  56.09857      19.4958   3578.66076   -14.90197  0.71773  2987.78651   0.0174  59152.44271  51.68841    0.5612  18.06631  59248.28159 
