 texplosion  fnickel    Pspin  log(Bfield)      Mns  thetaPB   mejecta    kappa  kappagamma     vejecta  temperature    alpha  cutoff_wavelength  log(nhhost)      A_V         MJD0   kenergy  mnickel            TSD   log(L0)  Peak_mag     Peak_MJD  log(E_rad)  log(Peak_lum)  Rise_Time     E_fold  tau_1  delta_m15     r_peak     frac 
  -12.53078  0.02176  2.47355     14.17799  2.01521  1.21687  12.35231  0.32498     0.47324   7205.7203   8084.19453  2.86707         3611.99019     21.43366  1.50794    58599.645   3.82587  0.26876   504433.72362  46.08372  18.83208  58668.74656    51.09698       44.08782   48.89713   80.68027   70.5    0.06713  -21.33995  0.99313 
   -5.00227  0.06348  0.81961     13.94725  1.88535  1.15433  24.45537  0.07572      0.4928  4551.06834    8789.5731  4.48258         2260.64029     21.60233  2.22361  58607.17351   3.02154  1.55253   149940.63268   47.5411  18.65055  58685.22734    51.44074        44.4535   46.45228   80.68027   80.5    0.05006  -21.94583  0.99531 
  -10.68232  0.11643  1.19492     14.29881  1.79757  1.24199  16.68266  0.21963     0.48783  5522.99988    7738.4733  2.42917         2724.50988     21.26061  1.01237  58601.49346   3.03559  1.94231    60194.43013   47.5893  18.95345  58676.98695    50.91479        43.8573   52.98871    90.4597   74.0    0.04486  -20.85304  0.98844 
  -19.89453  0.00769   2.1798     14.05281  1.93366  0.77591  19.57116  0.18559     0.46697  6019.39907   8043.87681  2.25887         3830.15362     21.57911  2.10782  58592.28125   4.23009  0.15058   668957.23384  46.05299  18.83338  58682.48054    51.02224       43.95226   55.54419   95.34941   80.5    0.05561  -21.70738  0.99678 
  -21.80276  0.02111  6.53438     14.52557  2.10842  0.44713  10.82977  0.31986     0.44899   5537.5579   3750.62355  1.63297         4689.64483     20.65286   0.2498  58590.37302   1.98099  0.22864   743075.13227  45.09136  18.69963  58685.22734    51.36371       44.41015   35.08073   75.79056   77.0    0.06373  -20.22701  0.96189 
   -30.1361  0.09209   3.7546     14.23244  1.82498  1.20748  13.02105  0.19201     0.16269  3353.55341   7505.59748   0.7631         5637.26681     21.05936  0.63692  58582.03968   0.87354   1.1991   819049.82203  45.46767  18.86964  58682.48054     51.2274       44.21649   47.87015   80.68027   94.5    0.04801  -20.12055   0.9235 
  -11.59622  0.00368   1.3867     14.13409  1.85214   0.9227  12.25617  0.15668     0.04552  4176.74731   5768.26302  1.42105         3055.48753     21.40375  1.40761  58600.57956   1.27544  0.04515   178350.52384  47.00128  18.79511  58682.48054    51.17873       44.17833     37.949   81.84898   76.5    0.06429  -21.28398  0.99959 
  -15.60514  0.00159  2.01116     14.07641  1.73997  0.74213    7.9721   0.3232     0.04063  5010.80006   4994.80605  4.70195         2656.21574     21.47051  1.64147  58596.57064   1.19403  0.01268   459641.88855  46.24008  18.86223  58679.73375    50.85111       43.66106   80.68027  112.46341   81.5    0.05641  -21.39357  0.99973 
  -19.73904  0.00258  0.71847     13.91682  1.53097  1.29232  42.51177   0.0919     0.02821  5986.43337   4724.84146  0.04422         3157.92718     21.45406  1.58049  58592.43674   9.08809  0.10969   107639.42639  47.70902  18.87409  58674.24015    50.94883        43.8972    51.5417   87.45425   72.5    0.06021  -21.26253  0.99967 
  -26.36546  0.00271  1.22028     14.05527  1.77223  0.76296  38.02538  0.06915     0.49612  4872.92703   7960.73779  0.13378         3981.44502     21.46972  1.63851  58585.81032   5.38618  0.10298   189985.06107  47.06572  18.82458  58674.24015    50.95914       43.93245   45.34628   89.12084   73.5    0.05453  -21.26795  0.99922 
  -12.75516  0.00508  1.73405     14.10921  1.83994  1.10584  24.23029    0.078     0.45942  3816.12685   8491.53819  1.78379          3329.9587     21.39149  1.36841  58599.42062    2.1049  0.12305   310685.75614   46.5632  18.92833  58674.24015    51.21568       44.17937   41.56256   94.78882   74.5     0.0565   -21.1412  0.99823 
  -15.24642  0.03355  1.64779     13.85632  1.77645  1.46585    9.8682  0.21484     0.47206  6157.38921   8965.66208  0.95743         2478.44346     21.50364   1.7716  58596.92937   2.23182  0.33112   868040.58562  46.14605  18.78268  58671.49336    50.78216       43.76132   56.88305   76.89656   62.5    0.07303  -21.70615  0.99544 
  -12.40832  0.00177  1.36151     14.33828   2.0333  0.94025  19.21968  0.20043     0.47628  5073.67791   8069.82965  1.48472         3504.43481      21.3072  1.12701  58599.76746   2.95134  0.03403    73705.86177  47.44151  18.75323  58685.22734    51.27355        44.2413   41.56256   95.34941   74.0    0.05215  -20.99964  0.99975 
   -7.50076  0.00136  3.82879      14.2948  2.01289  1.23233  18.55994  0.13023     0.42938  3851.12774   8996.12814  4.03263          4132.8632      21.1265  0.74342  58604.67502   1.64202   0.0252   704952.52292  45.55838  18.80619  58682.48054    51.38821        44.3782   42.20186   88.01484   78.0    0.06234  -20.62194  0.99844 
   -4.77788   0.1879  2.31997     14.65673   1.8927  0.85196   13.9138  0.11429     0.10336  3879.86963   8970.68947  4.34516         2487.89194     20.99132  0.54456   58607.3979   1.24942  2.61437    45963.08308  47.15255  18.83796  58676.98695     50.9317       43.91005   41.56256   95.34941   76.5    0.05417  -20.16736   0.9454 
   -5.14217  0.00712  0.95585     14.07439  1.78029  1.03522  17.51051  0.20237     0.36376  6321.86608   8199.61341  3.80491         2585.30331     21.51081  1.80111  58607.03362   4.17462  0.12471   107229.22265  47.52825  18.94958  58682.48054    50.90359       43.82408   51.98129  100.23913   69.5    0.05852  -21.70338  0.99945 
   -7.16521  0.00558  1.36017     14.05508  1.38149  1.13009  30.16181  0.06126     0.35717   2976.2086   5638.23011  2.65745         3378.44313     21.24478  0.97613  58605.01057   1.59372  0.16823   184157.82933  46.87682  18.99999  58679.73375    51.06294       44.03635   39.11771   94.78882   84.0    0.04711  -20.71874  0.99775 
  -20.95075   0.0127  3.85252     13.89872  1.46361  1.04002   9.39716   0.2734     0.02529  5085.83168   7935.58596  1.88757          4264.7142     21.16512  0.81255  58591.22503   1.44993  0.11939  3215762.56658   44.7555  18.81532  58676.98695    50.93574       43.88412   40.65884  100.23913   76.0    0.06661  -20.72731  0.98776 
  -20.65291  0.02951  2.68601     13.97223  1.37146  0.58159  12.11752  0.16987     0.01098   4937.9807   8307.46976  2.25337         2164.05005     21.27042  1.03549  58591.52287   1.76254  0.35759  1044128.68736  45.52906  18.92156  58676.98695    50.83637       43.75863   60.01542    91.5657   63.0    0.06595  -20.96684  0.98063 
  -20.93973  0.05613  1.67869     14.30655  1.17502  0.71172  32.56416  0.11498     0.23385  4021.13974   3170.92254  1.21552         4797.33362     20.94635    0.491  58591.23605   3.14098  1.82771    74937.10037  47.01425  18.76395  58682.48054    51.36794       44.41385   38.21398   75.79056   91.5    0.04187  -19.87722   0.9556 
   -9.50673  0.02224   1.4295     14.30527  1.98023  0.58477  27.45204  0.13202     0.48612  5053.63698    9302.5563  3.50475         3727.29277     21.54966  1.96966  58602.66905   4.18225  0.61067    92122.14717  47.29083  18.78278  58679.73375     50.7952        43.8002   45.42529   83.12513   81.0    0.04635  -21.74822  0.99469 
   -21.9794  0.00385  1.35465     13.80474  1.29041  1.04593  33.01312  0.08978     0.33471  4524.65434    9287.6672  0.59105          3265.2351     21.38323  1.34265  58590.19639   4.03167  0.12724   540398.87998  46.38321  18.83333  58676.98695    50.90736       43.86037   44.00742  100.38245   69.0    0.04937  -21.06087  0.99809 
  -13.73902  0.00761  2.89258      13.8653  1.78049  1.34994   6.47114  0.29534     0.17466  7275.85457   9254.78025  2.90026         2246.58124     21.43281  1.50501  58598.43676    2.0435  0.04922  2572349.07387  45.18648  18.80157  58687.97414    51.14022        44.1082   40.16598   94.30114   56.5     0.0905  -21.48835  0.99788 
    -7.6783  0.00333  2.21692      14.4911  1.80585  0.39387  16.53464  0.10924      0.4906  3313.22103   4977.69604  4.42068         3223.64375     21.37177  1.30765  58604.49748   1.08274   0.0551    85863.43876  46.90022  19.03048  58682.48054    51.11256        44.0701   48.89713   88.01484   85.0    0.05789  -21.02208  0.99866 
   -8.47936  0.05921  2.31782     14.09279    1.082  0.56796  18.05389   0.1187     0.45217  3714.37458   8651.78275  4.25063         4301.80953     21.30343  1.11727  58603.69642   1.48583  1.06902   352070.91813  46.02628   18.7836  58676.98695    50.94914       43.89566   48.89713   95.34941   82.5    0.05873  -20.93719  0.94193 
   -7.31352  0.00199  0.90165     14.10092  1.53441  1.11891   18.4384  0.29007     0.46316  7230.25525   7807.16784  1.02396         3933.81149     21.39242  1.37135  58604.86226   5.74987   0.0366    72775.60099  47.68272  18.83509  58679.73375    51.18451       44.16375   46.45228   85.56998   70.5    0.06682  -21.31463  0.99983 
   -5.28121  0.02455  0.88613     14.13946  1.69943  1.51011   36.0877  0.14387     0.43938  6373.38811   9445.36863  4.22155         2996.02383     21.40638  1.41615  58606.89457   8.74434  0.88607    65191.16963  47.78997  18.86058  58674.24015    50.96878       43.88225   60.32328   93.04788   73.0    0.04403  -21.24335  0.99687 
  -15.16631  0.08422  1.59119     14.09216  2.11774  1.04008   27.5524  0.07663     0.04529  5465.76994   9761.34091  0.31724         3592.78601     21.45554  1.58586  58597.00947   4.91009  2.32039   325689.47629  46.67847  18.80306  58682.48054    51.22731       44.24215   44.65278   77.59005   60.5    0.06752  -21.58939  0.97764 
   -4.30551  0.09184  0.97642     14.24229  1.50969  0.58614  18.08321  0.19074     0.36931  6314.04682   8937.36858  2.99712         2906.07548     21.46452  1.61901  58607.87027   4.30049  1.66072    43793.40997  47.82705  18.96361  58671.49336    50.99761       43.89487   65.77202   89.12084   67.5    0.05479  -21.51444  0.99036 
   -8.19713  0.01027  1.21655     14.05841  1.81164  0.86037  22.99143  0.12604     0.30285   5032.1145   3735.22407  3.38546         3057.82688     21.55793   2.0075  58603.97865   3.47292  0.23604     190247.426  47.07734  18.76505  58685.22734    51.10906        44.0966   36.67285    90.4597   85.0    0.04975  -21.79026  0.99829 
   -8.19341  0.00897  1.68915     14.12623  1.37024  0.73072   29.9987  0.08886     0.16587  4904.68684   7260.10181  1.77463         3575.16627     21.28874  1.08011  58603.98237   4.30479  0.26906   202998.75202  46.64281  18.69484  58679.73375    51.44997       44.51711   40.38787   72.07554   71.5    0.06111  -21.01928   0.9943 
  -19.77537   0.0024  1.62789     14.27674  1.93918  0.58784  17.05419  0.25438     0.01738  5804.59309   9741.31009  1.56994         2024.17299     21.38335  1.34301  58592.40041   3.42769  0.04091   133415.78643  47.00801  18.78778  58682.48054    51.10313       44.08233   44.00742   88.01484   61.5    0.06169  -21.19234  0.99952 
   -9.63146  0.00484  1.20575      14.1625  1.57323  1.21017  17.91182  0.13929     0.03018  3135.26691   8514.04745  1.58297         4451.97751     21.28462  1.06991  58602.54432   1.05031  0.08669   100490.97343    47.301  18.82035  58676.98695    50.89129       43.82654   51.53409   93.70852   80.5     0.0465  -20.73465  0.99929 
  -14.11531  0.00122  4.28067      14.1696  1.68963  1.23084  44.87089  0.04758     0.03431  2738.90498   4853.53831  3.86527         4714.12369     21.04761  0.61993  58598.06047   2.00792  0.05454  1316516.58958  45.11419  18.72414  58676.98695    51.34537       44.37895   51.34199    73.3457   87.5    0.04937  -20.35451  0.99449 
  -14.67092  0.01124  1.33781      14.0832  2.04313  0.96851  16.23049  0.26125     0.01597  6734.37371   5585.36613  0.79829         3444.43869     21.48757  1.70725  58597.50486    4.3909  0.18242   231472.14864  46.96185  18.89801  58682.48054    50.96717       43.86387    61.9883  102.68398   66.5     0.0607  -21.77287  0.99867 
  -21.43921  0.06726  1.16406     13.96412  1.42988  1.11131  12.86444  0.21498     0.41904  4828.70423   5348.26921  0.29301         2220.10993     21.33666   1.2061  58590.73657   1.78928  0.86523   212237.25368  46.96538    18.852  58679.73375    51.10025       44.10813   46.45228   75.79056   75.5    0.05776  -20.87615  0.99196 
  -14.33389  0.00179   1.2838     14.00758  1.35971  1.05942  16.03802  0.30347     0.20397  5790.08438   8988.13112  3.30998         2931.98571     21.33984  1.21498  58597.84189   3.20736  0.02876   200958.17488  46.88219  18.82818  58682.48054    51.17551       44.15629   45.05569   86.96657   72.0    0.04788  -20.96379  0.99965 
  -18.01344  0.01158  4.33073      14.2295  1.97338  1.50789   9.51743  0.22807     0.02861  2997.85751   4228.52807  2.57593         4824.05821     21.05057  0.62416  58594.16234   0.51023  0.11023  1194407.38413  45.21378   18.8158  58687.97414    51.11475       44.08271   48.09899   88.01484   84.5    0.05064  -20.40002  0.99104 
  -25.22424  0.00415  4.27211     14.25668  1.72868  0.60438   8.05931  0.30831      0.0677   4069.9457   3297.81736  1.29997         4619.68549     21.09572  0.69254  58586.95154   0.79635  0.03342   898365.58388  45.29182  18.84712  58679.73375    51.07696       44.04026   54.32757   81.78627   82.5    0.05617  -20.44469  0.99672 
  -15.70626  0.01161  1.30547     14.05214  1.68058  1.45016  24.13047  0.28351     0.22951  7588.98306    3976.4387  2.27128          2342.2102     21.37045  1.30369  58596.46952   8.29011  0.28011   209185.94953  46.94224  18.87053  58682.48054    50.92297       43.83484   51.98129  102.68398   75.0    0.05417  -21.10273  0.99743 
  -11.46984   0.0038  2.70879     14.18842  1.74866  1.04456  12.31328  0.26542     0.35183  4142.38736   4443.43773   3.8267           3666.534     21.24088  0.96739  58600.70594   1.26038  0.04677   500310.57512  45.94676  18.71747  58679.73375    51.00423       43.99586   55.43356   80.68027   85.0    0.05026  -20.69608  0.99822 
   -3.68387  0.01104  0.82767     14.52819  2.19281  0.76236  30.50071  0.18772     0.32418   6960.6775   9008.65761  3.99989         2684.72638     21.32267  1.16787  58608.49191   8.81536  0.33672    12250.19635  48.68599   18.9782  58679.73375    51.39515       44.33989   47.87015   95.34941   66.5     0.0627  -21.13464  0.99951 
  -11.39902  0.00606  3.19004     14.27555  1.97706  0.72492  10.96449  0.28067     0.01956  5404.24688   7739.63941  2.88306         3408.99012     21.31498  1.14738  58600.77676   1.91023  0.06647   525215.09724  45.83694  18.80082  58682.48054    51.19008       44.18313   37.52558    90.4597   70.5    0.06273  -21.02464  0.99706 
  -15.36759  0.00253  2.20605     13.86636  1.52067     0.78   11.1069   0.2759     0.01085  4952.88802   3794.29032  3.08761         3772.44594     21.46309  1.61369  58596.80819   1.62531  0.02808  1271605.17184   45.6593  18.69773  58679.73375    50.83891       43.78843   76.37148   83.26846   74.5    0.05916   -21.5755  0.99911 
   -4.31597  0.00115   0.7728     13.83708  1.15907  1.46052  29.56026  0.06723     0.37159  3267.51122   5438.99702  4.11275         2723.29798     21.34883   1.2404  58607.85981   1.88265  0.03397   136115.02871  47.42291  18.70785  58685.22734    51.17711       44.17363   36.67285   88.01484   86.0    0.04104  -21.01227  0.99982 
  -14.23323  0.16846  1.15736     13.84706  1.23286  0.75797   9.54678  0.32517     0.24546  6133.40561   9650.76549  3.43908         2508.80797     21.50965  1.79628  58597.94256   2.14234  1.60827   310125.29925  46.74129  18.90385  58674.24015    50.97839        43.9173   62.46028   86.67598   65.5    0.05627  -21.67763  0.98144 
  -14.51062  0.00252  3.17384     14.13799  1.77629  1.08524  14.04289  0.29329     0.43457  4434.57629   3227.40742  4.64881         4485.43384     21.23446  0.95321  58597.66517   1.64736  0.03541   880074.27152  45.57067  18.69986  58682.48054    51.03542       44.03604   40.38787   86.74468   90.0    0.04544   -20.8522  0.99818 
  -17.62284  0.01838  1.88443     13.98434  1.62364  0.54994  21.43126  0.15437      0.0104  5350.02279    9819.6475  3.62095         3609.11747     21.56383  2.03499  58594.55294    3.6592  0.39383   575426.87909  46.16898  18.78973  58679.73375    50.92318       43.89613   52.75986    89.8991   75.5    0.05007  -21.90605  0.99182 
   -6.60079  0.00168   0.7857     14.61529  2.04532  0.42479  34.77171  0.20049     0.33124  9262.13627   8564.52131  2.10064         2404.06735     21.44648  1.55313    58605.575  17.79408  0.05831     6894.53794  48.95059  18.73433  58685.22734    51.28643       44.29328   36.67285   83.12513   62.0    0.06903  -21.54206  0.99989 
  -29.19938  0.00543  4.91257     14.34718  1.58165  0.35195   8.08928  0.30235     0.06947  4772.87003   3357.34858  1.48447         2278.37025     20.74029  0.30551   58582.9764   1.09925  0.04393   716440.24496  45.23016  18.84635  58679.73375    51.03443       44.01625     50.315   80.68027   81.0    0.06215   -20.2066  0.99335 
  -13.21281  0.05375  3.06845     14.33016  1.72234  0.68678  13.82915  0.24235      0.4932   4929.4959   4675.33421   4.2224         3357.09811     21.21716  0.91598  58598.96297    2.0046  0.74332   329191.59855  46.01368   18.8132  58679.73375    51.53586        44.5412   41.76227   80.68027   80.5    0.05437  -20.67725    0.964 
  -16.13901  0.00841    1.548     13.99535  1.87013  1.48535  12.98192  0.26463     0.07184  5189.10522   8598.60076  1.34827         3346.22894     21.45271  1.57556  58596.03677   2.08522  0.10924   425139.70036  46.53265   18.8014  58679.73375    51.17311       44.15882    42.4153   88.01484   74.0     0.0509  -21.38091  0.99878 
  -13.08924   0.1012  0.95906     14.00826  1.61426  1.42287  17.80332  0.25733     0.39761  7699.40826   7914.83801  3.10921         2481.92591     21.48476  1.69626  58599.08654   6.29568  1.80178   132728.24796  47.39017  18.72569  58682.48054    51.71387       44.78458   35.67457   72.48004   67.5    0.05579  -21.62053  0.99088 
  -22.47413  0.00633  4.19075     14.46595  1.87215  0.56938  16.71863  0.25837     0.20232  5543.93173   5956.26936   1.5491         2771.61306     20.96939  0.51774  58589.70165   3.06523  0.10587   357143.87042  45.74376  18.84783  58676.98695    51.18664       44.17821   46.45228   83.12513   87.0    0.06241  -20.12635  0.99128 
  -17.47832  0.01648  1.51451     14.24823  1.72073  1.20988  23.46065  0.23478     0.42464  5968.03979   5952.54332  0.07078         5390.65997     21.11874  0.73024  58594.69746    4.9846  0.38652   116843.77039  47.07641  18.78221  58679.73375    50.98163       43.84995   69.03691   95.34941   85.0    0.06151  -20.35985  0.99554 
  -10.59669  0.02754  2.14857     14.52479  1.40956  0.45181  29.12233  0.16092     0.44134  4726.50789   4077.49771  3.13019         2938.64509     20.83047  0.37601  58601.57909   3.88091    0.802    53904.56174    47.022  18.90417  58682.48054     51.2025        44.1862   47.87015   83.12513   84.0    0.04923  -20.11789  0.97446 
  -13.32301  0.09075  1.19119     13.97207  1.29114  0.80444  14.71044  0.19201     0.34237  3411.27469   3083.25515  3.99163         3899.16615     21.51533  1.81992  58598.85277   1.02114  1.33497   193464.60962  46.94125  18.86977  58676.98695    50.93274       43.88942   39.97044   97.23367   98.5    0.04291  -21.40326  0.98484 
  -15.15534  0.02198   1.7882     14.10183  1.89704    1.281  16.34244  0.28083     0.08891  5960.06405   9871.54163  2.82267         2607.56851      21.3661  1.29069  58597.02044   3.46295  0.35928   352415.53979  46.49504  18.75714  58685.22734    51.41511       44.44205   40.36353    81.8793   69.5     0.0492  -21.13393  0.99477 
