 texplosion  fnickel    Pspin  log(Bfield)      Mns  thetaPB   mejecta    kappa  kappagamma      vejecta  temperature    alpha  cutoff_wavelength  log(nhhost)      A_V         MJD0   kenergy  mnickel              TSD   log(L0)  Peak_mag     Peak_MJD  log(E_rad)  log(Peak_lum)  Rise_Time    E_fold  tau_1  delta_m15     r_peak     frac 
   -4.94301  0.07584  0.91863     12.67113  1.44946  0.91128   8.06089  0.30124     0.01345  18079.20559   3605.31725  2.74521         3977.00417     18.22094  0.00092  57530.53697  15.71697  0.61137    51647165.4928  44.79072  17.08085  57582.76956    51.34347       44.48793   41.17929  54.25378   49.5    0.20297  -22.48569  0.99432 
   -4.53686  0.29017  2.05606     13.47842  1.31745  0.97087   4.52519  0.23729     0.01889  11770.18445   6644.31754  0.62233         3445.56723     16.64408    2e-05  57530.94312   3.73965  1.31309    5711936.38466  45.00572  17.26542  57584.47998    51.37451       44.50293    41.0775  56.26423   42.5    0.24083  -22.03613  0.95543 
   -4.69452  0.00637   1.7697     13.23176  1.95456  1.03036   4.31026  0.27275     0.01587  14345.02988   7294.56321  0.47497         5835.29362     16.13376    1e-05  57530.78546   5.29095  0.02745   19549575.47797  44.77296  17.25606  57580.51734    51.29857       44.48026   36.26457   49.6252   45.0    0.23772  -22.29897  0.99954 
   -4.15767  0.01839  1.66685     13.13731  1.75372  0.91561   4.26584  0.26733     0.02373   16902.6344   6802.23047  0.96679         4920.74999     16.17158    1e-05  57531.32231    7.2701  0.07845   24041045.34028  44.68806  17.40812  57585.02178    51.36582       44.57393   36.26457  47.71654   44.0    0.28452  -22.34062  0.99853 
   -4.20087  0.03159  1.51324     13.21184  1.97625   0.6564   5.22902  0.25664     0.02089  18404.20404   7529.82163   0.0055         3824.07555     18.80367  0.00354  57531.27911  10.56529  0.16517   15841497.28941  45.00507  16.80796  57579.43994    51.33174       44.50972   39.27063  50.43646   44.0    0.24247  -22.26971  0.99777 
   -3.55085  0.31803  1.61739     13.05144   1.6357  1.10347   2.44314  0.20577     0.02148  11110.35405   5225.76723   0.8469         5911.56922     16.56841    2e-05  57531.92913     1.799  0.77699   31352319.97689  44.56865  17.41877  57584.43994    51.28234       44.55784   38.17323  40.08189   51.5    0.22243  -22.27466  0.98498 
   -5.48511  0.02977  0.78181     12.59034  1.66796  0.94044    9.1432  0.32657      0.0155   21168.7174   4665.74687  2.34967         3976.07095     20.60032  0.22133  57529.99487  24.44075   0.2722   62447978.24041  44.90931  17.15815  57582.76956    51.32873        44.5039   38.17323  51.53386   50.5    0.20355  -22.77037  0.99838 
   -5.82747  0.14945  1.05327     12.68028  1.16417  1.28424   5.64359  0.28663     0.01673  14727.61219   3232.62794  4.99358         2482.49218     19.55596  0.01998  57529.65251   7.30209  0.84341   52282187.44366  44.57143  17.37112  57585.02178    51.31037       44.56273   36.26457  43.89921   52.5    0.18265  -22.20854  0.98786 
   -5.13385  0.00345   1.0768     12.71853  1.55301  1.06684   3.85398  0.25154     0.01583  12438.81221   7494.59728  1.04459         5146.90965     17.02147    6e-05  57530.34613   3.55709  0.01329   61122168.22282  44.60955  16.92858  57580.51734    51.29031       44.53054   38.17323  43.89921   53.5    0.19839  -22.35191  0.99985 
   -4.63175  0.27256  1.97086     13.57485   1.5663  0.45614   4.76503  0.28219     0.01773  13355.44203   8789.86076  4.89426         2846.10986     16.02335    1e-05  57530.84823   5.07002  1.29878    4002218.23538  45.27211    17.303  57589.52622    51.30303       44.51314   43.40613   44.3923   41.5    0.22194  -22.13198  0.96547 
   -4.48271  0.36545  0.93335     12.58878  1.84375  0.92264   8.06582  0.18346     0.01437  17237.05411   4421.71566  2.73906         4950.84402     18.90748  0.00449  57530.99727  14.29558  2.94762   99092286.73713  44.59842  17.40831  57584.56005    51.31164        44.5794   36.26457  41.99055   46.5    0.24585  -22.68525  0.97253 
   -5.07607  0.09053  0.85337     12.61643    1.996  0.92605  11.25679  0.19928     0.01033  19561.15477   6750.44479   2.8958            2523.45     20.17393  0.08292  57530.40391  25.69394  1.01903   78956837.72549  44.80934  17.10447  57582.76956    51.38506        44.5174   40.08189  57.25984   54.5     0.1906  -22.42602  0.99351 
   -5.75016  0.06345  0.99813     12.84294  1.91064   0.8662   9.45962  0.32701     0.01194  17859.42945   6784.23154  0.39609          4593.2181     19.34438  0.01228  57529.72982  17.99849   0.6002   36432846.26606  44.99016  17.25004  57580.51734    51.37035       44.52485   36.26457  51.53386   56.5    0.16187   -22.5362  0.99586 
   -4.24422  0.00217  1.00024     12.69266  1.69409  1.42107    5.7053   0.3197     0.01317  17716.02601    6714.1913  0.39611         3819.44297     17.06917    7e-05  57531.23576  10.68165  0.01239   64807989.67966  44.68595  17.17272    57587.274     51.4244       44.55825   41.17929  56.16244   49.5    0.21663  -22.30022   0.9999 
   -4.12017  0.14451  0.88018     12.68678  1.19651  0.71934   2.49917   0.1216     0.01732  10371.01072   3161.65484  0.17165          3802.8664     16.97754    5e-05  57531.35981   1.60349  0.36116   36418498.28916  44.89629  17.22379  57582.76956    51.33883        44.5219   38.17323   49.6252   67.5    0.14013   -21.9622  0.99601 
   -5.16096  0.00103  0.79108     12.50686  1.84216  0.80798   8.94339  0.21991     0.02211  23523.18603   4467.12576  1.50678         3531.87275     16.58422    2e-05  57530.31902  29.52035  0.00919  103721222.98079  44.72186  17.05761  57578.26512    51.24216       44.46332   38.17323  45.80787   45.5    0.24907  -22.42307  0.99993 
   -5.87509  0.01636   2.4102     13.69038   1.7247  0.75494   5.68835  0.24833     0.01426  11042.48555   7205.08618  1.26207         4355.60128     19.71879  0.02908  57529.60489   4.13759  0.09308    3871470.52605  45.15358  17.22673  57584.43994    51.37033       44.49999   41.17929  56.16244   43.0    0.21826  -22.20512  0.99696 
   -4.50172  0.19073  1.06794     12.75578  1.97708  1.03066   9.25087  0.21183     0.01166  19731.66748   9276.82424  0.84996         2910.04136     18.12649  0.00074  57530.97826  21.48509  1.76446   64473156.94689  44.69839  16.92301  57594.03066    51.54543       44.51223   51.53386  87.79843   41.0     0.2164  -22.30192  0.98499 
   -4.77689  0.07047  1.46917     13.29132  1.54595  0.48501   5.02311  0.24803     0.01832  13412.27627   7064.60864  1.97731         2968.40273     17.27234   0.0001  57530.70309    5.3902  0.35399    8100745.71321  45.21537  17.16703  57578.26512    51.30632       44.45631   38.17323  53.44252   54.0     0.1906   -22.2387  0.99391 
   -4.94747  0.14862  0.79899     12.52154  1.20434  1.05078   8.55965  0.27154     0.01303  17675.49721   5342.36723  4.40843         2384.06868     18.45264  0.00158  57530.53251  15.95241  1.27213   64648882.71213  44.73395  17.23175  57582.76956    51.29998       44.49337   40.08189   49.6252   54.5     0.1822  -22.35151  0.98851 
   -4.89145  0.07627  1.06066     12.67173  1.56492  1.03158   7.06075  0.16676     0.02685  19782.07896   4809.99437  1.05702         2247.19798      18.1979  0.00088  57530.58853  16.48244   0.5385   74129427.66839   44.5422  17.36507  57585.02178    51.28354        44.5679   38.17323  38.17323   49.5    0.21717  -22.33763  0.99347 
   -5.24271  0.12031  2.30864     13.67988  1.80338  0.75385   6.82607  0.24762     0.01034  10533.04238   8148.87623  4.81628         2485.04093     17.98107  0.00053  57530.23727   4.51758  0.82125    3898106.34633  45.20737  16.84562  57578.26512    51.36175       44.49539   40.08189  55.35118   45.5    0.18523  -22.05247  0.97735 
   -5.67662  0.07493  0.80131     12.88735  1.61661  0.35894  10.48612  0.24979     0.01391  20634.85046   8783.58436  2.45226          4654.2829     18.89383  0.00435  57529.80336   26.6345  0.78577   16192894.17641  45.46053  17.13916  57591.77844      51.345       44.49298   43.50792  53.83381   51.0    0.15996  -22.65103  0.99408 
   -4.81284  0.48529  1.23996     12.89364  1.60601  1.12271   6.33891  0.33982      0.0105  15015.72563   4872.45941  2.64951         3540.63253     18.94348  0.00488  57530.66714   8.52578  3.07623   37419725.10213  44.71468  17.30671  57580.51734    51.24812       44.48019   40.08189  43.89921   50.5    0.19298  -22.27234  0.96353 
     -4.444  0.00434  2.23308     13.29948  1.71905  1.56994   4.51087  0.28393     0.03776  14025.37399   9488.62926  3.90005         4343.94912     17.76773  0.00033  57531.03598   5.29318  0.01956   20042385.06026  44.50438  16.73903  57579.43994    51.39982       44.50719   41.99055  57.25984   45.0    0.22958  -22.59529   0.9994 
   -5.53347  0.02027  0.95344     12.48227  1.85921  1.52008  10.06271  0.14725     0.02509  20132.78117   7148.33798  3.14572         3032.36274     19.48887  0.01712  57529.94651  24.33042    0.204  170290776.20727  44.34839  16.82686  57580.51734    51.25453       44.47609   41.99055  45.80787   57.0    0.20602  -22.42518  0.99788 
   -3.86791  0.00245  1.29642     12.81152  1.76528  1.39916   4.78276  0.14569     0.02462   16156.0874   3064.84467  0.06271         4301.85758     16.94288    5e-05  57531.61207   7.44695  0.01171   65625399.84645   44.4731  17.47508  57585.02178    51.28175       44.54144   40.08189  40.08189   53.0     0.2092  -22.23207  0.99984 
   -4.94843  0.01255  2.27958     13.48944  1.76161  1.19275   5.96311  0.19226     0.01228  12199.32654   8020.32076  0.49369         3794.37738      18.1321  0.00075  57530.53155   5.29385  0.07483    8923935.91593  44.84849  17.10164  57582.76956    51.33619       44.53971   38.17323  47.71654   40.0    0.23973  -22.06947  0.99784 
   -3.75175  0.09869   2.5065     13.68035  1.80529  0.55245   2.98676  0.25901     0.05169  14752.11246   7166.04262  0.86139         4959.22498     18.22055  0.00092  57531.72823   3.87736  0.29477    4589875.21193  45.06546  17.09541  57580.51734     51.3236       44.50949   38.17323   49.6252   44.5    0.26079  -22.30592  0.98969 
   -4.65223  0.01928  1.97144     13.51755  1.72243  0.50035   4.78495  0.19547     0.01966   12895.5486   8678.11904  3.52864         2642.87304     17.58277  0.00021  57530.82775   4.74662  0.09225    5733430.89672  45.15701   17.3704  57582.76956    51.32315       44.58471   34.35591  41.99055   45.0    0.20437  -22.13604  0.99772 
   -5.99379  0.06945  2.48713     13.48899  1.89763   1.0289   6.51332  0.20324     0.01309  10789.89021   7485.09427  4.75945         4349.97637     16.35149    1e-05  57529.48619   4.52338  0.45233   11466868.50807  44.69622  17.17786  57582.76956    51.36536       44.49467   41.17929  56.16244   45.5    0.23067  -22.51452  0.98567 
   -3.58864  0.20615  1.87673     13.49939  1.61608  0.46136   6.08186  0.07645     0.02851  12811.37994   6411.76751  0.99434         2000.87137     19.10313  0.00704  57531.89134   5.95464  1.25376    5300339.27626   45.2062  16.71059  57580.51734    51.47309        44.5758   43.89921   59.1685   63.0    0.12808  -22.17257  0.96978 
   -4.95739  0.45957  1.04745     13.13894  1.81749  0.42148   7.81394   0.3395     0.01178  18483.52087   8446.84944   0.1962         3366.38447      19.3728  0.01311  57530.52259  15.92452  3.59108    9765010.54835  45.49838  17.15439    57587.274     51.4279       44.59216   38.17323  51.53386   44.5    0.18228  -22.36424  0.97221 
   -3.59888   0.0037  2.45672     13.65271  1.92319  0.71844    5.1572  0.12649     0.01026   9712.39437   7456.57397  3.84293         2164.26221     18.70501  0.00282   57531.8811   2.90197  0.01907    5334845.31285  45.04503  17.10189  57582.76956    51.38983       44.48713   41.99055   59.1685   50.5    0.20099  -21.89646  0.99943 
    -4.9466   0.0018  0.73035     12.38906  2.01175  0.84226   7.22826  0.30074     0.05998  32169.14138    9525.0446  2.84062         5174.84614     16.75314    3e-05  57530.53338  44.62107    0.013  166084169.65139  44.62502  17.32892  57582.76956    51.34844       44.54183   34.35591  47.71654   50.5    0.18597   -22.7779   0.9999 
    -5.4534  0.03361  0.83495     12.54658  1.67123  1.02347   8.32004  0.32323     0.01739  20265.70113     6034.911  3.55021         4702.84664     19.33018  0.01188  57530.02658  20.38337  0.27966     87298033.391  44.70755  17.32936    57587.274    51.30301       44.55526   39.16884  40.99494   51.5    0.22541  -22.76354   0.9979 
   -4.96775  0.00514  1.29161     12.89931  1.92011  1.45667    6.2954  0.32921     0.01534  18712.65412   5901.46903  0.44508         4057.74505     18.31528  0.00115  57530.51223  13.14986  0.03236   47292587.36331  44.65511  16.81714  57579.43994    51.34383       44.48563   39.27063  54.25378   48.5    0.21421  -22.32103  0.99966 
    -5.7067  0.00108  0.89128     12.54034  1.62238   1.1139   7.11646  0.25735     0.01548  14673.10583   3724.73634  4.94884         4342.74875     18.88408  0.00425  57529.77328   9.13976  0.00771   99385960.28467  44.58165  17.15557  57585.02178    51.39132        44.5633   40.08189  51.53386   54.5    0.19603  -22.72634  0.99993 
   -4.86647  0.00119  0.78429     12.43562  1.84507  1.13912   6.12692  0.32394     0.02031  19020.91926   7510.64451  3.52605         3751.89695     19.53363  0.01898  57530.61351  13.22306  0.00726  141757506.62139  44.59435  17.40315  57582.76956    51.36375       44.66369   28.62992  40.08189   53.0    0.21722  -22.52108  0.99995 
   -4.96947   0.0204  0.90391     12.70364  1.40118  0.63268    8.0937  0.20542     0.02087   19918.0317    8503.5077  2.29021           4867.326     19.02383  0.00587  57530.51051  19.15433  0.16507    41618286.9136  44.88381   17.1614  57582.76956    51.34843       44.47792   41.17929  56.16244   48.0    0.22852  -22.64605  0.99819 
   -4.69134  0.13702  1.85521      13.3361  1.24077  1.14934    6.7456  0.27325     0.01126  11245.92864    4874.0104  3.00371         4524.98466     17.37325  0.00013  57530.78864   5.08907  0.92431    8435293.58544  44.89965  17.41728  57585.02178    51.32457       44.54952   38.17323  43.89921   43.0    0.22257  -22.45564  0.97132 
   -4.58741  0.04364  1.58675     13.05703  1.64438  1.12131   5.22283  0.23303     0.01472  14182.83308    6225.5755  1.60522         3739.88342     17.35638  0.00013  57530.89257   6.26699  0.22792   29564986.25277  44.61305  17.19513  57580.51734    51.35042       44.50798   36.26457  53.44252   48.5    0.22746  -22.21419  0.99582 
   -4.69848  0.01416   0.7471     12.51013  1.71603   0.8958   9.49923  0.32791     0.01495  22045.68178   5573.61637  3.15144          3775.6066     16.98997    5e-05   57530.7815  27.53993  0.13446   84887978.04651  44.82777  17.22634  57580.51734    51.32751       44.46013   40.08189  55.35118   53.5    0.21124  -22.53345  0.99915 
   -4.30361  0.05491  0.79133     12.37711  1.88072  1.49757  12.19274  0.14936     0.01316  21801.85519   3148.12143  1.00218         5771.04657     18.71855  0.00291  57531.17637  34.57127  0.66947   192586696.9316  44.46183  16.83801  57578.26512    51.34759        44.5061   40.08189  51.53386   44.5    0.25639  -22.59539  0.99491 
   -5.90377  0.00721  1.00674     12.82447  1.50537  0.56873  12.13523  0.09312     0.01054  14430.03498   4587.20537  1.55843          3411.4592     18.90771  0.00449  57529.57621  15.07336  0.08752   31794667.67117   44.9383  17.32053  57584.43994    51.37351       44.50698   38.17323  55.35118   61.0    0.16968  -22.30152  0.99895 
   -4.67915  0.05067   0.7347     12.41722  1.41555  0.75577   3.60935  0.19572     0.01164   9493.25594     3952.593  4.20764          4525.6197     17.34066  0.00012  57530.80083   1.94038  0.18288  103879828.14577  44.67102  17.05289  57582.76956    51.30202       44.48019   41.99055   49.6252   56.0    0.20899  -22.52648  0.99817 
   -5.01153  0.01089  1.43921     12.88977  1.61196  1.54751   7.47238  0.13515     0.01351  14712.41388   8153.74457  1.88967         3142.40296     17.97798  0.00053  57530.46845   9.64837  0.08138   51508966.47564  44.44807  17.35063    57587.274    51.40416       44.48111   40.08189  64.89449   48.5     0.2122  -22.20813  0.99862 
   -4.35601  0.00235  0.94161     12.47571  2.01388  1.39448   6.34506  0.26614     0.05641  25436.19479   5323.35581  4.56674         3299.65912     16.47467    2e-05  57531.12397  24.48879  0.01489  185423923.61129  44.35697  17.16883  57580.51734    51.31446       44.49195   38.17323   49.6252   52.5    0.26489  -22.54269  0.99985 
   -4.72582   0.1461  0.97011     12.57016  2.13555  1.43938   8.31233  0.24719     0.01951  22065.72153   6971.64691  1.65511         4108.61132     19.67158  0.02608  57530.75416  24.14272   1.2144  135098963.02814  44.49406  17.15751  57580.51734    51.34186        44.5238   36.26457   49.6252   50.5     0.2447  -22.50992   0.9903 
   -4.39999  0.02567   0.8593     12.67283  1.48109  0.52725   8.52076  0.10774      0.0278  20789.90441   7877.99249  3.70531         2082.97888     19.45693  0.01591  57531.07999  21.96901  0.21872   45817671.42982   44.9101  17.35602  57582.76956    51.29549       44.50865   36.26457  47.71654   51.0    0.22603  -22.30585  0.99748 
    -3.7768  0.30343  1.57149     13.10446  1.54595   0.7818   4.21703  0.27643     0.02827  15726.66555   9218.63254  3.39932         3269.85417     17.85095  0.00039  57531.70318   6.22168  1.27956   21914124.17545  44.72469  17.02843  57579.43994    51.39183       44.49925   40.08189  57.25984   42.5    0.22867  -22.28331  0.97432 
   -5.24389  0.10504  2.12244     13.33361  2.11265  1.02436   4.37525  0.33647     0.03031  15032.05734   7069.56426  2.46581            5275.48     18.63794  0.00241  57530.23609   5.89749  0.45957   19014877.90057  44.66091  17.09441  57580.51734    51.31992       44.48342   40.08189  51.53386   46.0    0.24053  -22.75476  0.99013 
   -5.00428  0.09021  1.16907      13.0381  1.55245  0.53167   5.89879  0.29266     0.01878  17219.41072   5147.40296  1.71374          3638.8761     17.16979    8e-05   57530.4757  10.43343  0.53213   16531762.08117  45.10586  17.32429  57582.76956    51.33542       44.51033   38.17323   49.6252   48.5    0.22371  -22.33759  0.99332 
   -4.45908  0.00548  0.85051     12.46361  1.63237  1.50368  10.60173  0.17258     0.01237  21190.26243   6373.99692    1.489         3025.13303     17.19334    9e-05   57531.0209  28.39726  0.05805  129648211.08133  44.50954  17.31575  57582.76956    51.35683       44.61008   32.44724  41.99055   50.5     0.2414  -22.32903  0.99951 
   -5.86304  0.06476  0.88576     12.75284   1.6119  0.60092  10.83083  0.17988     0.01038  18130.95793   9063.52908  1.38699         5037.72018     17.63623  0.00024  57529.61694  21.23881   0.7014   36652309.61441  45.01745   17.3212  57582.76956    51.28741       44.49786   40.08189  47.71654   47.5    0.19064  -22.53474  0.99394 
   -4.83481  0.04521   0.9627     12.94094  1.67632  0.49761   8.80351  0.26875     0.01275  19066.57431   6556.02415  1.95922         5456.23737     17.46426  0.00016  57530.64517  19.09099  0.39801   18935061.84424  45.24895  17.11423  57585.02178    51.42464       44.52377   41.99055   59.1685   50.0    0.23243  -22.74785  0.99663 
   -4.47254  0.09227  2.15556     13.30111  1.59686  1.39197   4.61981  0.27755     0.02152  14034.60286   6401.18083  2.94579         3550.56966     16.22405    1e-05  57531.00744   5.42815  0.42628   17218166.99988    44.569  17.30981  57582.76956    51.36129       44.55719   36.06062  47.92048   43.5    0.26104   -22.2295  0.98678 
   -5.40189  0.00147  2.07868     13.49197   1.5118  0.86383   5.34396  0.09988     0.01708   9603.94612   3025.45947  0.27693         3946.51192     16.54354    2e-05  57530.07809   2.94029  0.00784    6294272.35964  45.01382  16.93324  57578.26512    51.37608       44.51487   38.17323  55.35118   56.0    0.16631  -21.99096  0.99976 
