 texplosion  fnickel    Pspin  log(Bfield)      Mns  thetaPB   mejecta    kappa  kappagamma      vejecta  temperature    alpha  cutoff_wavelength  log(nhhost)      A_V         MJD0   kenergy  mnickel            TSD   log(L0)  Peak_mag     Peak_MJD  log(E_rad)  log(Peak_lum)  Rise_Time    E_fold  tau_1  delta_m15     r_peak     frac 
   -0.91664  0.00142  1.18151     14.26604  1.62938  1.47168   5.34977  0.13561     0.20142  10065.38706   4906.16256  2.51237         2530.91845     18.96257   0.0051  55895.38336   3.23313  0.00762     62035.0295  47.54335   20.4935  55929.20351    51.22137       44.70361   13.67219  27.61305   33.5    0.29905  -21.65969  0.99995 
   -2.46907  0.03477  3.03894     14.37332  1.86288  0.85109  16.79932  0.01245     0.16149   6042.96276   7054.15398  4.82253         2324.20232     18.46801  0.00163  55893.83093   3.65947  0.58409   286289.76719  46.11678  20.46987  55933.77412    51.26054       44.71765   13.67219  28.92796   40.0    0.42382   -21.3955  0.97515 
   -1.93015  0.14305  2.67435     14.50264  1.63776  0.47348   7.60927  0.03918     0.01851   8208.04487    6769.5447  4.56594         2268.98537     17.76628  0.00032  55894.36985   3.05808  1.08852   107451.70508  46.59745   20.4825  55931.48881    51.18384       44.67184    14.9871  27.61305   41.5    0.40386  -21.54438  0.95732 
   -1.61638  0.47535  1.31564     14.70657  1.91596  0.57776   9.87313   0.0821     0.01876  14498.52679   4414.44585  2.42763         2138.62465     16.73959    3e-05  55894.68362  12.38026  4.69322    11894.16647  48.23762  20.48964  55933.77412    51.26433       44.70389   15.56247  31.55777   31.5    0.37136  -21.84715  0.97464 
   -2.49426  0.05637   2.9445     14.15454  1.58961  1.01486   9.34852  0.03322     0.04212   9880.53135   4157.04847  2.91565         2611.58586       18.886  0.00427  55893.80574   5.44416  0.52696   628116.36314  45.73407  20.52276  55931.48881    51.24563       44.69493   17.09379  27.61305   41.5    0.43381  -21.67897  0.97323 
   -1.06259  0.01932   1.1522     14.36578  1.69413  0.94836  11.62824  0.11495     0.07785  15510.70166   9296.95491  3.00965         2135.80871     19.27401  0.01044  55895.23741  16.68799  0.22464    38748.21427  47.78649  20.41087   55926.9182    51.19829       44.69139   15.77889  22.35342   26.5    0.32418  -21.94225  0.99869 
   -1.46701   0.0114  2.14345     14.32816  1.90606  1.10815   2.52733  0.20465     0.02406  10300.50241   6233.51231  3.69798         2217.21748      19.9096  0.04512  55894.83299   1.59958  0.02882   179412.59758   46.6329  20.40481  55924.63289    51.18077       44.68727   15.77889  21.03852   28.5    0.41948  -21.69525  0.99941 
   -0.99156  0.00779  0.94027      14.2073  1.26369  0.88122  10.52448  0.09879     0.01619  12585.71674    5411.8379  2.04557         2677.09251     17.18063    8e-05  55895.30844   9.94452  0.08203     39935.5124  47.82262   20.4825   55926.9182    51.30839       44.70446   16.11047  25.58599   29.5     0.3372      -21.8  0.99951 
   -1.73803  0.00188  1.76238     14.40611  1.88502  1.15966   6.59847  0.09323     0.09504  13165.91143   7767.52472  1.69591         2573.83368     19.69752  0.02769  55894.56197   6.82295   0.0124    83774.63285  47.12885  20.49201  55931.48881    51.24284       44.74197   12.60069  27.36965   27.0    0.45794  -21.74855  0.99984 
   -1.92969  0.33149  2.97131     14.42541  1.77706  1.02824  20.75592  0.01364     0.02602   7264.29444   9001.19013  3.73085         2623.69295     18.14715  0.00078  55894.37031   6.53365   6.8804   205393.84742  46.26007  20.44671   55926.9182    51.23448       44.73782   15.77889  22.35342   67.0    0.32433  -21.52704  0.76645 
   -2.00816   0.0493  2.60218     14.38331   1.5571  0.60356   1.97004  0.22528     0.05305  12248.71705   4954.08918   3.2179         2299.71366     17.43964  0.00015  55894.29184   1.76313  0.09713    167565.0569  46.40631  20.46176  55931.48881    51.20841       44.72675   14.24757  26.29815   29.0    0.45898  -21.67882  0.99595 
   -0.87044    0.031  0.91815     14.30025  1.63808  1.07655  18.55615  0.08084     0.03652   13996.6577   6713.42922  2.59909         2417.12837     18.54763  0.00196  55895.42956  21.68522  0.57528    32171.01699  48.04989  20.46169  55931.48881    51.22305        44.6625   14.38435  32.16052   35.0    0.23061   -21.9235  0.99807 
    -0.4993  0.07947   1.0391     14.39069  1.78829  1.09709  15.84957  0.05955     0.01594  13758.66768   9765.08759  4.02292         2053.68623     20.16689  0.08159   55895.8007   17.8977   1.2596    29661.36861  48.01578  20.51968  55929.20351    51.22723       44.72454   11.04238  28.92796   25.5    0.34427  -21.84629  0.99542 
   -1.10058  0.00122  2.17388     14.33124   1.9418  1.50229   5.46445  0.11586     0.03942  12462.91626   6517.26677  2.83973          2413.8638     19.79115  0.03435  55895.19942   5.06306  0.00665   185355.09745  46.61457  20.47883  55931.48881    51.26314       44.71225    13.2336  30.68146   30.5    0.39321  -21.77961  0.99986 
   -1.84452   0.1026  2.87708     14.32124  1.87662  1.01504    3.3121  0.13477     0.04107  12882.43365   4445.45583  2.56803         2376.99143     17.60222  0.00022  55894.45548   3.27889  0.33983   328553.85996  46.10771   20.4251   55926.9182     51.1395       44.64405   15.77889  23.66833   29.5    0.48063  -21.75938  0.98705 
   -2.37929  0.12854  3.06532     14.24359  1.82359  1.14011   11.3465  0.02312     0.11724   7398.97648   7145.67324  3.66756         2480.91307      19.8171  0.03646  55893.92071   3.70538  1.45848   518222.52366  45.84231  20.38874  55929.20351    51.25202       44.73144   17.09379  23.66833   47.0    0.38209    -21.546  0.93723 
   -0.89372  0.04309  1.31615     14.40675  1.79913  1.07419   7.30058  0.12451     0.03769  14355.59643   8742.67228   3.2505         2040.98584     18.46052   0.0016  55895.40628   8.97484  0.31455     44462.2571   47.6373  20.48248   55926.9182    51.23813       44.69035   15.77889  23.66833   26.0    0.34542  -21.78167  0.99781 
   -2.40648  0.17063  2.89136     14.13046  1.68884  1.35105   4.66282  0.05623     0.01232    8746.4246   3210.78435   3.3945         2293.49712     16.84727    4e-05  55893.89352   2.12783  0.79562   718917.88058  45.71755  20.54365   55926.9182    51.11391       44.60696   14.46398  26.29815   36.0    0.42455   -21.5718  0.96476 
   -1.37697  0.00414  1.82012     14.20657  2.03281  1.31086  14.80852  0.06172     0.02901    9588.1527   7562.61453  3.82173         2372.93702     20.30371   0.1118  55894.92303   8.12099  0.06128   241527.72561  46.67377  20.49315  55929.20351    51.22291       44.73055   12.35729  24.98324   42.5    0.21805  -21.95798  0.99917 
   -0.45148  0.28853  1.31578     14.63288  1.79024  0.58871  12.19101  0.06617     0.11873  11988.57265   7615.30057  3.88287         2185.60305     18.77733  0.00333  55895.84852  10.45206  3.51744     15607.2442  48.09007  20.46849  55931.48881    51.20527       44.65107   14.38435  30.84562   38.5    0.27616  -21.69676  0.97698 
   -2.35698  0.02526  2.76474     14.23582  1.46853  0.73317   16.5379  0.01274     0.18988   6738.57711   7879.64811  3.41628         2663.27461      17.5056  0.00018  55893.94302   4.47965  0.41779    351862.5687  46.00605  20.46507  55931.48881    51.34788       44.79012   16.30201  28.92796   39.5    0.43759  -21.51918  0.97884 
   -2.27931  0.02876  3.14966     14.06311  1.71444   1.0964   2.19563  0.08321       0.016   9496.86454    7603.5408  3.85402         2068.99594     18.77471  0.00331  55894.02069   1.18126  0.06315   1180991.0723  45.43419  20.50065   55926.9182    51.29094       44.78166   15.17614  24.27108   34.0    0.47867  -21.60126  0.99662 
   -3.47439   0.4766   2.7886     13.94538  1.56439  1.38358      7.83  0.03121      0.1328   7717.30839    6513.9132  3.95415         2340.90049     19.92088   0.0463  55892.82561   2.78177  3.73178  1452692.87913  45.41024  20.48293  55929.20351    51.15928       44.59137   17.09379  28.92796   76.5    0.32003  -21.73828  0.84748 
    -2.5899  0.04441  3.65589     14.52933  1.94282  0.38902   5.28568  0.04237     0.02199  10696.29984   8563.88749  2.94964         2323.02185      18.2002  0.00088   55893.7101   3.60741  0.23473   210656.71192  46.10772  20.45237  55929.20351    51.30873       44.82847   14.46398  24.98324   39.0    0.39965   -21.6686  0.98612 
   -0.81866  0.18035  1.20804     14.38745  1.46584  0.77624   6.54445  0.10168     0.29534   9998.17345   9093.18922  2.91612         2594.42255     18.00455  0.00056  55895.48134   3.90249   1.1803    33355.99965  47.74759  20.46327   55926.9182    51.24932       44.78633   13.39248  22.11002   31.5    0.30534  -21.65068  0.99048 
   -1.32607  0.08757   1.8756     14.34813  1.61152  0.78197   5.16942  0.09264     0.01199   8025.13862   5807.74219  3.06382          2680.0104     19.10478  0.00707  55894.97393   1.98598  0.45266   105945.50911  46.90472  20.46105   55926.9182    51.17124       44.65985   16.71322  22.35342   32.5    0.32137  -21.62812  0.99094 
   -1.56314   0.0018  2.54152     14.70397  1.94999  0.44039   2.63257  0.19429     0.36651  10740.98369   3732.85993  2.92863         2536.69661     16.54298    2e-05  55894.73686   1.81174  0.00473    45718.45923   47.0886  20.46665   55926.9182    51.17499       44.69464   14.46398  24.98324   32.5     0.4134  -21.65523  0.99987 
   -1.13033   0.0367  1.61642     14.50478  1.75547  0.65516  17.88182  0.03404      0.0796   9595.86412   5873.13112  3.09903         2439.43422     17.92963  0.00047  55895.16967   9.82216  0.65626    41663.89166  47.47637  20.37024  55929.20351    51.27414       44.73816   17.09379  23.66833   35.0    0.32936  -21.65173  0.99181 
   -2.56277  0.04593  2.82444     14.22256  1.64106  0.86324   4.46032  0.06323     0.01184   9009.15959   6812.01211    2.867         2533.05971     17.36263  0.00013  55893.73723   2.15954  0.20486   436199.82469  45.94242  20.44985  55931.48881    51.23457          44.71   12.60069  31.31437   32.0    0.45717  -21.63103  0.99072 
   -1.99919  0.27062  2.31932     14.22038  1.70294  1.07005   8.26105  0.03123     0.01135   5726.21843    4220.0705  4.14171         2541.12494     20.45929  0.15996  55894.30081   1.61584  2.23559   308297.60823  46.28035  20.47951   55926.9182    51.24784       44.81196   13.14907  20.95687   42.0    0.35099  -21.65287  0.93919 
   -2.16296   0.4196  2.25787     14.48056  1.83542  0.72103    4.1379  0.12164      0.1527  11084.11345   4784.88517  3.12398         2254.84875     18.96947  0.00518  55894.13704   3.03256  1.73627     95021.0968  46.84736  20.45617  55929.20351    51.28843       44.76948    13.2336  28.05164   38.5    0.38021  -21.64698  0.95971 
   -1.08279  0.00835   1.3191     14.42861  1.78238  0.96553  11.43284  0.07796     0.05706  14016.69755   4871.67394  2.23569          2316.8237     18.12387  0.00074  55895.21721  13.39901  0.09552    40007.63459  47.67715   20.4913  55931.48881    51.22986       44.67935    14.9871  30.24287   28.5     0.3731  -21.81671  0.99932 
   -2.35146  0.03295  2.11859     14.18447  1.49282   0.9175   5.45703  0.09771     0.01214  11396.45631   4733.73265  3.16756          2274.9937     18.15709   0.0008  55893.94854   4.22789  0.17982   266057.61535  46.36579  20.46023  55931.48881     51.2307       44.68853   17.09379  27.61305   27.5    0.44699  -21.72371  0.99473 
   -1.98307  0.02911  2.55589     14.28006  1.87429  1.22649  11.01957  0.03618     0.08679   8378.62223     5619.447  3.66426         2483.31635     17.37907  0.00013  55894.31693   4.61463  0.32079   313056.85334  46.23097  20.49124  55933.77412    51.35102       44.67594    14.9871  34.18759   37.5    0.35936  -21.62361  0.99034 
    -1.0452  0.00171  1.20357     14.28755  1.83582  1.36324  11.69861  0.11011     0.02046   13944.6265   9981.10919  2.63702         2195.75356     16.59819    2e-05   55895.2548  13.56985  0.02002     65688.0016  47.55425  20.53136  55929.20351     51.1183       44.62587    13.2336  26.73674   25.5    0.27815  -21.95542  0.99988 
   -1.03376  0.00228  1.44374     14.44941  2.03352  0.99677  14.58346  0.04674     0.30895   7148.61499   7992.48242  2.95181         2884.41655      17.0217    6e-05  55895.26624   4.44561  0.03322    49684.57615   47.5619  20.43134  55929.20351    51.20037       44.69033   15.77889  26.29815   39.0    0.26522  -21.61751  0.99975 
   -1.54107  0.01516  2.17415     14.54943  1.85472  0.54278   5.88643  0.10123     0.13084  10628.04009   9481.76123  2.96796         2506.26026     19.03265  0.00599  55894.75893    3.9663  0.08922    64834.89648  47.05073  20.49287  55929.20351    51.34218       44.77074   16.87738  26.29815   30.0    0.36226   -21.7505  0.99803 
   -1.21357  0.38544  1.86198     14.55978  1.80225  0.55833   7.61644  0.08379     0.03035  12154.41017   4207.55751  3.04886         2076.73251     17.15204    8e-05  55895.08643   6.71192  2.93567    44057.94147  47.34069  20.42927  55924.63289    51.38641       44.83184   16.71322  24.98324   37.5    0.33362  -21.75899  0.95354 
   -0.63377  0.01141  1.08091     14.43755  2.10102  1.29043   5.35801  0.25119     0.09556  11498.44894   5463.35087  2.76351         2816.06169     19.42984  0.01495  55895.66623    4.2258  0.06115    30388.82976  48.04098  20.47197  55929.20351    51.20569       44.67476   16.87738  24.98324   36.5    0.25032  -21.91085  0.99981 
   -2.26064  0.09107  2.40849     14.21407  1.73909  1.16384   7.44991  0.05578     0.10659   8031.33246    8094.3222  3.74205         2486.50292       19.808   0.0357  55894.03936   2.86651  0.67848   349540.96978  46.20218  20.43406   55926.9182    51.42344       44.92038   15.77889  22.35342   40.5    0.32942  -21.63897  0.97987 
   -3.34687  0.01047   3.2775     14.25342  1.65551  0.52997   4.21258    0.035     0.16828   7175.60263   6147.06959  3.48114         2516.05787     17.96231  0.00051  55892.95313   1.29387   0.0441   514039.98809  45.74569  20.35376  55931.48881    51.26699       44.72856   16.87738  26.29815   62.0    0.38076  -21.57343   0.9973 
    -2.6675  0.09599  3.25349     14.18599  1.83278   1.4031  16.01989  0.01496     0.04752    6835.0945   6364.06492  3.64545         2642.14373     18.04416  0.00062   55893.6325   4.46453  1.53779   764957.78937  45.62362  20.44894  55929.20351    51.31367       44.77174   17.09379  22.35342   47.5    0.37823  -21.57903  0.92667 
   -1.79247  0.00219  2.30115     14.27718  1.89072  1.41492   4.81671  0.12501     0.23809  13214.54856   6380.84456  3.36938           2008.254     16.19925    1e-05  55894.50753   5.01745  0.01055   259396.49815  46.40762  20.44455   55926.9182    51.21098       44.71874   15.77889  22.35342   32.0    0.40034   -21.7623  0.99974 
   -2.43092  0.07108  3.00147     14.35441  2.03299  0.88158   7.20025  0.05908      0.3108   8774.71125   4236.27711  3.85813         2439.45675     18.00133  0.00056  55893.86908   3.30705  0.51183   332497.50257  46.10052  20.48464  55929.20351    51.17977        44.6647   15.77889  27.61305   42.5    0.32848   -21.6663  0.98123 
   -1.06016  0.00502  2.41088     14.33619  1.87539  1.29832   4.90521  0.12479     0.33662  11764.09723   8385.22496  3.55778         2540.30919     17.08318    7e-05  55895.23984    4.0495   0.0246   215215.63856  46.44471  20.45627  55931.48881    51.22404       44.71782   15.17614  25.58599   29.5    0.39441   -21.7332  0.99934 
   -1.50261  0.19118   1.7168      14.2468   1.4664  0.91552   3.37811  0.20869     0.03821  12001.52967    3891.7347  4.73521          2126.2614     18.02999   0.0006  55894.79739   2.90252  0.64582    128797.0471  46.85575  20.48299  55929.20351    51.19857       44.66922   15.77889  26.29815   30.5    0.33603  -21.71993  0.98761 
   -1.30496  0.01561   1.1251     14.27431  1.95509  1.43137  33.37944  0.01983     0.10269   9092.23145   5160.07989  3.52497         2189.87741     20.59955  0.22094  55894.99504  16.46066  0.52104    64974.57591  47.64488  20.44755   55926.9182    51.18085       44.69038   15.77889  22.35342   39.5    0.28011  -21.89167  0.99754 
   -0.77746  0.15435  1.22548     14.78855  1.80386  0.34026  10.54168  0.12455      0.0343   14197.8378   5732.62889  3.46795         2227.34078     18.98449  0.00536  55895.52254  12.67598  1.62714     6660.84118  48.52491  20.39939  55933.77412    51.33419       44.75523   14.38435  29.53071   34.0    0.26546  -21.90682  0.99018 
   -0.65976  0.00323  0.90564      14.2637  1.36932  0.93104  17.33846  0.06509     0.04072  13905.86556   3199.95388  2.75946         2405.25876     17.25035   0.0001  55895.64024  20.00017  0.05592    30963.02063   48.0006  20.44984  55931.48881    51.21634       44.66203    14.9871  30.24287   31.5    0.31166  -21.88728  0.99975 
    -1.5371  0.08236  1.66599     14.08423  1.40766   1.5339   5.18976  0.16253     0.01479  12953.36753   6054.95874  3.06434         2529.73019     19.83307  0.03783   55894.7629   5.19446  0.42741   246146.08335   46.5828  20.54228  55929.20351    51.17597       44.68438   14.02539  26.73674   27.0    0.43303  -21.88367   0.9917 
   -0.83136  0.02665  1.69245     14.58327  1.89573  0.63438  14.05591  0.03812     0.10148  10409.29161   7138.18687  3.19732         2234.23998     17.29791  0.00011  55895.46864   9.08507   0.3746    34362.99012   47.5535   20.5513  55931.48881    51.18741       44.66209    13.2336  30.68146   32.5    0.36597  -21.63551  0.99548 
   -1.44108  0.00583  1.93062     14.31142  1.75534   1.1741   3.74122  0.15666     0.41335  11420.28887   9389.70174  3.49597         2176.83054     19.20701  0.00895  55894.85892   2.91068  0.02179   144787.08951  46.78108  20.44245  55929.20351    51.20087       44.72394   14.24757  24.98324   28.5    0.38069  -21.65635  0.99959 
   -2.02818   0.0449  1.93541     14.24634  1.49944  0.88596   8.36939  0.05125     0.01776  10690.98493   3919.04668  2.83487         2117.05414     16.63006    2e-05  55894.27182   5.70632  0.37576   167730.62612  46.64661   20.4803  55931.48881    51.18969       44.65818   15.56247  28.92796   33.0     0.3941  -21.60146  0.99099 
    -2.1434  0.02201  1.84381     14.40695  1.53208  0.50441  13.76146  0.03198     0.01395   7477.54675   9142.99555  4.99205         2165.11027     19.49535  0.01738   55894.1566   4.58997  0.30284    74237.21464  47.05207  20.47429  55931.48881      51.232       44.65366    14.9871  32.87268   39.0    0.29391  -21.57518  0.99358 
   -1.40078  0.00176  1.68485     14.34067  1.86788   1.2625   6.83392  0.12105     0.02608  13319.81107   5409.30003  2.34372         2323.62663     16.36667    1e-05  55894.89922   7.23258  0.01201    102551.2288  47.07613  20.38541  55929.20351    51.25015       44.77472   15.17614  22.95617   28.5    0.36496  -21.79958  0.99985 
   -2.26533  0.07234   2.5739     14.30538  1.75664  0.96959   2.05893  0.21843     0.02358   9696.04526   7350.13575   2.8826         2734.40166     16.99367    5e-05  55894.03467   1.15467  0.14895    264800.6856  46.26943   20.4382  55933.77412    51.23182       44.71247   14.38435   28.2158   27.5    0.46806  -21.68606  0.99496 
   -1.07362  0.07683  1.28801     14.39151  1.75466  0.80593    9.7661  0.10981     0.09618   13140.0842   3571.67995  3.53904         2057.26914     16.07337    1e-05  55895.22638  10.05876  0.75038    44546.90911  47.64438  20.41016  55933.77412    51.29604       44.70318   17.09379  31.55777   34.5    0.28498  -21.89444  0.99429 
    -1.2773  0.44875   1.6561     14.35564  1.72506  0.97113   6.98023  0.11382     0.27986  11275.34125   7721.36724  4.91475         2167.41225     19.47375  0.01654   55895.0227   5.29367  3.13235    85412.11859  47.13596  20.41396  55931.48881    51.19193       44.61811   17.09379  28.92796   40.0    0.27518  -21.75353  0.95881 
