 log(Bfield)      Mns    Pspin  cutoff_power  cutoff_wavelength  fnickel    kappa  kappagamma  mejecta  log(nhhost)  temperature  texplosion  thetaPB     vejecta      A_V        MJD_0   log(KE)      M_Ni  Peak_mag     Peak_MJD 
    13.64477  1.76052  2.99117       4.76994         3171.82766  0.10025  0.26243     0.01202  4.49922     20.26626   3993.59532   -36.06235  0.24825  6306.71528  0.10256  57579.33765  52.11677   5.52847   23.1326   57676.9214 
    14.04108  1.86634  4.63388       1.77595         3605.47483  0.00115  0.26389     0.01501  4.25775     17.03425   4099.51832   -35.52562  0.24738  6459.34988    6e-05  57579.87438  52.13122   0.06276  23.11129  57674.15529 
    13.46669  1.69561  2.94019       1.78387         3679.10494  0.00473  0.22412      0.0117  4.50248     19.22644   4801.30918   -37.49532  0.35057  5985.42788  0.00936  57577.90468  52.07144   0.26079  23.04553  57674.15529 
    14.00991   1.8956  5.14135       2.64589         3593.88232  0.02029  0.31605     0.01923  3.08663     16.90913   7476.45469   -34.49908  0.32387   5850.5366    5e-05  57580.90092  52.00637   1.00852   23.0903   57676.9214 
    13.46683  1.63236  2.68718       4.99326         3253.85176  0.12016  0.26614     0.01919  3.07947     19.68825   4668.31931   -29.87488  0.26156  6388.32466   0.0271  57585.52512  52.08246   5.96792  23.10549  57674.15529 
    14.17785  2.18626  7.19312       2.84538          3587.7109  0.02839  0.20439     0.01132  5.14792     16.00945    6590.6781   -31.74848  0.50186   5794.2634    1e-05  57583.65152  52.05824   1.62122  23.15045  57674.15529 
    13.21503  1.39519  2.43077       1.83102         3835.15918  0.06756  0.32349     0.01305  3.18448     19.86348   3325.79667   -36.19152  0.44197  5851.99385  0.04057  57579.20848  52.01052   3.38809  23.07945  57674.15529 
    13.27291  1.40168  2.44053       4.88312         3152.37475  0.00287  0.22243      0.0113  4.85569     18.58266   4124.32983   -37.16712  0.37926  6240.67692  0.00213  57578.23288  52.11623   0.16137  23.10722   57676.9214 
    14.38458  1.48947  4.82827       2.54421         3676.08759  0.00351  0.20999     0.01304  4.26345     20.66213   4112.95349   -35.06706  0.15391  5050.51845  0.25519  57580.33294  51.91767   0.19088  23.12076  57674.15529 
     14.0488  1.61785  3.56068       3.48641         3382.84934  0.01489  0.29588      0.0129  3.81821     16.83233   4480.27921   -37.47764  0.13898  5983.72393    4e-05  57577.92236  52.05201   0.78605  23.11805  57679.68752 
    13.31646  1.60325   2.6956       4.59586         3083.29095  0.00119  0.23075     0.01429  4.65112     18.39006   5582.56362   -37.82155  0.41416  6525.55087  0.00136  57577.57845  52.15017   0.06599  23.10858  57674.15529 
    13.96132  1.98014   4.2734       2.67944          3424.5314  0.00325  0.28141     0.02424  2.79017     17.88726   6392.05699   -34.32339  0.22238  6014.68305  0.00043  57581.07661  52.01746   0.15679  23.10169   57676.9214 
    14.01867  1.69526  4.30493       2.39524         3696.53127  0.10281  0.16839     0.01198  4.66772     18.82759   5199.60344   -30.59304  0.18967  5712.72018  0.00374  57584.80696  52.03502   5.72466   23.1161  57674.15529 
    14.35792  1.66444  5.64528        4.4015         3180.56154  0.06886  0.23426     0.02038  4.56972     18.40908    8071.9288   -30.39587  0.17916  6700.35288  0.00142  57585.00413  52.17113   3.81297  23.12528   57676.9214 
     14.3099  1.86908  5.37429       1.60502         3622.23528  0.07688  0.26076     0.02043  4.08035     18.68341   4101.07286   -34.40823  0.17118   6379.1001  0.00268  57580.99177  52.11541    4.1313  23.17737  57679.68752 
    14.59184  1.49902  6.22495       1.84823          3541.2227  0.31472  0.24489     0.01219  4.62382     17.26657   6734.06544     -29.581   0.1134   5843.7667   0.0001    57585.819  52.05365  17.48077  23.12009   57676.9214 
    13.80287   1.7264  4.63859        1.8313         3806.93481  0.15418  0.25018     0.01375   3.9822     19.17425   5071.37057   -31.50815  0.39514  5949.70964   0.0083  57583.89185  52.05203   8.23065  23.13022   57676.9214 
    14.30131  1.61306  5.60848       3.98486          3219.1744  0.01258  0.29038     0.01482  3.64444     18.47145   8321.42052   -31.13292  0.22398  5811.34064  0.00165  57584.26708  52.02104   0.65534  23.09581     57673.27 
    13.42436   1.5134  1.74038       3.24357         3459.62305  0.00254  0.31991     0.01125  3.48436      19.0759   6783.99939   -37.26788  0.13677  5913.32049  0.00662  57578.13212   52.0307   0.13088  23.10337  57674.15529 
    14.18004  2.09023  6.30812       3.47318         3346.16165    0.133  0.29384     0.01761  3.19469     16.31981     7221.132   -31.89193  0.31696  5665.10772    1e-05  57583.50807  51.98273   6.67631  23.09747  57674.15529 
    13.81598  1.44599  3.73818       2.63069         3538.90682  0.01521  0.29518     0.01387  3.43515     16.46858    7394.3237   -36.46243  0.26087  5448.72173    2e-05  57578.93757  51.95788   0.77951  23.13113   57676.9214 
    14.05204   1.5385  4.25884        4.1774         3228.43168  0.00294   0.2585     0.01222   4.1639     18.52998   6303.34012   -35.05537  0.20919  5769.52072  0.00188  57580.34463  52.03054   0.15866   23.0785  57674.15529 
    12.86363   1.2839  1.75643       2.28882         3636.66442  0.08128  0.20481     0.01236  4.54988     19.99394    6094.0992    -30.3514  0.48936  6921.28804  0.05479   57585.0486  52.19882   4.49574  23.12839   57676.9214 
    13.77012  1.60432  2.83371       4.97384         3199.20457  0.04369  0.26996     0.01286  4.09524     18.87811   5501.45795   -34.90286   0.1606  6364.25319   0.0042  57580.49714  52.11381    2.3503  23.15174  57679.68752 
    13.46891  1.61523  3.21497       2.14429         3497.49033  0.04976  0.31566     0.01575  3.74214     17.55782   9669.18345    -39.2367  0.42731  6015.14413   0.0002   57576.1633  52.05415   2.61184  23.13682   57676.9214 
    13.29267  1.77551  2.92293       4.89048         3107.51837  0.00151   0.2673     0.01487  4.30467     19.48448   7271.82674   -40.93059  0.53801  6299.25644  0.01695  57574.46941  52.11068   0.08253  23.11663   57676.9214 
    13.80094  1.46234   4.2612       2.44878         3427.37404  0.04068  0.32574     0.01612  3.10215     16.67226   7992.35752   -32.12803  0.37455  6091.18228    3e-05  57583.27197  52.04202   2.02472  23.13463  57674.15529 
    14.32688  1.81916   5.9489        2.0282         3683.58233  0.02275  0.26485     0.01534  4.15764     19.75229   8168.24934   -34.64358  0.23848  5695.29437  0.03141  57580.75642  52.01911    1.2288  23.06645     57673.27 
    14.35068  2.10358  5.41004       2.55799          3676.8741  0.00153  0.24138     0.01518  3.69452     18.86974   4559.37969   -35.16738  0.15788  5600.28528  0.00412  57580.23262  51.99055   0.07988  23.15731   57676.9214 
    13.59493  1.47677  2.72772       4.99728         3215.20039  0.02175  0.28771     0.01867  2.97533     19.52741   5398.49611   -33.87457  0.21244  6173.32935  0.01871  57581.52543  52.04835   1.06963   23.1464  57679.68752 
    12.79459  1.77182  1.80013       4.07025         3132.82331  0.00182  0.33436     0.01892  3.44486     18.77807    7947.9728   -38.86989  0.64289  6938.31188  0.00333  57576.53011  52.16815   0.09319  23.12631   57676.9214 
    13.70708   1.8106  2.93526       3.90632         3263.00331  0.02468  0.26931     0.01876  2.96664     20.14881   9647.86132   -30.43525  0.19383  6403.82365  0.07826  57584.96475  52.07982   1.21268  23.09257   57676.9214 
    14.30719  1.63429  5.07498       2.46339          3697.7491  0.01604  0.23959     0.01267  4.42262     20.49737   7378.56435   -32.61833   0.1944  5607.78627  0.17462  57582.78167  52.01279   0.88059  23.15322   57676.9214 
    13.88761  1.61678  4.30872       4.57388          3193.6918  0.01248  0.26349     0.01775  4.09471     17.23217   4951.03822   -35.37669  0.29832  6421.53839    9e-05  57580.02331  52.12158   0.67138  23.13652   57676.9214 
    13.74588  1.77949  2.96018       2.01004          3710.5098  0.02917   0.2592     0.01241   3.2693     20.09725   4935.35195   -34.79444  0.18471  5678.70364   0.0695  57580.60556  51.98769   1.47379  23.16512   57676.9214 
    14.20264  1.91615  5.49239       2.47333         3610.53394  0.07468  0.26035     0.01829  3.21451     18.47408   7907.67594   -30.29305  0.22195   5869.0166  0.00166  57585.10695  52.01421   3.75553  23.13725   57676.9214 
    14.15425  1.77844  4.68857       4.92683         3198.42108  0.01832  0.26326     0.01639  3.32948     18.54795   7460.80206   -30.15321  0.18792  6121.79812  0.00196  57585.24679  52.05521   0.93049  23.09953   57676.9214 
    13.98907  1.76716  4.80476       2.32421          3610.5282  0.01977  0.27822     0.01331  3.72312     19.94948   3617.43807   -37.11685  0.31607  5471.00068  0.04945  57578.28315  51.97118    1.0361  23.11798  57674.15529 
    13.51126  1.31942  3.72034       1.47962          3630.6361  0.01185  0.28101      0.0111  5.27481     17.19801   3399.59987   -36.83738  0.65045  6516.13795    9e-05  57578.56262  52.16289   0.68073  23.07996   57676.9214 
    14.35919  1.85305  5.96924       1.79212         3730.72298  0.00512  0.26793     0.01423  4.40053     19.96944    7246.3931   -33.80082  0.23992  5802.39494  0.05178  57581.59918  52.04185   0.28086  23.07788  57674.15529 
    14.11395  1.76084  4.92427       1.93185         3617.28831  0.00269  0.24174     0.01602  3.88993      18.9622   4807.06304   -37.89041  0.22979  5239.31013  0.00509  57577.50959  51.93882   0.14254  23.13364   57676.9214 
    14.28336  1.63202   5.3868       2.29353         3862.86125  0.01336  0.17776     0.01213  4.18946     19.79273   3374.81644   -32.52154  0.19217  4999.36171  0.03447  57582.87846   51.9068   0.72308  23.22056     57681.33 
    13.64509  1.90773  2.86661       4.55086         3143.38029  0.00974  0.31288     0.01633  3.47531     19.20888   4859.62882   -35.01678  0.22018  6721.51702  0.00899  57580.38322  52.14165   0.50103   23.1318   57676.9214 
    13.49857  1.91739  2.81889       4.73471         3116.90359  0.02229   0.2828     0.01949  3.48886     18.83457   5742.94143   -34.14734  0.28826  6887.05549   0.0038  57581.25266  52.16326   1.14749  23.13277   57676.9214 
    14.02925  1.66875  4.55244       2.73169         3511.92259  0.02041  0.27725     0.01865  3.42477     17.63835   9310.80831   -34.60845  0.23436  6053.51736  0.00024  57580.79155  52.04894   1.04481  23.10524  57674.15529 
    14.03621  2.09688  5.15492       1.73697         3804.11424  0.01104  0.28275      0.0145  3.54985     18.23473   8384.96528   -35.11684  0.30619  5615.72201  0.00095  57580.28316  51.98811    0.5708  23.12932  57679.68752 
    14.42643  1.72778  3.83188       3.75869         3356.91481   0.0179  0.17676     0.01128  5.87435     20.14546   5842.46958   -34.83964  0.06776  6439.77439  0.07766  57580.56036  52.16427   1.05601  23.13016   57676.9214 
    13.45025  1.49893  3.56944       2.62035         3344.48044  0.09652  0.20684     0.02381  4.02159     17.97073   8688.47163   -30.79897  0.48822  6715.50793  0.00052  57584.60103  52.15835   5.16631  23.13196  57674.15529 
    13.88389  1.75535  4.94232       1.88491         3727.11367  0.24958  0.25075     0.01749  3.63082     19.70254   4602.84305   -26.83881   0.3548   6530.3691  0.02801  57588.56119  52.12191  12.98995  23.10374   57676.9214 
    13.83544  1.65204   4.3116       4.94384          3116.0844  0.00471  0.20501     0.01494  5.34785     17.27064   5732.27333   -35.04958  0.34281  6653.33975   0.0001  57580.35042  52.18249    0.2716  23.14158     57673.27 
    13.86108  1.83234  5.45517          1.73         3645.10602  0.01186  0.33013     0.02365    2.765     19.68486   8155.63673   -30.99586  0.54669  6201.65455  0.02689  57584.40414  52.04286   0.57074  23.11482  57674.15529 
      13.895  1.59053   3.9602       4.78744         3136.37675  0.05138  0.29279     0.01104  4.58622     19.22016   3189.24919   -37.35999   0.2644  6031.61375  0.00922  57578.04001  52.08021   2.84808  23.17029   57676.9214 
    13.75347   1.9113  4.64449       1.52135         3656.71785  0.00274  0.31459      0.0206  2.79453     20.05947   8897.55499   -32.85446  0.50093   6016.0706  0.06371  57582.54554  52.01786   0.13216  23.13332  57674.15529 
     13.3028  1.95732   2.5521       2.25329         3390.41127  0.02146  0.30548     0.02919  2.61473     18.03333   9054.96146   -35.17599  0.34673  6655.97567   0.0006  57580.22401  52.09691   1.01521  23.15884   57676.9214 
    13.80635  1.59283  3.84917        2.1437         3495.69472  0.10197   0.2833     0.01487   3.8219     17.44822    4258.0041   -33.43778   0.2771  6307.60679  0.00016  57581.96222  52.09791   5.38322  23.05456   57676.9214 
    14.23147  1.96911   5.4642       4.62046         3161.07249  0.00232  0.31201     0.01518   3.7865     20.07348    5257.5692   -37.44613  0.24687   5654.3774   0.0658  57577.95387  52.00184   0.12193  23.08841   57676.9214 
    13.71582  1.63287  3.98361       2.50887         3537.99558   0.0745  0.33863     0.01535  3.55244      19.7437    4735.7163   -40.56187  0.38284  5571.05785  0.03079  57574.83813  51.98127   3.85384  23.14114   57676.9214 
    13.62989  1.76447  5.36703       4.49618         3197.80914  0.33974  0.29627     0.02194  4.66092     17.02573   9016.07221   -31.44535  0.78606  6736.86709    6e-05  57583.95465  52.17809  18.91008  23.14483   57676.9214 
    14.16712  2.05581  8.63478       1.37497         3691.41476  0.19084  0.33931     0.04982  3.74529         16.5   5152.38648   -26.93063  0.90984  6623.83633    2e-05  57588.46937  52.13798  10.01854  23.16847   57676.9214 
    13.05587    1.596   2.1332       1.33548         3779.51682  0.13144  0.33576     0.01807  3.27285     19.54118   5719.65681   -37.38765   0.4529  6354.28137  0.01932  57578.01235  52.08546    6.6437  23.14983   57676.9214 
    14.13506  1.88951  5.23681       4.32305         3137.95325  0.00246  0.25355       0.027  3.02809      19.1736   3827.40864   -30.78629   0.2331   6214.6338  0.00829  57584.61371  52.05639   0.12178  23.10122  57674.15529 
     14.0276  1.86492  5.79066       1.57494         3763.82737  0.06649  0.31352     0.02369  3.13254     16.23753    3397.7883   -32.38724  0.40954  6089.23503    1e-05  57583.01276  52.04297   3.31851  23.15123  57679.68752 
    14.08385  1.69122  6.20762        4.4591          3184.1464   0.0426  0.23599     0.02066  4.68934     18.94274   4777.90185   -30.32282  0.46399  6486.81912  0.00487  57585.07718  52.14592     2.375  23.13529   57676.9214 
    14.40374   1.8827  5.68195        3.6086         3267.55886  0.00461  0.24008     0.01456  4.06358     18.24191   4945.03127   -33.98219  0.16415  5778.51766  0.00097  57581.41781  52.02905   0.24742  23.11734  57674.15529 
    13.44575  1.74696   2.3123       0.86471         3646.02289  0.00423  0.26678     0.01957  3.64726     20.62504   9074.08352   -37.14727  0.24482     6753.19   0.2343  57578.25273   52.1516   0.22027  23.10646   57676.9214 
    13.97353  1.74146  4.64141       4.04271         3191.15288  0.01196  0.31668     0.01686  3.79175     18.22655   3452.56472   -34.64498  0.30484  6471.75505  0.00094  57580.75502  52.11928   0.62974  23.10814   57676.9214 
    14.10781  2.09638  5.22956       2.19787         3627.17069  0.18707  0.21274     0.01302  4.73294     20.07856    8539.7535   -29.31134  0.24028  6247.87246  0.06657  57586.08866  52.11436  10.45407  23.13432   57676.9214 
    14.09556  1.80809  5.27539       4.85065         3156.55288  0.01717  0.24188     0.01329  5.27342     20.03043   5788.13232   -35.75137  0.32368  6247.03298  0.05959  57579.64863  52.12623   0.98611  23.10192   57676.9214 
    14.73594  2.00532  7.19129       2.51034         3538.32489  0.03778  0.26293     0.01353   3.9405     19.39354   4989.66296   -30.77335   0.1402  5447.31189  0.01375  57584.62665  51.97416   2.01099  23.13182   57676.9214 
    14.19023  1.68221  5.73587       4.90487         3108.28391  0.09825   0.2047     0.01377  4.72532     18.87477   9163.86198   -27.48825  0.26834  6177.14638  0.00416  57587.91175  52.10429   5.48785  23.14763  57674.15529 
     13.8724  1.61232  5.17813       2.27906         3665.88496  0.00843  0.25251      0.0199  3.85685     17.53553   5764.08279    -32.6684  0.48043  6233.98497  0.00019   57582.7316  52.08879   0.44613  23.20201  57679.68752 
    14.10601  1.62383  4.17336       2.60761         3693.07596  0.00128   0.2711      0.0104  3.87311     20.68024   3992.60129   -33.79824  0.21231  5457.38978  0.26605  57581.60176  51.97373   0.06765  23.18389   57676.9214 
    13.39916  1.53588  2.58788       3.26794         3367.34497   0.0131   0.2497     0.01062  4.16819     17.34309   5038.69398   -37.95342  0.32009  5922.99758  0.00012  57577.44658  52.05346   0.70781  23.12523   57676.9214 
    14.27835  1.76223  5.03721       4.86516         3144.49401  0.16688  0.26679     0.01337  4.91708     19.42211   5777.59107   -33.71417  0.16356  6179.70174  0.01468  57581.68583   52.1091   9.41742  23.15268   57676.9214 
     13.9713  1.67437  4.87754       2.93664         3301.18713  0.02075  0.25926     0.01297  4.24141      18.0435   3254.30707   -38.17453  0.33301   5442.9089  0.00061  57577.22547  51.98206   1.12691  23.11889   57676.9214 
    14.11665  1.87383  4.68176       1.53941         3850.06942  0.03059  0.21188      0.0103  4.42542     18.89682    7748.2175   -36.79845  0.20225  5333.74407  0.00438  57578.60155  51.96935   1.67949  23.12664  57679.68752 
    14.07483  1.82133    4.907       4.11732         3273.05012   0.0289  0.22327      0.0158  3.29211     17.66284   8178.69056   -30.39265  0.23366  5551.62517  0.00026  57585.00735  51.96889   1.46306  23.13424  57679.68752 
    14.37096  1.74932  5.35125       4.44033         3292.92056  0.02385  0.16238     0.01162  5.45673     18.27568   7861.48702   -34.10967  0.14773  5752.42789  0.00105  57581.29033  52.05831   1.38172  23.08647   57676.9214 
    14.44155  1.98372  6.95187       2.98679         3500.71276  0.35271  0.28061     0.03505  2.94294     19.87894   6634.77949   -26.94708  0.18349    5859.764  0.04204  57588.45292  52.00168  17.28636  23.13889     57673.27 
    13.22474  1.55504  1.93274       4.45732         3238.34747  0.00736  0.32324     0.01608   2.7685     18.54394   7288.24553   -30.41573  0.25528  6336.71651  0.00194  57584.98427  52.06174   0.35404  23.11172   57676.9214 
    14.00053  1.67172  4.31379       2.57156         3642.33008  0.01239  0.30527     0.01289  3.43768     18.85356   6393.72023   -36.78509  0.23599  5455.21368  0.00397  57578.61491  51.95901   0.63485  23.14638  57679.68752 
    14.40752   1.9234  5.74738       1.63199         3833.49585   0.0677  0.31824     0.01529  3.59218     19.91262    5689.7972   -34.89489  0.17932  5579.90897  0.04543  57580.50511  51.98399   3.51317   23.1526   57676.9214 
    13.07366  1.58673  2.21758       2.23697          3457.1125  0.00103  0.31281     0.01866  2.89119     16.53632   7252.14622   -36.75161  0.47442  6029.80464    2e-05  57578.64839  52.02424   0.05014  23.08887  57674.15529 
    13.56718  1.76394   3.3964       3.25843         3382.66191  0.00158  0.23689     0.01271  4.00087     17.70105   8034.51918   -39.02885  0.36382   5575.4141  0.00028  57576.37115  51.99614   0.08422  23.13694   57676.9214 
    13.91152  1.64107  3.61975       4.57056         3204.49935  0.02185  0.25889     0.01141  3.84521     19.91607   3456.33292   -39.55731  0.19371  5454.22334  0.04579  57575.84269  51.97237   1.15525  23.12789   57676.9214 
    13.54017  1.84183  3.06445       4.98429         3196.44989  0.02324  0.19824     0.01229  3.98767     20.09862   4972.74225   -34.95343  0.31261  5880.86913  0.06972  57580.44657  52.04208   1.24113  23.10076  57674.15529 
