 log(Bfield)      Mns    Pspin  cutoff_power  cutoff_wavelength  fnickel    kappa  kappagamma   mejecta  log(nhhost)  temperature  texplosion  thetaPB     vejecta      A_V        MJD_0   log(KE)      M_Ni  Peak_mag     Peak_MJD 
    13.61033  1.89762  3.88446       4.39305         3369.65133  0.14691  0.01014      0.0604  99.35618     16.74207    8800.7788   -15.45929  1.26905  1919.48271    3e-05  58330.65099  51.34159  14.67727  17.77632  58455.44561 
    13.96131  1.72197  4.72984       4.50418         3284.59871  0.22449  0.01002     0.01871  95.89987     17.12024   9440.70696   -15.38354  0.40149   1853.2461    7e-05  58330.72674  51.30886  22.31263  17.78567  58455.44561 
    13.99046  1.81535  6.52253       4.18394         3546.24129  0.26832  0.01107     0.02583  92.79408     17.60006   9752.36728   -16.37606  0.32889  1780.73507  0.00022  58329.73422   51.2721  26.54191  17.78705  58455.44561 
    13.60644  1.58876  3.88716        4.1427         3248.78773   0.2114  0.01019     0.03042  95.44037     19.18942   9149.85421   -16.09989  0.80853  1895.51249  0.00859  58330.01039  51.32814  20.99713  17.78289  58455.44561 
    13.85847   1.6544  4.68293       3.83969         3530.00616  0.23342  0.01034     0.09934  89.65299     18.76383   9354.29054   -16.84981  0.42098  1851.52083  0.00323  58329.26047  51.30377   22.9736  17.76857  58455.44561 
    13.70483  1.61536  4.44502       4.92373         3254.24949   0.2361  0.01075      0.0513  89.26733      17.0486   8354.27555   -17.03604  0.63111  1887.44947    6e-05  58329.07424  51.32019  23.22249  17.77148  58455.44561 
    13.59016  2.14845  5.57169       4.91188         3552.28213  0.24448  0.01111      0.0147  89.14012     18.66921   7603.53566   -16.73742  0.86622  1856.87727  0.00259  58329.37286  51.30591  24.04167  17.78798     58456.25 
    13.71486  2.03243  5.94345       4.33528         3378.22955  0.26173   0.0104     0.40648  97.32484     16.78475   7713.17245   -17.46896  0.51828  1813.44967    3e-05  58328.64132  51.29093  26.07004  17.78295     58456.25 
    13.69867  1.84818  4.53219       4.87376         3557.80606  0.18215  0.01053     0.18914   96.4701     18.00792   9179.03129   -17.31364  0.88979  1754.57202  0.00057  58328.79664  51.26171  18.12009   17.8082     58456.25 
    13.80846  1.83051  5.04221       4.67908         3413.87897   0.2217   0.0101     0.01471  95.39635     16.89109   9173.24114   -15.29918  0.53909  1899.58847    4e-05   58330.8111  51.32998  22.01861  17.78713  58455.44561 
    13.29276  1.49835  4.30091       4.24003          3393.5965  0.26277  0.01032     0.02752  87.38678     18.60248   9841.68032   -14.98663  1.17185  1931.53723  0.00222  58331.12365  51.33888  25.76423   17.7633   58462.3125 
      13.605  1.91821  5.11979       3.80031         3449.99437  0.22492  0.01027     0.02246  95.65768     16.30531   9683.27031   -16.73262  1.52949  1867.96554    1e-05  58329.37766  51.31557  22.34793  17.78021  58455.44561 
    13.66531  1.69701  4.48328       4.66446         3318.29163  0.20988  0.01008     0.02319  99.48618     17.28958   7455.85228   -18.11825  0.81422  1822.93441  0.00011  58327.99203  51.29685  20.97221  17.79166  58456.75066 
    13.68228  1.99647  4.57664       4.53384         3340.78187  0.19051  0.01003     0.08794  98.64192     16.26818   9289.31554   -18.35807  1.27002  1792.38343    1e-05  58327.75221  51.28163  19.01341  17.79318  58456.75066 
    14.13385  2.10386  4.78174       4.46059         3114.17554  0.21486  0.01017      0.4321  95.44688      18.9738   8975.63236   -15.92451  0.38957  1958.17396  0.00523  58330.18577  51.35639   21.3414  17.78771  58455.44561 
    13.42186  1.27661  3.18737       4.00988         3531.95533  0.17421  0.01097     0.03925  97.12758     17.13193    9738.6058   -19.36454  1.00203  1768.56992    8e-05  58326.74574  51.26904  17.34792  17.79301  58459.42344 
    13.91364  1.77708  6.71722       3.84933         3433.40599  0.28619  0.01113      0.1057  89.22335     17.24203   9308.43985   -15.54027  0.52446    1851.684   0.0001  58330.57001  51.30354  28.14727  17.78535  58456.75066 
    13.62427  1.77484  4.92095       4.82664         3432.03293  0.23198  0.01097     0.08284  89.67444     16.62837   8198.06719    -16.5608  0.93916  1839.04121    2e-05  58329.54948  51.29791  22.83228  17.78293     58456.25 
    13.54929  1.75361  4.96229       4.87029         3383.29543  0.22829  0.01022     0.08821  98.72603     19.47124   9277.95102   -15.70522  0.93597   1835.7599  0.01644  58330.40506  51.30245  22.78635  17.78981  58456.28906 
    13.69444  1.88514  4.25967       3.44034         3364.58977  0.19344  0.01044     0.01058  99.93364      16.1506   8862.01819   -18.90376  1.09913  1832.31335    1e-05  58327.20652  51.30158   19.3419  17.78214  58456.75066 
    13.62592  1.65829  5.17974       4.88035         3300.82874  0.23565   0.0101     0.02644  98.88211     18.09917   9146.80171   -16.44739   0.8363  1837.89054   0.0007  58329.66289  51.30356  23.52647  17.78211  58455.44561 
    13.50043  1.56243   4.2398        4.3159         3421.25173  0.21055  0.01008     0.04052  97.07489     18.42434   9263.39201   -18.12434  1.03112  1822.00777  0.00148  58327.98594  51.29486  20.96469   17.7926  58456.75066 
    13.47014  1.43874  3.31942       3.92834         3622.33141  0.17095  0.01076      0.0199  95.43255     19.56819   7474.61615   -17.07262  0.90864  1900.74916  0.02055  58329.03766  51.33053  16.97965  17.78541  58455.44561 
    14.05627  2.03436  4.27331       3.92867         3615.67781  0.15822  0.01084     0.24972  96.72961     18.37697   7969.95703   -19.56109  0.36917  1784.35729  0.00132  58326.54919   51.2765  15.74625  17.77498  58456.75066 
    14.03182  1.89661  3.96836       4.95408          3060.8642  0.19619  0.01167     0.25776   92.4059     19.09531   8248.53471   -18.41869  0.40291  1927.86538  0.00692  58327.69159  51.34079  19.39443  17.79175  58455.44561 
    13.39345  1.44088  4.64425       4.52012         3265.23224  0.25315  0.01014     0.30135   95.8915     17.95807   8799.07456   -15.50505  0.91609  1883.40255   0.0005  58330.60523  51.32287  25.16186  17.79821  58456.75066 
    13.51216  1.65251   4.9781       4.32225         3351.97781    0.253     0.01     0.15358  95.34101     18.00734   9079.22584   -16.80319  0.71258  1836.55633  0.00057  58329.30709  51.30063  25.12497  17.79602  58456.75066 
     13.4421   1.4293  4.05441       4.74872         3476.02033  0.20634   0.0105     0.01504  97.05883     17.78277   9710.84469   -18.30858  1.16722  1757.98051  0.00034   58327.8017  51.26378  20.54507  17.78271  58455.44561 
    13.68852  1.74208  4.32305       4.98886         3436.38505  0.19906  0.01044     0.06873  89.97721     19.37299   8203.09511   -14.30018  0.78501  1858.03601  0.01311   58331.8101  51.30705  19.60194  17.75383  58455.44561 
    13.74066  2.08638  5.05309        4.6471         3247.09394  0.22641  0.01166     0.02221  91.54736     16.61077    9448.6864   -19.14055  0.98645  1864.31015    2e-05  58326.96973  51.31108  22.35168  17.75839  58455.44561 
    14.03784   1.7759  4.58223       3.94644         3320.56945  0.22828  0.01097     0.14898  93.94898     16.64999   9067.55163   -18.07174  0.40842  1860.27261    2e-05  58328.03854  51.31084  22.62202   17.8117  58455.44561 
    13.64319  2.11805  2.50366        2.0495         3332.07861  0.00487  0.04556     0.01119  63.98757     19.37585   8888.69788   -20.27509   1.4557  2583.44021   0.0132  58325.83519  51.57104   0.45572  17.78367  58455.44561 
    13.61609  1.54031  4.05912       4.90874          3335.0068  0.21294   0.0101     0.07619  95.73422     19.02804   7637.44902   -17.31669   0.7625  1825.07203  0.00593  58328.79359  51.29544   21.1595  17.77684  58455.44561 
    13.41347  1.40039  3.88919       4.73644         3434.24665  0.19847  0.01001     0.12759  99.72903     17.72792   9941.18705   -17.05562  1.37663  1791.57117   0.0003  58329.05466  51.28192  19.83899  17.75232  58455.44561 
    13.57802  1.78356   4.0493       4.98874         3399.39471  0.16831   0.0103     0.39303  99.36077     19.39824   9349.23131   -17.65209  1.32282  1803.86116   0.0139  58328.45819  51.28763  16.81509  17.77274  58455.44561 
    13.68061  1.81157  4.60997       4.26695            3336.22  0.21855  0.01066     0.01067   95.3437     17.27108   8329.46287   -17.72087  0.79215  1883.48245   0.0001  58328.38941  51.32255    21.704  17.78235  58455.44561 
    13.87697  1.94031  5.45415       4.92246         3395.75573  0.26409  0.01164     0.01726  87.17283     17.55773   9915.17415   -16.63741  0.36411  1897.38082   0.0002  58329.47287  51.32323  25.88432  17.78041  58455.44561 
    13.43068  1.62682  4.61888       4.29759         3428.11215  0.25786  0.01052     0.09151  89.67013     17.32916   8644.57913   -13.73824  0.82833  1961.51066  0.00012  58332.37204  51.35391  25.37942   17.7711  58456.28906 
    13.48014  1.67793  5.02097       4.30274          3423.5397  0.23848  0.01057     0.04843  96.43395     17.85681   9626.35347   -18.35242  1.13873  1818.87066   0.0004  58327.75786  51.29294  23.72264  17.78196  58455.44561 
    13.97848  1.40865  4.72692       4.26422         3566.50701  0.23769  0.01044     0.01105  94.05998     17.49986   9399.44054   -15.41335  0.27264  1840.76208  0.00018  58330.69693  51.30176  23.55895  17.77444  58455.44561 
    13.70274  1.96907  5.39323       4.08287         3549.41842  0.21851  0.01044     0.24496  94.82725     17.33352   8651.76093   -16.11933  1.13199    1775.463  0.00012  58329.99095   51.2709  21.68295  17.79851  58456.75066 
    13.50769  1.85746  5.85425       3.71769         3448.56172  0.25905  0.01004     0.03141  98.78444     16.09449   9882.17983    -17.7261  0.95118  1795.31074    1e-05  58328.38418  51.28314  25.85942  17.77033  58456.28906 
    13.68255  1.83734   3.8616       4.41001          3380.7403  0.16669  0.01104     0.01002  95.82332     18.50831   9247.85621   -18.66155  0.89845  1822.07803  0.00179  58327.44873  51.29407  16.56655  17.80831  58455.44561 
    13.59416  1.94553  5.71447       4.83101         3258.21068  0.25045  0.01059     0.39442  93.99686     17.12859   8779.71164   -16.61188  1.28914   1872.3278    7e-05   58329.4984  51.31649  24.82062  17.78124  58456.28906 
    13.43512  1.43867  3.60426       4.86824         3489.75932  0.18161   0.0102     0.18344  94.01372     16.02049   9998.00461   -14.34963   1.3319  1820.61796    1e-05  58331.76065  51.29217  17.99857  17.79101  58456.28906 
    14.06607  1.65502  4.60164       4.05388         3483.74656  0.21639  0.01017     0.02256  99.25387     17.97893   9719.48788   -17.37246  0.25172  1895.17703  0.00053  58328.73782  51.33046  21.61546  17.77393  58455.44561 
    13.67385  1.99196  4.88941       4.80357         3452.82947   0.1876  0.01001     0.04764  98.06674     16.44484   9640.88082   -16.51931   1.3168  1741.15626    2e-05  58329.59097  51.25607  18.70673  17.77946  58456.28906 
    14.11817  1.80198  5.14687       4.75996         3513.49712  0.24207  0.01118     0.02776  88.77448     18.84756   9527.12493   -17.25548  0.23869   1850.1568  0.00391   58328.8548   51.3025  23.79045  17.78245  58455.44561 
    13.39875  1.83054  5.72584        4.8449         3460.29634  0.25657  0.01058     0.24422   93.9901       16.541   9360.25717   -14.34135  1.28745  1823.41216    2e-05  58331.76893  51.29349  25.42671   17.7857     58456.25 
    14.02695  1.92154  4.74265       3.55388         3293.18977  0.21692  0.01027     0.01678  98.82144     18.17965   9758.51399   -19.53835  0.42012  1831.94518  0.00084  58326.57193  51.30071  21.65451  17.80255  58459.42344 
    13.57935  1.46254  3.12789       4.98795         2926.44892  0.17915  0.01025     0.13466  99.24211     16.57376    9838.4813   -16.88236  0.98721  1935.48869    2e-05  58329.22792  51.34873  17.89518  17.78398  58456.75066 
    13.66153  2.09233  2.49671       2.12401         3241.39152  0.02029  0.03969     0.01292  67.50816     19.48766    9081.2349   -20.69564  1.49584  2684.50769  0.01708  58325.41464  51.60795   1.91415  17.79808  58455.44561 
    13.44841  1.38906  4.25272       4.18435         3326.45801  0.24976  0.01042     0.03191  91.80209     19.00948   8171.48828   -16.05307  0.95965  1905.12979  0.00568  58330.05721  51.33007  24.66674  17.77971     58456.25 
    13.57088  1.84454   5.3284       4.86362         3276.12907  0.24658  0.01046     0.02058  91.55695     18.03446   9434.68766   -15.65219  1.20708  1860.11401   0.0006  58330.45809  51.30913  24.34324  17.78732  58455.44561 
    14.00714  1.86712  4.81577       4.61492         3344.55002  0.21873  0.01013     0.04537    94.907     16.40353   9651.99385   -15.06148  0.36515  1853.69673    1e-05   58331.0488  51.30841  21.70757  17.77444     58456.25 
     13.4537  1.61884  3.68144       3.92852         3410.79466    0.187  0.01072     0.46424  93.13466     18.87836   7265.71555   -17.52955  1.39023  1947.09147   0.0042  58328.58073  51.34991    18.508  17.78614  58456.75066 
    13.73723  1.66341  4.60879       4.65186         3411.86558  0.21294  0.01006     0.04401  99.81082     16.04731   8048.59271   -17.25044  0.51667  1918.97484    1e-05  58328.85984  51.34165  21.28799  17.78172  58456.75066 
    13.44518  1.45218  4.00024       4.46162         3427.47008  0.20196  0.01025       0.051  99.78503     16.20243   8928.58034    -18.4132  1.30811  1813.22363    1e-05  58327.69708  51.29239  20.18941  17.78916  58455.44561 
    13.64517  1.78073  4.08684       4.57079          3351.3747  0.18249  0.01111     0.05897  98.52069     18.40043   8885.51242   -17.04035  1.51375  1797.41879   0.0014  58329.06993  51.28399  18.20959  17.77771  58455.44561 
    13.75417  1.91176  4.86418       4.44933         3413.61836  0.20975  0.01117     0.34115  94.81011     18.18173   9420.91969   -18.37667  0.99937  1777.54828  0.00084  58327.73361  51.27191  20.81378  17.77889  58455.44561 
    13.56057  1.67418  4.90111       4.94105         3385.33259  0.21842  0.01003     0.01059  99.08325     16.15255   9786.12369   -17.33808  1.06078  1752.31311    1e-05   58328.7722  51.26227  21.81277  17.77873  58455.44561 
    13.59513  1.77669  4.45992       4.17248          3464.1576  0.20497  0.01062     0.02875  95.19764     17.51441   9334.79278   -18.02362  0.99576  1809.89946  0.00018  58328.08666  51.28783  20.35158  17.77315     58456.25 
     13.5839  1.57222  4.22146       4.63006         3459.46117  0.20802  0.01044     0.10116  91.17682     18.04173   9095.25514    -15.6503  0.87233  1858.79647  0.00061  58330.45998  51.30825  20.52404  17.79233     58456.25 
    13.77732  1.73386  3.45074       4.59137         3399.75409  0.14125  0.01064     0.46244  98.78662     18.24477   7926.28666   -16.39278  0.61452  1809.93112  0.00098   58329.7175  51.29018  14.09991  17.79351  58455.44561 
    13.81923  1.74518  4.03373       3.36733         3452.08541  0.18468  0.01003     0.01011  97.49407     17.44485   9796.78426   -16.64672   0.7038  1814.92761  0.00015  58329.46356  51.29175  18.40048  17.77514  58459.42344 
    13.52767  1.71268  5.10865       4.98755         3322.70626  0.26345  0.01086     0.09966  87.74521     17.79373   8625.00448   -14.40438  0.91207  1893.62709  0.00035   58331.7059  51.32193   25.8471  17.79073  58455.44561 
    13.56292  1.84469  5.24677       4.60635          3265.2052  0.23511     0.01     0.09535  94.90194     16.77352    7813.3905   -16.97094  1.53925  1870.88646    3e-05  58329.13934  51.31642  23.33332  17.77836  58455.44561 
    13.59167  1.77205  4.10265       4.69775         3420.76884  0.20214  0.01232     0.01839  83.93925     19.04861   7363.08043   -15.96015  1.24229  1900.12733  0.00621  58330.15013  51.32205  19.70247   17.7928  58455.44561 
    13.73362  1.91664  5.66061       4.35487         3370.86958  0.24606  0.01033     0.12793  98.56165     18.55421   9161.05835    -17.6146  0.71632  1793.49255  0.00199  58328.49568  51.28212  24.55482  17.77847  58455.44561 
    13.42674  1.47899  3.46483       4.55552         3509.43354  0.16507   0.0112     0.03032  97.05461     16.52652   8774.06414   -16.91917  1.49578   1909.2419    2e-05  58329.19111  51.33547  16.43529  17.79569  58455.44561 
    13.67038  1.78229  4.64438       4.31152         3372.06647  0.22033  0.01068     0.25327  93.13946      18.8113   8331.94295   -18.76327  0.94752  1835.48821   0.0036  58327.34701  51.29864   21.8069  17.78968     58456.25 
    13.93103  1.91017  3.95162       4.62572         3246.18092  0.19987  0.01444     0.08781  82.33977     17.61758   7417.56462   -18.70417  0.54152  1971.20956  0.00023  58327.40611  51.35271  19.42543  17.77914  58465.27472 
    13.52441  1.73494  4.16231       4.79705         3437.70231  0.19209  0.01079     0.02185  93.46814      16.4557   8364.67296   -17.69362  1.44981  1819.13849    2e-05  58328.41666   51.2911  19.02087  17.78401  58455.44561 
     13.4866  1.61589  5.01982       4.09639         3491.98736  0.23991  0.01001     0.01433  94.43949     17.75127   8506.48794   -16.09439    1.301  1833.91793  0.00031  58330.01589  51.29878  23.79204  17.78094  58456.75066 
     13.8679  1.71142  4.58256       4.91823         3391.39355  0.20581  0.01002     0.02835  98.48603      17.1661   8817.59258   -16.32141  0.45499  1858.61248    8e-05  58329.78887  51.31305  20.53531  17.77371  58455.44561 
     13.4632  1.63849  5.53752        4.7625         3181.14953  0.27392  0.01053     0.36939  98.44677     16.95029   8660.83654   -17.05235  1.00535  1889.17283    5e-05  58329.05793  51.32719  27.33028  17.77544  58455.44561 
     13.8628  1.50343  5.17624        4.9594         3316.86389  0.25161  0.01004     0.20621  95.56841     18.07449   9915.20838   -15.59152  0.42211  1804.50736  0.00066  58330.51876  51.28549  24.99562  17.79467  58456.75066 
    13.56076  1.43621  3.75149       4.03862         3437.54063  0.19533  0.01033     0.14566  99.67501     17.35866   8159.88547   -16.93954  0.83106  1847.21774  0.00013  58329.17074  51.30846  19.52371  17.80079  58455.44561 
    13.51717  1.62733  4.70469       4.51263         3389.34509   0.2325  0.01017     0.06657   93.4934     16.82926   9024.87428   -17.04408  1.11144  1854.84247    4e-05   58329.0662  51.30799  23.02414  17.76181     58456.25 
    13.40451  1.76497  5.27886       4.52619         3433.16975  0.25196    0.011     0.08189   93.5371      17.0795   9306.49834   -16.57202  1.38036  1865.18631    7e-05  58329.53826  51.31285  24.95233  17.79315  58456.75066 
    13.46001  1.43798  4.58003       4.49409          3371.9323  0.23743  0.01054     0.13345   96.7908      17.2444   5073.97375   -18.67205  1.16818  1841.29608   0.0001  58327.43823  51.30382  23.63114   17.7832  58455.44561 
    13.70305  1.39256  4.61907        4.6973         3415.86915  0.25995  0.01179     0.05476  87.23328     16.78774   7902.66267   -15.55917  0.54909  1857.33845    3e-05  58330.55111  51.30474  25.48115  17.81636  58456.75066 
    13.48368  1.79164  5.57179       4.82583         3347.03497  0.24736  0.01008     0.01011   97.2131     18.81146   8873.51031   -15.88447  1.11141  1863.87714   0.0036  58330.22581  51.31468  24.63468  17.81398  58455.44561 
    13.51953  1.75759  5.89778       4.28855         3130.17667   0.2851  0.01015     0.01796  94.46249     17.74107   8367.79914    -15.9372  1.32061  1881.22034  0.00031  58330.17308  51.32091  28.27493   17.7926  58456.75066 
    13.59635  1.81536  5.31266       3.34021         3545.80798  0.26379  0.01003     0.02245  96.29109     17.92172   9728.88023   -15.44504  0.51413   1872.4468  0.00046  58330.66524  51.31807  26.23477  17.77702  58455.44561 
    14.04495  1.68624  4.49597        4.7158         3471.87348  0.20578  0.01041     0.02159  90.40386     17.96745   9394.06987   -14.90877  0.33344  1800.90211  0.00052  58331.20151  51.28022   20.2781  17.79785  58456.75066 
