 texplosion  fnickel     Pspin  log(Bfield)      Mns  thetaPB   mejecta    kappa  kappagamma     vejecta  temperature    alpha  cutoff_wavelength  log(nhhost)      A_V         MJD0  kenergy   mnickel             TSD   log(L0)  Peak_mag     Peak_MJD  log(E_rad)  log(Peak_lum)  Rise_Time     E_fold  tau_1  delta_m15     r_peak     frac 
  -20.16574  0.25287   3.62675       13.788  1.81192  1.03799  67.06889  0.02924     0.01955  2537.54362   9768.63644  3.99065         3483.43515     19.38806  0.01358  58325.94454  2.57617  16.95964   5874783.27646  44.63896  17.77533   58462.3125    51.48427       44.22918  103.04809  135.22932  136.0    0.02121  -21.51775  0.46098 
   -17.3132  0.45856    7.7813      14.2483  1.70476  0.45282  59.16469  0.02231     0.10615  2466.65777   9508.30228  3.89527         3357.83926     16.87898    4e-05  58328.79708  2.14737  27.13034   3054807.10596  44.23342  17.77933  58459.42344    51.49036       44.25672  100.96501  133.27381  138.0    0.02445  -21.49196  0.09102 
  -16.47454  0.45734   8.09464     14.55921  1.74294  0.25299  55.45653  0.02418     0.02463  2260.30821   9436.43702  4.20385         3587.43711     16.54151    2e-05  58329.63574  1.69011  25.36232    807379.44543  44.78665  17.77339   58462.3125    51.64278       44.46737   77.36703  114.64951  140.0    0.02437  -21.49538  0.09461 
  -16.94595  0.35933   3.91904     13.98478  1.52604  0.62868  77.54514  0.01652      0.0124  2213.39827   9927.24457  4.66972         3101.77297     20.22516   0.0933  58329.16433  2.26621  27.86451   2334472.55973  44.89786  17.75804   58462.3125    51.66368       44.49188   81.40563  114.64951  142.0    0.02015  -21.55835  0.25883 
  -17.45062  0.41623     9.047     13.90106  1.61188  1.13545  65.28115  0.02189     0.33525  2499.14043   9960.45616   4.3724         3408.03611     17.93673  0.00048  58328.65966  2.43218  27.17184  19321442.53955  43.27713  17.73647   58462.3125      51.689       44.50509   82.32096  109.69559  134.0     0.0206  -21.50674  0.06089 
   -17.8253   0.2821   7.99372     14.31396  1.62477  0.24956  95.25825  0.01432     0.38588   2271.1843    9619.6322  4.50523         3455.12906     16.91783    5e-05  58328.28498  2.93113  26.87244   2270800.81162  44.31796  17.76274  58459.22145    51.47205         44.244   96.92641  130.59748  142.0       0.02  -21.48524  0.07226 
  -19.01995  0.37374   5.30252     14.08942  2.12629  0.85269  63.22453  0.02546     0.03186   2516.3444   8978.81252  4.79191         3109.46365     16.78096    3e-05  58327.09033   2.3881  23.62979   3677502.40108  44.58195  17.76789  58459.22145    51.50443       44.28655   95.56909  130.59253  142.0    0.02217  -21.47967  0.26878 
  -24.06508  0.00161   1.85938     13.56644   1.7765  1.06438  42.41146  0.05024     0.01031  3183.93928   9124.36899  0.40065         3868.18089     17.28685  0.00011   58322.0452  2.56472   0.06829   4199963.10693  45.35643  17.77356     58456.25    51.48974       44.26494   96.92641  129.48693  124.0    0.02633  -21.56224  0.99875 
  -23.87591  0.43475   2.21167     13.98676  1.83532  0.79873  54.38196  0.03341     0.02764  2822.00749    8945.7529  0.73268         3489.42399     17.23868   0.0001  58322.23437  2.58344  23.64271    886021.36204  45.89567  17.76882  58459.22145    51.46806       44.23568   95.56909  130.59253  132.0    0.02158  -21.46597  0.63855 
  -18.83011  0.33066   6.50065     14.03068  1.69888  0.96171  75.95231  0.01629     0.01295  1960.57708    9258.5569  4.00287         3642.76984     18.19255  0.00087  58327.28017  1.74155  25.11462   5788038.38536  44.11056  17.76484  58463.42487    51.60552       44.38783    88.8492  122.01454  146.0    0.02553  -21.47144  0.13992 
  -18.13507  0.41913   6.65311     14.10398  1.70212  0.69923  60.26316  0.02465     0.02537  2405.10582   9342.03318  4.84505         3406.94936     19.38149  0.01337  58327.97521  2.07945  25.25839   4334058.28662  44.21689   17.7614   58462.3125    51.52866       44.29606   94.32782  125.53602  138.0    0.02165  -21.51177  0.13251 
  -15.78525  0.36797   6.64997     14.20405  1.63566  0.65385  73.14626  0.01795      0.1963   2323.4743   9723.82736  4.17728         3352.23952     18.12797  0.00075  58330.32503  2.35556   26.9159   2624543.10111  44.41785  17.77457  58459.42344    51.45624       44.21233  103.04809  135.22932  138.0    0.02143  -21.49004  0.12183 
   -18.9576  0.29605   8.66673     14.52667  1.70692  0.16925  88.06775  0.01486      0.0367   2188.4245   9892.73976   3.9478          3632.3043     17.96746  0.00052  58327.15268  2.51598  26.07288   1052918.17667  44.60295   17.7459  58465.27472    51.67743       44.50581   77.36703  108.40858  140.0    0.02391  -21.47077  0.06819 
  -19.15578   0.4671   7.91979     13.97524   1.6461  0.94223  64.59878  0.02133     0.04258  2414.40928    9790.2198  3.74869         3382.84343     20.11243  0.07197   58326.9545  2.24633  30.17431  10745131.47741  43.65666  17.77362  58459.22145    51.47539       44.23885   96.92641  133.46854  140.0    0.02579  -21.54935   0.0761 
  -18.65886  0.26952   6.27597     14.57233  1.67193  0.22615  93.38089  0.01326     0.01008  1927.58138   9302.83435  4.64319         3545.30276     19.56124  0.02023  58327.45142  2.06972  25.16763    438270.99543  45.25496  17.77931  58459.42344    51.47521       44.23343  104.58591   133.6915  146.0    0.02554  -21.48031  0.14529 
  -14.70789  0.40997   8.65853      14.0554  1.79337  0.98451  68.52464  0.01723      0.0202   2108.4421   9514.26513  4.64404         3561.48366     20.19236  0.08651  58331.40239  1.81718  28.09315   9673280.57587  43.66205  17.76032  58459.22145    51.42712       44.20156   99.00949  131.38546  142.0     0.0264   -21.5825  0.07857 
  -17.23133  0.41626    8.1278     14.14878  1.81968  0.67069  63.29552  0.02027     0.07968  2221.75973    9315.9342  4.49559         3444.53999     19.30045   0.0111  58328.87895  1.86378  26.34708   5626066.14315  43.95869  17.78324  58459.22145    51.47561       44.24896   95.56909  131.94475  142.0    0.02051  -21.49225  0.09494 
  -15.87642  0.46494   6.83093     14.30539    1.681  0.31694  52.83889  0.02471     0.02308  2419.51493   9443.51959  4.30661         3495.28546     18.88245  0.00424  58330.23386  1.84517  24.56717    1784650.8635   44.5739  17.77577  58456.28906    51.49568       44.27205   95.56909  130.59253  140.0    0.02562  -21.50742  0.12147 
  -18.25076  0.37157   6.97025     14.01416  1.63962  1.36551  74.71553  0.01816     0.43257  2254.06084   9299.40514  4.58203         3369.28995      19.8465  0.03901  58327.85952  2.26448  27.76227    6930038.9319  43.95636  17.75261   58462.3125    51.60339        44.4015   89.83029  121.64563  142.0    0.02297  -21.51637  0.10932 
  -20.43212    0.285   3.99871     13.66924  1.67931  1.26999   70.6022  0.02407     0.05739  2702.57794   9446.82694  3.73716         3352.46758     19.09954  0.00699  58325.67816  3.07611  20.12176  11436727.25978  44.23183  17.79616  58455.44561    51.50358       44.26842   96.92641  129.23521  138.0    0.02116  -21.51534   0.3389 
  -20.69605  0.30168   3.95181     13.86926  1.66066  1.01738  80.22914  0.01908     0.25623  2202.09978   9709.99108  3.74117          3406.9278     20.03301  0.05994  58325.41423  2.32078  24.20355   4397179.72282  44.65236  17.78487  58459.22145    51.49886       44.27007   99.60769   131.9548  140.0    0.01957   -21.5145  0.31043 
  -18.13611   0.3706   7.28217      14.4996  1.60754  0.41401   79.2647   0.0148     0.11116  2162.35832   9833.98387  2.83543         3583.01339     16.70547    3e-05  58327.97417  2.21087  29.37552    793031.21193  44.85119  17.77843  58459.22145     51.4666       44.22995  100.96501  133.27381  140.0    0.02152  -21.46486  0.09504 
  -19.07453  0.26789    5.7386     13.93604    1.887  1.20326  88.79902  0.01791     0.01111  2425.18354   9776.91529  4.57593         3360.82784     17.72413  0.00029  58327.03575  3.11548  23.78816   7746756.81891  44.13789  17.77958  58459.22145    51.45624       44.21865  100.96501  133.46854  134.0    0.02414  -21.49161  0.20416 
  -18.35109  0.32152   6.20494     13.98509  1.64967  0.85458  85.96979  0.01617     0.01724  2293.18624   9635.14344    4.597         3268.54417     19.71115  0.02857  58327.75919  2.69682  27.64079   6316937.84634  44.10026  17.79944  58459.22145    51.51193       44.27766   97.91218  132.28803  140.0    0.02297  -21.50804  0.13238 
  -18.96048  0.45672   5.94713     13.92185  1.83346  1.09185  54.10042  0.03035     0.02604  2664.43474   9499.06348   3.7272         3407.27818     16.19839    1e-05   58327.1498  2.29107  24.70895   8629880.95822   44.0475  17.76802  58456.28906    51.47661       44.23957   95.56909  131.94475  136.0    0.02458  -21.51462  0.17831 
  -17.04655  0.27755   7.77052     13.80268   1.5581  1.46729  94.77041  0.01147     0.01309  1964.68706   9298.80135  4.82142         3415.72209     16.15412    1e-05  58329.06373  2.18216  26.30374  21674672.89899  43.34459  17.77872   58462.3125    51.65577       44.47405     80.772  113.08081  148.0    0.02322  -21.44735  0.08039 
  -20.48853  0.32144   4.58527      13.9709  1.61412  0.73323  75.03143  0.02027      0.1104  2349.01384   9669.58888  4.41486         3269.02032     17.90354  0.00044  58325.62175  2.46968  24.11825   3603137.79735  44.59737  17.76508  58456.28906    51.46056       44.23705   95.56909  131.94475  138.0    0.02324  -21.48179  0.24078 
  -15.50114   0.3416   4.42468     14.01827  1.62536  0.72763  68.52489  0.01931     0.01034  2239.68632   9579.45661   4.8106         3243.90024     17.92456  0.00047  58330.60914  2.05045  23.40793   2716395.66001  44.75404  17.79386  58459.42344    51.47807       44.25989   96.92641  130.58743  140.0    0.02132  -21.48069  0.26445 
   -18.3396  0.48846   8.45907     13.83621  1.69168  1.50605  61.87446  0.02128     0.04201   2288.1046    9625.7829  4.78108         3345.55735     20.19244  0.08653  58327.77068  1.93237  30.22309  23897945.13803  43.26416  17.79168  58459.42344    51.47771       44.24979   99.60769  131.94475  142.0    0.02066  -21.57238  0.06645 
  -19.36526  0.33775   3.87518     13.90513  1.89611   0.9209  65.22835  0.02636     0.01511   2563.6048   9784.41363  4.34675         3047.11952     19.80605  0.03555  58326.74502  2.55721  22.03063   4092655.08881  44.75812  17.77262  58456.28906     51.5018       44.27777   93.79345  128.58129  136.0    0.01989  -21.51141   0.3841 
  -16.77718  0.35316   6.40376     13.85968  1.59363  1.20181   67.5217  0.01779     0.03272  2091.05753   9320.14573  3.91478          3667.6869     17.99925  0.00055   58329.3331  1.76117  23.84563  11580283.08362  43.79464  17.76562  58456.28906    51.49242       44.27336   96.92641  129.23521  144.0    0.02209  -21.46884  0.13453 
  -19.50236  0.02627   1.97792     13.79929  1.93707  0.80394  72.10013  0.03515     0.01072  2821.65544   9063.23592  1.37227         3351.32259     18.34022  0.00122  58326.60792  3.42429   1.89426   1773324.66094  45.71478  17.78835  58459.22145    51.48123       44.26546   95.56909  130.59253  124.0    0.01959  -21.51281  0.96717 
  -21.82644  0.07511   2.08153      13.6519  1.96715  1.44682  55.62282  0.03933     0.01006  2892.72369   9103.08741  1.01042         3247.63364     19.01707  0.00578  58324.28384  2.77648   4.17802   3932036.90122   45.3313  17.77804  58456.28906     51.5017       44.27209   92.88781  129.23521  126.0     0.0218   -21.4995   0.9247 
  -18.32422   0.3805   7.57162     14.13623  1.75652  0.75038  71.60583  0.01882     0.06007  2243.81717   9340.32823  4.44229          3343.2535     19.55144  0.01978  58327.78606  2.15055  27.24606   4993263.32427  44.05674  17.76379  58459.22145     51.4514       44.22676   96.92641  130.59748  142.0    0.02429  -21.47927  0.10252 
  -19.03349  0.35868   8.65703     14.05395  1.75943   1.1822  80.22548  0.01685     0.17641  2203.33557   9347.01481  4.75732         3416.62432     20.02881  0.05937  58327.07679  2.32328  28.77538   9550243.52554  43.65946  17.78615   58462.3125    51.44444       44.21084  100.71991   133.5189  142.0    0.02019  -21.54176  0.07637 
  -21.49693  0.47698   2.94644     13.60011  1.32761  1.22822  46.57679  0.03617     0.01551  2784.80014    9769.2318  1.98858         3538.76695     19.36775  0.01296  58324.61335  2.15469  22.21631   6749196.09051  44.62407   17.7762  58459.22145    51.53492       44.29822   93.87358  132.28803  130.0     0.0243  -21.53059  0.38545 
  -15.87806  0.26946   4.73848       13.691   1.4512   1.3418  81.63568  0.01507     0.01622  2124.87742   9026.35981  4.41957          3586.9127     17.14208    8e-05  58330.23222  2.19875   21.9972  12555176.89712  43.98047  17.75606  58456.28906    51.49861       44.28515   95.56909  130.59253  144.0    0.02354   -21.4958  0.21179 
  -18.93841  0.26629   3.84968     13.72484  1.71963  1.48132  78.12902  0.01929     0.02008    2527.577   9716.91267  3.47507         3264.98175     17.03432    6e-05  58327.17187  2.97748  20.80499   8402578.44763  44.40902  17.76822  58459.22145    51.47764       44.24395  103.04809  131.38546  136.0    0.02055  -21.49032  0.36331 
  -17.79595  0.41803   6.70496     13.81084  1.63472  1.31453   64.9999  0.02154     0.01071   2544.6092   9653.58244  3.67861         3374.51516     18.94984  0.00495  58328.31433  2.51063  27.17172   16307147.1522  43.61712  17.77414  58459.22145    51.46435        44.2121  100.96501  133.46854  138.0    0.02055  -21.51302  0.11148 
  -17.75225  0.35721   7.61832     14.48084  1.49201  0.22048  69.98683  0.01814     0.01684   2085.8327   9316.42974  4.78942         3603.10207     16.70069    3e-05  58328.35803  1.81636  24.99993    878269.66712  44.73527  17.75914  58456.28906    51.50126       44.26494   95.56909  130.59253  140.0    0.02011  -21.48686  0.08427 
   -18.5313  0.43993   3.72909     13.80129  1.62218   1.1218  47.85576  0.03873     0.01216  2644.44664   9880.25543  4.19587         3289.13347     17.41112  0.00014  58327.57898  1.99632  21.05321   5230500.39544   44.6172  17.75519  58459.22145    51.51588       44.28838   93.87358  128.50116  130.0     0.0202  -21.51939  0.35893 
  -18.63337   0.3787   3.30945     13.83214  1.57902  0.76637  55.18175  0.02986     0.01456  2611.55871   9694.43216  3.08819         3305.20602     19.25528     0.01  58327.47691  2.24503  20.89752    3478780.8246  44.88629  17.79904  58459.22145    51.50297       44.27658   95.56909  130.59253  136.0    0.02277  -21.52528  0.40628 
  -17.89759  0.26025   4.34628     13.79255  1.91963  1.19715  71.90556  0.01998     0.03936  2282.71151   9217.99216  4.98615          3344.0725     18.71806   0.0029  58328.21269  2.23507  18.71362   8753079.12532  44.33367  17.78426  58463.42487      51.525       44.29556   92.88781  129.23521  144.0    0.02449  -21.48938  0.36607 
   -18.5018  0.42286   11.4712     14.35662   1.6397  0.78608  70.57901  0.01814     0.03085  2453.90908   9256.59161  4.24286         3194.50789     16.40324    1e-05  58327.60848  2.53524  29.84492   3877478.46844  43.77584  17.77801  58459.22145    51.46812       44.21339   96.92641  137.31241  140.0    0.02473  -21.48358  0.04031 
  -25.69341    0.127   1.85805     13.62496   1.8144  1.33766  64.42706  0.03222      0.0111   3062.0073   9101.80132  0.46142         3261.25367      18.3925  0.00137  58320.41687  3.60336   8.18232   3271423.72168  45.47473  17.76229  58456.28906      51.465       44.21306   99.00949  135.22932  124.0    0.02503  -21.52026  0.87515 
  -18.65592  0.34158   3.41803     13.70629  1.62867   1.3305  63.53949  0.02759     0.12787  2938.54017   9762.55123  2.63318         3230.55405     19.42738  0.01486  58327.45436  3.27291  21.70353   6833180.49603   44.5785  17.79105  58459.22145    51.45512       44.22327  100.96501  133.27381  130.0    0.02339  -21.54658  0.39263 
  -19.21171  0.25737   2.71513     13.72986  1.48579  0.75838  57.99024  0.03164     0.01407  2651.25602   9782.47753  2.61827         3554.79224     16.54336    2e-05  58326.89857  2.43156  14.92521   3528885.78809  45.02559  17.78057  58459.22145    51.47912       44.23747  100.96501  133.27381  132.0    0.02324   -21.5198  0.56507 
  -19.24225  0.49437   5.78599     14.22957  1.59419  0.32238   54.7236  0.02644     0.04475  2602.33478   9953.69374  4.75643         3114.06175     19.67193   0.0261  58326.86803  2.21069  27.05363    1721723.1309  44.71067  17.76756  58456.28906     51.4749       44.22441  100.96501  133.46854  136.0    0.02473  -21.51278  0.14054 
   -18.0494  0.26783   5.71659      13.8309  1.67053  1.38965  87.91932  0.01555     0.01538  2272.68389   9444.03115  4.57769         3450.20082     17.05655    6e-05  58328.06088  2.70888  23.54713  11044380.05372  43.93429  17.75461  58455.44561    51.47581       44.22882   95.56909  134.63113  140.0    0.02404  -21.48523  0.17657 
  -18.62848   0.4621   6.91999     14.00656  1.65665  0.81617  57.42589  0.02475      0.2037    2297.729   9278.33976  4.90167         3442.36004     19.90345  0.04448   58327.4818  1.80856   26.5363   7147153.48065  43.95373  17.77397  58459.42344     51.4656       44.22467  103.04809  135.22932  140.0    0.02031  -21.53917  0.11223 
  -18.74125  0.37086   3.29593     13.64598  1.35435  1.28066  55.19208  0.03364     0.05909  2551.92754   9562.07024  4.04728          3462.8969     19.34589  0.01232  58327.36903  2.14408  20.46833   6974943.83416  44.52108  17.77143  58456.28906    51.49495       44.24836  100.96501  133.27381  134.0    0.02393  -21.53296  0.35911 
  -23.05652  0.00988   1.61194     13.66014  1.81852  1.02085  87.17177  0.03109     0.01039  2956.35654   9358.02347    0.834         3027.04751     19.58797  0.02151  58323.05376  4.54482   0.86126   2098731.23266  45.79191  17.77967  58459.42344    51.54744       44.32437   92.88781  126.96598  118.0    0.02271  -21.54466  0.98891 
  -20.33983  0.42075   3.69122     13.91649  1.76004  0.68644  45.95762  0.04033     0.04229  2734.84874   9608.81542  4.18402         3210.97828      18.7522  0.00314  58325.77045  2.05046  19.33665   3271142.58945  44.86533  17.77589  58456.28906    51.50549       44.27508   93.79345  128.58129  134.0    0.02432  -21.52779  0.40922 
  -17.47432  0.39992   8.54984     13.93571  1.84781  0.93042  65.75762   0.0205     0.05411  2363.73728    8837.4911  4.93224         3359.62502      17.9974  0.00055  58328.63596  2.19165  26.29753  16864453.12174  43.44461  17.78996  58466.59951    51.70394       44.52544   76.45315  113.03553  146.0    0.02108  -21.48872  0.08205 
  -15.79302  0.34536   7.24507     13.82881  1.85395  1.45127  66.42028  0.01975     0.15389  2314.24486   9617.03277  4.58426         3643.65512     18.01738  0.00058  58330.31726  2.12201  22.93911  19877894.90901  43.51849  17.77567  58459.22145    51.51395       44.28119   96.92641  129.48693  140.0    0.02321  -21.50656  0.13011 
  -18.98576  0.23819   4.24935     13.79955  1.76177   1.0238  81.18042  0.01905     0.21029  2259.10955    9878.3402  4.83174         3440.59338      18.6629  0.00256  58327.12452  2.47146  19.33639   7435362.44996  44.38685  17.79558  58459.42344    51.49883       44.25865   99.60769  131.94475  140.0     0.0246  -21.49006   0.3401 
  -18.69469  0.33212   6.28204     14.26118  1.68914  0.32461  78.87642  0.01547     0.08871  2130.75852   9556.24753  4.27746         3379.37999     17.67367  0.00026  58327.41559   2.1362  26.19658   1859159.99155  44.63099  17.79396  58459.22145    51.47144        44.2415   96.92641  130.59748  146.0    0.01985  -21.47039  0.13382 
  -19.92097  0.34242   3.89142     13.82499  1.80392  1.34772  61.61365  0.03033     0.17102  2593.63736   9309.50116  4.30631         3216.48667     19.15444  0.00793  58326.18931  2.47242  21.09782   5678988.21087  44.59058   17.7447   58464.7744    51.63454       44.43634   85.57563  116.35438  136.0    0.02024  -21.50636  0.37591 
