 texplosion  fnickel    Pspin  log(Bfield)      Mns  thetaPB   mejecta    kappa  kappagamma      vejecta  temperature    alpha  cutoff_wavelength  log(nhhost)      A_V         MJD0  kenergy   mnickel             TSD   log(L0)  Peak_mag     Peak_MJD  log(E_rad)  log(Peak_lum)  Rise_Time    E_fold  tau_1  delta_m15     r_peak     frac 
   -8.57287  0.06931  2.55232     13.95569  2.06055  1.40756  18.44548   0.0696     0.15471   7204.27789   7646.00584  1.74463         3390.97718     17.98682  0.00054  58627.67713  5.71081   1.27849   1528560.11823  45.58467  19.12039  58693.27526    51.45695       44.58645   38.18056  53.06584   65.5    0.11768  -21.97184  0.96689 
   -9.71437  0.02416  2.36964     13.86661  1.55867  0.56531  11.17221  0.06853     0.19146   8449.09897   6438.30431  1.19495         3546.64186     17.44187  0.00015  58626.53563  4.75759   0.26993   1502137.30776  45.53552  19.10978  58690.30826    51.42528       44.62717   36.78834  48.66475   86.0    0.13619  -22.04343  0.99037 
    -8.9754  0.02551  2.40858     13.78641  1.53668  0.68692  11.73512  0.05876     0.18686   7804.62113   7389.66436   1.4588         3631.10982     16.57919    2e-05   58627.2746  4.26401   0.29939   2213593.40188  45.34681  19.13471  58690.23388    51.50306       44.65728   35.73981  51.17628   85.0    0.13404  -22.02171  0.98873 
   -9.43658  0.01746  2.85107      13.7622   1.9672   1.1619    7.9227  0.06604     0.02732    7327.4273   8174.58928  1.19488         3817.22849     16.36796    1e-05  58626.81342  2.53749   0.13831   4438901.07255   45.0054  19.06001  58690.30826     51.4831       44.63187   36.11449  50.69245   72.5    0.13104  -21.98047  0.99491 
   -8.40777  0.23672  2.59935     13.68043  1.59349  1.19688     10.88  0.05702     0.25686   6300.71194   8049.11839  2.22325         3457.38511     17.97919  0.00053  58627.84223  2.57653   2.57548   4355364.53292  45.00244  19.12149     58692.18    51.47862       44.62719    35.6664  61.27903   89.5    0.12883  -21.95606  0.90264 
   -8.60886  0.14705  2.66874     13.65228  1.80546  1.44646  11.39843  0.06594     0.04405   7737.20385   7492.59985  2.07645         3096.48735     18.01978  0.00058  58627.64114  4.07043   1.67619   5921850.17708  44.90036  19.13031   58689.3512    51.48516       44.64189   36.01473  51.17628   89.5    0.11605  -22.03205  0.94164 
   -9.33603  0.09401  2.27591     13.43751    1.475  1.41127  12.55718  0.04459     0.01061   7818.50577   3569.22129  1.53713         3375.39415     16.67526    3e-05  58626.91397  4.57896   1.18048    9459896.4025  44.74744  19.15083   58689.3512    51.44202       44.63344   32.73294  52.72015   71.0     0.1255  -22.00914  0.95793 
  -10.08843   0.1017   2.0591     13.44565  1.61209  0.71416    4.3599  0.07469     0.13104  12991.84488   4958.23706  0.07812         4055.46258     16.05954    1e-05  58626.16157  4.38981   0.44339   8152094.93952  44.93761  19.14924   58686.2958    51.38805       44.66356   31.86409  41.13304   76.5    0.06077  -22.26095  0.98751 
  -11.30301  0.01468  2.55132     13.67724  1.81434   1.2464  12.07474  0.06107       0.021     7919.352   3206.71921  0.99027         3604.11734     16.05912    1e-05  58624.94699  4.51736   0.17721   4848208.35048  45.02845  19.18304  58687.39713    51.43845       44.65635   32.44317  46.63705   74.0    0.11683  -22.02099  0.99412 
   -8.61836  0.33816  2.56389     13.52048  1.55933  1.24414  10.32114   0.0484     0.07807   8397.70765   6350.08937  1.61439         3188.75413     16.83679    4e-05  58627.63164  4.34187   3.49022   8661322.61654   44.7064  19.15441  58687.39713    51.46166       44.61648   34.94773  48.47766  115.0     0.1077   -21.9719  0.86818 
  -10.37436  0.02689  2.53924      13.6476  1.82967  0.81119    7.1686  0.07045     0.19394  10809.03291   5756.81294  1.50848         2250.08319     18.64456  0.00245  58625.87564  4.99615   0.19278   5551256.59201  44.97742  19.16815  58690.23388    51.44334       44.61412   36.01473  47.12089  113.0    0.09166  -22.07714  0.99349 
   -9.42965  0.02197  1.81335     13.32557  1.36978  0.72189    6.4197  0.07843     0.03765  11221.95903   6650.31734  1.92506         2359.17373     18.27495  0.00105  58626.82035  4.82257   0.14107   9338792.78696  44.91824  19.17304  58687.39713    51.46041       44.68311   32.73294  46.63705   72.0    0.09461   -22.1627  0.99601 
    -8.6782  0.33133  3.35838     13.78512  1.86573  1.43472   29.5632  0.01804     0.37242   5803.53864   8985.92762  2.34147         3529.10729     19.53159  0.01889   58627.5718   5.9397   9.79518   5256311.87319  44.76676  19.16699   58689.3512    51.50976       44.66819   32.73294  58.80324  105.0    0.10965  -21.95875  0.64785 
   -9.56921  0.06663  2.58118     13.87536  1.68662  0.74452  13.88143  0.05924     0.08086   7994.58938   6488.42376  1.37765           3690.245     17.51575  0.00018  58626.68079  5.29241   0.92496   1852455.47382  45.40448  19.05243   58689.3512     51.5197        44.6642   34.76064  48.66475   79.5    0.13457  -22.02538  0.96633 
   -9.43168  0.09151  2.42846     13.53494  1.56023  1.24752  10.15713  0.05269     0.02146    8776.9157   5850.34612  1.21311         3193.87314     17.71946  0.00029  58626.81832  4.66748   0.92946   7274255.75974  44.82958  19.12236  58690.30826    51.54566       44.62294    36.3045  65.37017   74.0     0.1209  -21.98255   0.9654 
   -7.86744  0.09541  2.25165     13.70692   1.5165  1.25283  13.88119   0.0593     0.14407   7392.72335   7062.25397  1.57278         3237.47142     17.79704  0.00035  58628.38256  4.52546   1.32435    2753094.7454  45.30487  19.09941  58690.30826    51.46053       44.62619   36.78834  54.74784   76.5    0.13698  -21.95051  0.95773 
    -9.6733  0.09746  1.85007     13.17355  1.23494  1.42507  11.09952  0.03746     0.05653   7925.53318   5248.73505  1.65527         3552.70957     19.94143  0.04855   58626.5767    4.159   1.08177  17649889.27676  44.57937  19.09904   58689.3512    51.45981       44.60622   36.49856  52.72015  127.0    0.08021  -22.08432  0.96493 
   -8.82148  0.43027  3.04473     13.95535  1.97881  1.28146  23.37012  0.03468     0.02375   6402.73377    6877.6364  1.80739         3414.39064     19.36968  0.01301  58627.42852  5.71504  10.05551   2092294.05656  45.27753  19.13748   58689.3512    51.60259       44.67573   32.16825  70.96943  100.5    0.10766  -21.95141  0.70935 
   -9.97352  0.20974  2.80154       14.284  1.81253  0.36344  17.18975  0.04966     0.01677   7210.22949   6330.96494   1.7138         3325.34966     16.55177    2e-05  58626.27648  5.33083   3.60534    357187.53237  46.07944  19.10758  58690.30826    51.52263       44.62817   36.78834  64.88633   75.5    0.12822  -21.90483  0.87535 
   -8.89515  0.07828  2.07492     13.85296  1.37117  0.61983  13.06403  0.07335     0.11489   7988.48134   6868.90194  1.41973         3361.43401     16.77258    3e-05  58627.35485  4.97316   1.02266   1078944.56521  45.73893  19.08525  58693.07063    51.47332       44.57176   40.02859  61.08139   72.0    0.13829  -22.00189  0.96743 
    -9.6694  0.01391  2.30634     13.44467   1.5564  1.38197   7.32519  0.07716     0.13083   9701.20534   7882.90336  2.43748         2331.08224     18.87741  0.00419   58626.5806  4.11242   0.10187   9918417.62129  44.73868  19.17491   58686.2958    51.49427       44.64679   32.44317  54.74784  100.0    0.10113  -22.01779   0.9964 
   -9.38485  0.05773  2.48478     13.67322  1.63552  1.21727  11.40247  0.07523     0.03455   8856.04534   7340.74254  2.07217         2710.00382     16.52001    2e-05  58626.86515  5.33465   0.65829   4222925.82084  45.06631  19.14071   58689.3512    51.42815       44.65333   34.65796  46.44996   71.5     0.1303   -21.9963  0.97638 
   -9.64179  0.11634  2.85813     13.62618  1.84423  1.37374   9.85663  0.05383     0.10674    8703.2524    5397.1441  1.70558         2929.62495     16.93913    5e-05  58626.60821  4.45368   1.14673   7824013.65058  44.72907   19.1176  58690.30826    51.47787        44.6345   36.49856  54.74784  108.0    0.11592  -21.93071  0.95427 
   -8.73926  0.10428   2.2572     13.30477  1.60777  1.44739   8.49712  0.03967     0.03234    8924.8528   3754.09115  1.46153          3226.4555     18.88467  0.00426  58627.51074  4.03739   0.88609  18691371.10989  44.49629  19.13421   58689.3512    51.52238       44.60174   34.94773  72.81003   88.0     0.0646  -22.00669  0.97041 
   -9.15334  0.26267   2.6997     13.68822  1.73741  1.04499   9.29522  0.05186     0.08395   6984.54134   7002.62522  1.46028         3459.64863     19.44163  0.01536  58627.09666  2.70497   2.44154   4942157.82266   44.9522  19.10488  58690.23388    51.48088       44.59636   38.18056  53.06584  109.0     0.1173  -21.92456  0.91056 
   -9.51418  0.02917  2.56896     13.79323  1.65522  0.73355   9.69085   0.0569     0.23204   7864.66049   8270.42924  1.50784         3203.89676     19.18585  0.00852  58626.73582   3.5756   0.28264   2628648.21035  45.24845  19.10821  58693.07063    51.50945       44.66375   36.78834  52.72015   87.0    0.12877  -21.93325  0.98912 
    -8.2689  0.18754   2.3545     13.51753  1.43186  1.21782   7.15865  0.07774     0.06021   8430.78695   8683.45457  1.98391         2950.45187      17.3437  0.00012   58627.9811  3.03525   1.34251   6799278.79871  44.84848  19.08724  58694.27679       51.58       44.67943   30.70524  75.02482   81.5     0.1221  -21.96688   0.9478 
    -6.9948  0.21884  2.70324     13.91589  1.72208  1.08242  19.04669  0.03994     0.16684   5938.72616   7055.27131   2.4929         3358.32087     17.76903  0.00033   58629.2552  4.00713   4.16822   1721282.83222  45.40528  19.13502  58690.23388    51.46793       44.65853   34.94773  52.53305   80.5    0.13316  -21.87426  0.85866 
   -9.33343  0.06284  2.53486     13.56735  1.66522  1.19929  12.79653  0.03932     0.17207   7716.98142   6593.00265  1.43395         3391.26597     18.47379  0.00165  58626.91657  4.54584   0.80412   7285982.38145  44.81992   19.1847     58692.18    51.43071       44.60733   36.78834  50.69245  115.5    0.11131   -21.9669  0.97015 
   -9.89537  0.08208  2.52381     13.66282  1.71614  0.77155   8.98376  0.06523     0.08852   9965.56265   6237.14947  0.92581         3536.67403     17.98433  0.00054  58626.35463  5.32218   0.73742   4795641.78941  45.01844  19.15261  58687.39713     51.3849       44.63302   32.44317  42.58166   99.5    0.11074  -22.10136  0.97366 
   -8.61646  0.14722  2.52786     13.67423  1.59261  1.30073  14.01151  0.05373     0.02338   7723.94358   5598.28598   1.8235         3261.34189      17.8349  0.00038  58627.63354  4.98643   2.06274   4236223.50759  45.03847  19.09071     58692.18    51.48591         44.618   38.81603  58.80324   78.5    0.12767  -21.98593  0.92466 
   -9.47545  0.03578  2.55877     14.02321  1.70238  0.32067   9.15412  0.06069     0.07178   9063.88467   6871.12851  1.44864         3168.83097     18.33926  0.00121  58626.77455  4.48614   0.32751    930051.01201  45.71533  19.13526  58687.39713     51.4308       44.56152   32.63026  52.53305  101.0    0.11124  -22.02185   0.9877 
  -10.19431  0.03505  2.14816     13.42851  1.47428  1.03764   9.86745  0.05529     0.01708   9617.66734   4059.63538  1.50166         2718.77517      17.1499    8e-05  58626.05569  5.44467   0.34587    8780462.5381  44.82977  19.13188  58690.23388    51.45934       44.60945   34.47087  50.69245   67.0    0.12462   -22.0486  0.98849 
   -7.92741  0.14364  2.86826     13.87884  1.96803  1.32751  18.55309  0.04334     0.20788   6731.98528   6779.09749  1.68906         3676.98534     18.81274  0.00361  58628.32259  5.01568   2.66489   2626630.19319  45.22824  19.02295  58690.30826    51.52574       44.62355   36.38141  61.23786   80.5    0.12643   -21.9818   0.9111 
  -10.39851  0.00462  2.58687     13.77551  1.95531  1.12306  11.55217  0.09205     0.04433   8606.50075    6009.0747  2.90728           2338.131     18.55835  0.00201  58625.85149  5.10439   0.05333   3416330.32044  45.20095  19.11214   58689.3512    51.47223       44.64535    36.3045  53.20398   79.0    0.11266   -22.0407  0.99838 
   -9.15238  0.13043  2.67119     13.78814  1.88238   0.8286  11.25404  0.05429     0.06185   8313.87642   6680.24114  0.99119         4021.31592     19.62979  0.02369  58627.09762  4.64026   1.46783    3308613.4557   45.1705  18.99336  58690.30826    51.51777       44.61193   38.18056  59.14894   95.5    0.12026   -22.1225  0.95133 
     -8.807  0.13619  2.54714     14.25698  1.72255   0.3778   16.8071   0.0504     0.12396   6488.95847   5723.10343  1.77617         3778.41589     18.16704  0.00082    58627.443  4.22153   2.28898     317785.0926  46.19078  19.12922   58689.3512     51.4617       44.60708   36.38141  51.09938   74.5    0.13546  -21.97071  0.92567 
  -10.26715   0.0384  2.65774     13.64796  1.83575  0.89816   9.44144  0.05525     0.07011   9452.87708   5808.52884   1.4623         2866.03112     19.14524  0.00776  58625.98285  5.03261   0.36251   6091535.78394  44.89891  19.14403   58686.2958     51.4733       44.62587   32.73294  50.69245  103.5    0.10234   -22.0115   0.9868 
     -9.794  0.06057  2.59255     13.66625  1.71882   1.3717  17.88811  0.03259     0.44155   7028.10364   4220.86986   1.4715         3425.75784     16.08875    1e-05    58626.456   5.2707   1.08357   4988765.17699  44.97863  19.20073  58684.56038    51.55153       44.62299   30.41547  70.96943   97.5    0.12763  -21.94022  0.96117 
   -8.71494  0.32797  2.56426     13.59399  1.58931  1.34554  10.78628  0.05765     0.10742   7266.14755    5344.1434  1.85388         3281.54444     16.15058    1e-05  58627.53506  3.39709   3.53753   6294595.94153  44.85316  19.10377   58689.3512    51.46269       44.61105   36.38141  49.07168  107.0    0.11493  -21.97863  0.87226 
   -9.09123  0.18817  2.22262      13.5454  1.38262  1.37353  11.47026  0.07373      0.0327   7822.76806   6664.35236  1.78137         3326.10592     17.84119  0.00039  58627.15877  4.18718   2.15838   5145683.75512  45.00437  19.14315   58689.3512    51.43587       44.66051    36.3045  45.09319   80.5    0.12044  -22.03544  0.92444 
   -8.53005  0.34072  2.85135     13.66333  1.85935  1.35167   9.34574  0.05021     0.07618   8424.10957   7498.16231  1.08894         3262.37565     18.95891  0.00505  58627.71995   3.9563    3.1843   6616372.29484  44.80749  19.11146  58690.30826    51.45094       44.58598   38.18056  53.06584  101.5    0.11141  -21.95219  0.88523 
   -9.00207  0.34259  2.37731     13.51261  1.43704  1.42484   9.52704  0.06228     0.02108   8222.18983   5562.14387  1.56264         3080.90592     17.79581  0.00035  58627.24793  3.84203   3.26387    7115872.4346  44.82191  19.26855  58695.90738    51.37694       44.59871   26.43558  52.72015   76.0    0.12154  -21.96816  0.88078 
    -7.2323  0.19251  2.54378     14.41551  1.79159  0.28747  18.36275  0.04863       0.234   5660.97434   5816.91422  2.17455         3839.66601     19.32082  0.01163   58629.0177  3.51032   3.53506    158854.17876  46.51013  19.17037   58689.3512     51.6473       44.66981   30.70765  80.54082   76.0    0.11887   -22.0057  0.89581 
   -9.72104  0.04045  2.44504     13.74773  1.60481  0.91934  15.06202   0.0496     0.26359   8009.24744   5685.43103   1.2831          3546.8828     17.10766    7e-05  58626.52896   5.7636    0.6092   2846763.01284  45.24335  19.07117  58690.23388     51.4805       44.60683   36.78834  52.72015   83.5    0.13567  -22.00816  0.97823 
    -8.9459  0.05165  2.39721     13.59416  1.90687  0.76322   7.16739  0.05436      0.0449  11120.84169   5598.14117  0.25534         4403.35105     19.43266  0.01504   58627.3041  5.28766   0.37019   6595034.78608  44.97054  19.08733  58690.23388     51.4545       44.59342   36.22365  50.69245   74.5    0.07695  -22.19846  0.98929 
  -10.30943  0.02741  2.26175     13.68416  1.48995  0.90266  12.02207  0.06653     0.12774   7973.50557   6325.61802  1.26409         3511.48932     16.15728    1e-05  58625.94057  4.55937   0.32949   3030820.46085  45.25157  19.11301  58690.30826    51.51866       44.58978   36.78834  75.02482   86.0    0.12565  -22.02037   0.9886 
   -8.24133  0.12713  2.62386     13.97103  1.88343  0.95559  17.59733  0.05455     0.19726   7004.45637   7714.11177   1.5865         3793.82484      17.4873  0.00017  58628.00867  5.15018   2.23714   1375893.78129  45.56733   19.1264   58689.3512    51.48174        44.6431   34.94773  52.53305   68.5    0.12986  -22.00648  0.93219 
   -7.55133  0.28169  2.57891     14.36874  1.77577  0.38732  25.01756  0.03508     0.14704   6596.00209   5710.60859  1.66073         3661.63727     17.95219   0.0005  58628.69867  6.49283   7.04708    200718.83577  46.39277  19.17073  58687.39713    51.48595       44.64515   34.19595  54.74784   83.5    0.12989  -21.92644  0.80624 
   -8.71587  0.10656  2.58885     13.56133   1.6971   1.3753    6.6591  0.06702     0.09899   9762.14996   5119.91542  1.26822         2668.11889     17.31344  0.00011  58627.53413  3.78559   0.70963   7963132.61804  44.77126  19.13095     58692.18    51.48871       44.59852   38.47034  53.06584   95.0    0.10802  -21.96118  0.97322 
   -8.30392  0.08938  2.56811     13.71622  1.60401  1.18432  10.66089  0.06227     0.08994   7339.24507   7684.06185  1.97897         3193.08558     17.73227   0.0003  58627.94608   3.4255   0.95284    3629185.6192  45.09502  19.17281   58689.3512    51.45952       44.60076    36.3045  49.14858   79.0    0.14064  -21.91794  0.96307 
   -9.58961  0.00808  2.18758     13.71542  1.37371  0.62007  11.04185  0.06871     0.44315   8236.04121   8313.10996  1.51996         3568.12801     18.39291  0.00137  58626.66039  4.46793   0.08917   2263631.36023    45.372  19.12779  58687.39713    51.48902       44.66129   33.61687  51.27153   81.5    0.13061  -22.06621  0.99668 
   -8.19325  0.15273  2.56263     13.53746  1.67475    1.254   9.65942  0.04797     0.05614   8363.87781   6104.54543  1.72414         2998.20016     18.66374  0.00256  58628.05675  4.03082   1.47526    8594550.5976   44.7412   19.1614  58687.39713    51.46299       44.65298   34.13877  50.69245  108.5    0.10517  -21.96363  0.94546 
   -9.37074  0.08515  2.56293     13.64803  1.64501  1.27536  13.62982  0.05124     0.05601   7991.92965   7305.71764  1.69951         3227.43487     18.43477  0.00151  58626.87926  5.19303   1.16051   5074543.56677  44.96214  19.14817  58690.30826    51.58436       44.62613   36.38141  67.32096   89.0    0.13099  -21.99032  0.95671 
   -9.24275  0.04295  2.60184     13.85396  1.69958  0.79639  13.64108  0.05408     0.09477   8024.69237   6779.85282  1.19887         3658.46035     16.10788    1e-05  58627.00725  5.24002   0.58587   2093156.30762  45.34782  19.19469   58686.2958    51.50068        44.7029   30.70765  52.15305   79.5    0.14453  -21.98093   0.9783 
  -10.42616  0.12431   2.6636     13.60091  1.76965  1.32478   8.48552  0.07331     0.25111   9433.72959   7670.06838    1.063          3131.1214     18.78812  0.00341  58625.82384  4.50477   1.05481   7325158.91041  44.80098  19.13323   58689.3512    51.53269       44.63031   36.01473  63.34247   98.5    0.11387   -22.0151  0.96101 
  -10.71996  0.01518  2.34944     13.58926  1.65342   0.8064   8.64113  0.06849     0.01427    9264.4086    4274.5143  1.56277         2878.63863     17.46445  0.00016  58625.53004  4.42418   0.13115   5618332.40496  44.99569  19.12222   58689.3512    51.47016       44.62259   36.78834  54.74784   63.5    0.14496   -22.0367  0.99559 
   -8.86467   0.0361  2.14287     13.58683  1.50633  1.19867   9.66472  0.09051     0.01155   8783.70331   6537.34486  2.76437         2242.67562      17.9316  0.00047  58627.38533  4.44807   0.34894   4305926.00327  45.15071  19.19011  58687.39713      51.426       44.60892   34.94773  52.53305   54.0     0.1554  -22.00559  0.98933 
