 texplosion  fnickel     Pspin  log(Bfield)      Mns  thetaPB  mejecta    kappa  kappagamma     vejecta  temperature    alpha  cutoff_wavelength  log(nhhost)      A_V         MJD0  kenergy  mnickel              TSD   log(L0)  Peak_mag     Peak_MJD  log(E_rad)  log(Peak_lum)  Rise_Time    E_fold  tau_1  delta_m15     r_peak     frac 
   -5.82699  0.04145  14.31189     14.87165  1.78275  0.23932  4.26826  0.10739     0.01355  9294.43771   5025.04111  0.04037         5861.42391     19.45939    0.016  58577.49421   2.1995  0.17691     612349.34769  44.42154  18.62193   58614.5544    49.88587       43.19101   31.40222  37.95796   32.0    0.46969  -19.25237  0.83404 
   -6.36926  0.21722  10.74202     13.96672  2.01118   0.9455  1.55295  0.22838     0.01707  8043.56369   4687.86935  2.24984          2737.9925     17.29495  0.00011  58576.95194  0.59935  0.33733   25119088.67872  43.11012  18.69347   58614.5544    49.82171       43.17657   31.33874  32.88595   33.0    0.44011  -19.19011  0.82097 
   -9.53876   0.0244  12.71906     14.68643    1.709  0.37871   3.6862  0.18909     0.01013  8028.92098   5012.44249  1.03367         2235.21213     16.64418    2e-05  58573.78244  1.41749  0.08994     1087967.8418  44.25606  18.64048   58614.5544    49.91804       43.18484   34.66693  40.37428   31.0    0.43257  -19.20043  0.92324 
   -6.26685  0.03698  12.40407     14.82702  1.85668  0.22967  2.42079   0.2812     0.01601  9423.02457   4611.21766  1.92617         2254.67805     19.00268  0.00559  58577.05435  1.28223  0.08952     588364.51372  44.58081  18.62742   58614.5544    49.88485       43.15722   34.99194  40.04928   28.5    0.47834  -19.26453  0.93325 
   -9.12065  0.00393  15.13724     14.72265  1.96201  0.57711  1.80335  0.28998      0.0219  7036.87868   5133.21283  0.18136         5140.76441     18.87161  0.00413  58574.20055  0.53268  0.00708    1497289.95794  44.02615  18.69302   58614.5544    49.87748       43.18458   31.40222   37.4663   30.0    0.42547  -19.18155  0.99266 
   -7.21369  0.00936  12.66273     14.27889  1.44059   1.4956  2.65189  0.20519     0.01137  6713.54923    5388.2547  4.12284         3646.83444     17.00195    6e-05  58576.10752    0.713  0.02481    5937775.23474  43.44871  18.65322   58614.5544    49.84319       43.18225   31.40222  33.64524   30.5    0.42534  -19.16448  0.97197 
   -5.95058  0.01639   4.58912     13.23825  1.67396  1.45194  1.85606  0.25546     0.01121   9140.7922   4308.49178  0.32416         2456.10719     19.65724  0.02523  58577.37062   0.9251  0.03042  109276501.01544   43.1306  18.70055   58614.5544     49.8594        43.1816   32.42392  34.70029   31.0    0.45305   -19.2403  0.99338 
   -7.13923  0.00148  16.25817     14.63793  2.13284  0.75155  3.72285  0.13642     0.01239   7973.1121   4985.93895  0.58316         3253.02994     18.08013  0.00067  58576.18197  1.41175   0.0055    2773691.80768   43.7326  18.63335   58614.5544     49.8888       43.18235   31.40222  38.13127   29.5    0.44266  -19.19585  0.99412 
   -4.70641  0.16514  19.05144     15.09305  1.86542  0.36488  3.07655  0.20847     0.01123  7920.51338   5079.21125  0.85609         3873.28583     17.72096  0.00029  58578.61479  1.15132  0.50805     409586.48323  44.36742  18.65579   58614.5544    49.86836       43.16705   34.19803  37.92636   29.0     0.4829  -19.18236  0.52855 
   -9.64388  0.05717  13.70293      14.4049  1.90036  1.23916  2.30109  0.32571     0.01203  7463.17257   5286.29049  3.12723         2497.33121     19.72488  0.02949  58573.67732  0.76455  0.13155    5134324.46714  43.56357  18.64907   58614.5544    49.86498       43.18522   33.99312  35.22329   31.0    0.41823  -19.19311  0.89394 
   -5.97062  0.00427  12.14164     14.36557  1.58233  1.24805  2.61673  0.29037     0.01256  8351.66037    5614.6983  4.45261         2397.80534     18.78783  0.00341  58577.35058  1.08876  0.01118    4022867.98116  43.69505  18.65721  58616.28575     49.7973       43.12476   33.64524  35.71494   28.5    0.50247  -19.22521  0.98983 
    -7.1581  0.02092  11.79025     14.13509  1.93517   1.0598  2.54602  0.19386     0.01416  8753.87385   3053.95232  0.42722         2770.59951     18.35383  0.00125   58576.1631  1.16383  0.05326   13409247.89734  43.28511  18.67763   58614.5544    49.87124       43.15186   31.40222  40.37428   29.0    0.46973  -19.23095  0.96343 
    -7.1528   0.0182   6.23583     13.58642  1.59335  0.96871  1.74235  0.33778     0.01166  8362.89455   4365.24725  3.63722          3684.3757     17.45543  0.00016  58576.16841   0.7269  0.03172   38642849.07573   43.2943  18.62245   58614.5544    49.86009       43.20406   29.91849  33.92371   31.5    0.41666  -19.22325  0.98952 
    -6.7803  0.04903  14.28973     14.43628  1.76644  0.78045  3.83957  0.13361     0.01079  8534.59743   4751.64622   0.6068         3181.05169     16.38291    1e-05   58576.5409  1.66831  0.18826    4491590.91688   43.5535  18.70158   58614.5544    49.86293       43.14863   31.40222  38.13127   29.0    0.46547  -19.22386  0.82576 
   -6.59232  0.01716  13.60627     15.03991  1.68075   0.1878  3.57502  0.15205      0.0124  8245.15139   5473.51545  4.80217         2407.61981     19.39535  0.01381  58576.72889  1.44978  0.06135     240426.39574  44.84589  18.66443   58614.5544    49.84148       43.16162   33.14748  35.56324   31.0    0.44323  -19.21915  0.93811 
   -6.64077  0.00986   9.83045     14.46114   1.3059  1.25594  4.39266   0.2498     0.01243  8144.37865   4959.52601  0.68067         3383.48364     16.27965    1e-05  58576.68044  1.73808  0.04332    1401477.22566  44.25302  18.64957  58616.28575    50.02699       43.38232   30.57945  32.10013   29.0    0.38855  -19.17092  0.96711 
   -8.61947  0.01571  12.84355      14.2161  1.97365  1.22528  1.98615  0.28099      0.0152  7938.07232   4850.47756  1.21878         3623.48833     18.69467  0.00275  58574.70173  0.74657   0.0312   11175415.91857  43.29848   18.6369   58614.5544    49.86532       43.16885   34.31813  37.63295   31.0    0.44362  -19.20927   0.9759 
   -6.60547  0.00382  13.16873     14.19451  2.16482  0.97351  3.95309  0.05568     0.01042  8030.00508   3201.66016  0.05814          4309.7168     18.16488  0.00081  58576.71573  1.52053  0.01511   14233260.81007  43.21188  18.66346  58616.28575    49.85277       43.15867   31.72723  37.63295   33.5    0.39584  -19.16063  0.98842 
   -5.72656    0.001  14.14368     14.33661  1.88617  1.47408  2.42022  0.19159      0.0123  7537.60397   5008.33147  3.38029         2801.84195     16.77004    3e-05  58577.59465  0.82025  0.00242    7435469.37992  43.37199  18.66521   58614.5544    49.85853        43.1781   29.91849  36.70701   28.5    0.47048  -19.19646  0.99762 
   -7.11308  0.00801   7.06842     13.56865  1.69652  1.40553  2.87563  0.17807        0.01   8672.0994   4051.99961  3.41697         3972.72847     18.24912  0.00099  58576.20813  1.29006  0.02304   57375304.34488  43.04103  18.64864   58614.5544    49.82536       43.14902   33.14748  35.56324   31.5    0.43324  -19.21843   0.9909 
   -6.93415  0.02515  13.73938     14.84967  1.70187  0.31326  3.47327  0.17348     0.01156  8285.76388   5025.93181  3.10618         2600.71896     18.89081  0.00432  58576.38705  1.42243  0.08734      596113.2421  44.44851  18.62257   58614.5544    49.88195       43.17225   31.72723  37.80626   29.0    0.48536  -19.21646  0.91441 
   -7.05877   0.0012  13.08908      14.2835   1.8864  1.38107  1.59383  0.31577     0.01567  7399.92205   5369.39513  4.07295         2050.94268     18.97758  0.00528  58576.26243  0.52062  0.00191    8133301.28857  43.40039  18.61654   58614.5544    49.83644       43.16538   29.66238  34.89828   30.5    0.45962  -19.18948  0.99838 
    -5.8319  0.24484  13.55575     14.21695  1.55063  0.96537  1.60733  0.25294     0.02313  8333.22665    4676.8936  0.08422         4048.56071     19.19165  0.00864   58577.4893  0.66582  0.39354    9742564.22594  43.20643  18.69496  58612.47911    49.82739       43.14251   29.91849  36.70701   30.0    0.45969  -19.20424  0.66719 
   -9.26494  0.00128  12.42354     14.74351   1.7377  0.32633  2.03794  0.29208     0.01683   7964.6885   5003.64319  0.06435         2657.72977     19.86972  0.04116  58574.05626  0.77118   0.0026     811448.42471  44.41107  18.63969   58614.5544    49.80181       43.14405   31.72723  33.32023   29.5    0.46581  -19.23893  0.99776 
   -4.58228  0.00193  13.18748     14.70658  1.80164   1.3886  5.21437  0.14217     0.04514  8048.38089   4503.89815  0.22929         3669.34371     18.85334  0.00396  58578.73892  2.01486  0.01007    1123696.71468  44.23354  18.65427   58614.5544    49.98851       43.32492    29.1592  33.64524   29.0    0.38199  -19.17948  0.99131 
   -6.43258  0.03723  12.54902     14.20189  1.53515   1.1837  4.73844  0.11807     0.01063  9254.90717   4726.51478  2.99838         2173.18807     19.09427   0.0069  58576.88863  2.42107  0.17639    8859338.60086  43.31037   18.6376   58614.5544    49.84613       43.19291   31.72723  33.32023   29.0    0.47756  -19.25516  0.84103 
   -6.42528  0.02513  12.56698      15.1174   1.7035  0.30235  3.69439  0.27382      0.0117  7796.61093   4872.82113  2.97064         2903.54253     19.24302  0.00972  58576.89592  1.33962  0.09286     145485.80475   45.1389  18.70508   58614.5544    49.81853        43.1218    33.9205  35.88825   28.5     0.4113  -19.16709  0.92579 
   -8.05392  0.00797  11.65508     14.36357  1.57257  0.55502  2.00393  0.25111     0.02699  8791.08848   4495.70362   0.1862         3966.79273     16.73472    3e-05  58575.26729  0.92384  0.01598    3718112.80432   43.7621  18.71545   58614.5544    49.86375       43.17484    29.1592  38.13127   30.0    0.42247    -19.216  0.98565 
   -7.29879  0.00421    12.158     14.15272  1.58125  1.27054  1.94729  0.20396      0.0174  7290.24516   4271.55804  1.77618         3415.25362     16.77079    3e-05  58576.02242  0.61737   0.0082   10742301.17433  43.26702   18.6206  58616.28575    49.95217       43.32423   29.91849  31.34084   30.0    0.42157  -19.17991  0.99209 
  -10.21106  0.00297  10.39963      14.2913  1.58912  0.75732  2.52062  0.33687     0.01091  7587.78334   4623.11378  1.15107         3242.93139     19.93192   0.0475  58573.11014  0.86569  0.00749    4172661.01317  43.81555  18.68985   58614.5544     49.8666       43.16568   31.40222  37.95796   30.5    0.38424  -19.24858  0.99485 
    -6.9523  0.39205  16.10752     14.19895  1.71228  1.31284  2.77227  0.30872     0.01038   8345.8831   3110.56221  4.75759         2565.79155     19.84514  0.03889  58576.36891  1.15188  1.08686   16502359.54907  42.87082  18.61819   58614.5544    49.88192       43.21059   32.50939  35.12896   31.5    0.38925  -19.21724  0.36713 
   -9.58342   0.0309  11.03111      14.1172  1.53471  1.16154  1.86523  0.33879     0.01905  7841.59174    4176.9514  4.10983         2884.42498     19.46329  0.01614  58573.73778  0.68418  0.05763   10108492.71068  43.36495  18.69168   58614.5544    49.88151        43.2025   33.64524  35.88825   30.0    0.40999  -19.22389  0.95392 
   -7.71679  0.00229  14.38502     14.79305  1.76764  0.41416  1.88903  0.23217     0.02195  7223.80044   4649.69956  0.14743         5086.78015      17.7988  0.00035  58575.60441  0.58803  0.00432     880906.00474  44.25549  18.63683   58614.5544    49.88848       43.19864   29.91849  37.37198   28.0    0.43385  -19.18295  0.99525 
   -9.41521  0.00289   9.90761     14.00051  1.87434  1.25505  1.98627  0.31497     0.01295  8114.69059   4731.92999  0.06156         3774.92779     20.07307  0.06573  58573.90599   0.7802  0.00573    17044537.2815  43.31817  18.66027   58614.5544    49.88719       43.22978   29.33737  33.64524   32.5    0.40912  -19.25767  0.99696 
    -8.0507  0.00216  11.17648     14.21444   1.8306  0.75676  1.82031  0.25888      0.0124  7574.25127   5738.68444  0.65317           4052.583     16.55854    2e-05   58575.2705  0.62295  0.00392     7909360.8966  43.53669  18.64621   58614.5544    49.84153       43.20307   31.33874  32.88595   33.0    0.46191  -19.17612   0.9973 
   -6.90611  0.12668   9.94868     13.93183  1.58929  1.56016  2.61024   0.2659     0.01013   8675.1172   4297.59137   1.1482         2683.07089     19.59916  0.02207   58576.4151  1.17181  0.33068    19993652.9109  43.17363  18.64589   58614.5544    49.97319       43.37053    29.1592   29.1592   29.5     0.4318  -19.22562  0.81548 
   -9.26415  0.01392  13.31393     14.72768  1.95999  0.40694  2.61822  0.31412     0.01421  8352.23429   4526.91462  0.20966         3845.67312     19.88648  0.04278  58574.05705  1.08953  0.03646    1130653.31363  44.25916  18.65202  58616.28575    49.83164       43.14378   35.06549  35.88825   28.5    0.42061  -19.23254  0.97087 
   -5.81626  0.00139   15.7379     14.42587  1.93452  1.56418  3.37488  0.13807     0.01689  8400.49763   4886.53732  4.91037         2486.01536     16.69925    3e-05  58577.50495  1.42068  0.00469    6259548.52738  43.36498  18.63271   58614.5544    49.86852       43.17828   32.82247  35.88825   29.5    0.45623   -19.1871  0.99457 
   -5.86486  0.02255  10.36698     14.40375  1.29628  0.69225   3.3711  0.27049     0.01059  9006.23797   4758.50525  1.00468          2245.3075     18.17354  0.00083  58577.45635  1.63112  0.07603    2015216.87742  44.04592  18.68012   58614.5544    49.88981       43.18687   32.16151  37.37198   26.5    0.49511  -19.22758  0.93569 
   -9.94213   0.0017  14.86886     14.30232  2.12419  1.52788  1.89926  0.26229     0.02208  7618.38534    4119.8893  2.52288         2927.78944     17.11344    7e-05  58573.37907  0.65756  0.00323   10837175.35773  43.21657  18.65237   58614.5544     49.8518       43.16499   33.97024  35.56324   30.5    0.38999  -19.14499  0.99697 
    -7.0054  0.00395   6.13689     13.61745  1.82174  0.71533  1.42352  0.28706     0.02362   9293.4071   3003.09036  0.47738         4136.73868     18.54837  0.00196  58576.31581   0.7334  0.00562     37093444.635  43.38414  18.66691   58614.5544    49.82893        43.1598   31.72723  34.89828   31.5    0.44524  -19.23498  0.99823 
   -7.73323  0.00648  14.61556      14.8627  1.86181  0.38389  3.61946  0.18029     0.01297  7647.74081   4607.07133  0.96946         3838.75255     19.68705  0.02703  58575.58797  1.26281  0.02344     694980.22956  44.36718  18.67212   58614.5544    49.86758        43.1805   29.51123  37.37198   28.0    0.40178  -19.21215  0.97594 
   -7.00442  0.08908  14.95247     14.56661  1.79457  0.65296  2.17014  0.29615     0.02675  9400.81677   4570.27629  2.14222         2833.18199      18.8787   0.0042  58576.31678  1.14405  0.19331    2741449.86364   43.7354  18.67008   58614.5544    49.97176       43.31173   30.57945  33.64524   28.0    0.47405  -19.24903  0.81373 
   -6.02165  0.20368  17.22112     14.95114  1.91421  1.37404  3.49444  0.18805     0.01074  7153.77466   4390.89747  0.91085         3000.39139     18.76298  0.00322  58577.29955  1.06678  0.71176      660151.7631  44.25907  18.67587   58614.5544    49.94085        43.1864   32.50939  42.38077   30.0    0.38534   -19.1571  0.51013 
   -5.70968  0.00317  13.61764     14.32947  1.84376  1.55851  1.50036  0.31255     0.01395  6989.87195    5299.9552  0.85717          4181.5347      18.6183  0.00231  58577.61152  0.43728  0.00475    6962827.22134  43.42356  18.59163   58614.5544     49.8604       43.16111   34.31813  37.80626   28.0    0.50445  -19.20123  0.99555 
   -6.81709  0.04398  14.60425     14.36444  1.83281  1.28266  2.68834    0.181     0.01561  8205.70695   4541.79191  0.08989         2105.42414     18.79287  0.00345  58576.50411   1.0798  0.11824     6776515.6858    43.372  18.62157   58614.5544     49.8853       43.19355   33.99312  35.88825   27.5    0.46295  -19.22265  0.88541 
   -6.92797  0.00895  14.76123     14.59655  1.76229  0.88314  2.80945  0.21203     0.01885  7659.07624   4587.26717   0.6046         4256.25232     17.73365   0.0003  58576.39323  0.98311  0.02515    2285749.87113  43.81765    18.651  58616.28575    49.84847       43.17164   31.31997  35.56324   27.5    0.40771   -19.1857  0.97184 
   -6.15938  0.00172  13.75534     14.47355  1.64165  1.53669  5.04781  0.13183     0.01475  7657.81883   4976.33115  4.85228         3132.30522     20.02495  0.05884  58577.16182   1.7658  0.00871    3257886.70413  43.69425  18.61814   58614.5544    49.91539        43.1802   33.14748    41.358   31.5     0.3512  -19.20779  0.99048 
   -6.83026  0.01787  13.43378     14.46907  1.51318  1.36106  4.40207  0.12521     0.01687  7656.59231   5197.72029  0.28352         2281.28288     19.27145  0.01038  58576.49095  1.53941  0.07866    2923947.62418  43.72637  18.67531   58614.5544     49.8658       43.19462   33.18321  35.12896   31.0    0.39053  -19.16062  0.91438 
   -7.33657  0.00277   10.4985      13.9964  1.75456  1.39089  2.39558  0.19706     0.01154  8119.51404   4214.48315  1.21801         2824.81115     16.80208    4e-05  58575.98463   0.9421  0.00665   18257498.97855  43.20932  18.62644  58616.28575    49.85281       43.18483   33.14748  34.89828   29.5    0.44197  -19.21015  0.99566 
   -6.84994  0.00134   14.7084     14.72873  1.99837  0.60182  1.96415   0.2443     0.01343  6621.88324   5500.95726  0.09668          5085.3202     20.11234  0.07196  58576.47127  0.51377  0.00262    1400080.77609  44.08824  18.68801   58614.5544    49.89807        43.1705   32.50939    39.615   29.0    0.44036  -19.19258   0.9975 
   -8.86502  0.00658  13.18169     14.36714  1.80652  1.26215  3.30597  0.22055     0.01032  7884.62042   4682.90576  1.81709         3043.57095     17.73251   0.0003  58574.45618  1.22599  0.02177     5374389.4389  43.55542  18.67854   58614.5544    49.86992       43.17605   29.91849  37.37198   28.5    0.45082  -19.22541  0.98078 
   -7.93338  0.03059   11.6385     14.15486   1.6789  0.87587  1.27013  0.33549     0.03275  8326.49225   4420.26652  2.37999         3402.92595     19.27013  0.01035  58575.38783  0.52529  0.03886   10349237.27442  43.34717  18.65488   58614.5544    49.84744       43.20612   29.91849  31.34084   30.0    0.43187  -19.21149  0.96799 
     -7.673  0.00407   12.3989     14.29347  1.69763  1.15155  2.46618  0.27427     0.01074  7352.83707   4702.22272  3.35398         3325.29712     17.96115  0.00051   58575.6482  0.79536  0.01003    6273187.91017  43.51443  18.64749   58614.5544    49.74336       43.09067   31.72723  33.32023   29.0     0.4261  -19.19811   0.9912 
   -8.16131  0.00291     7.924     14.07214  1.52103  0.42343  2.53839  0.21305     0.01014  7929.08223   4602.56077  3.89196         3755.40776     17.95523   0.0005  58575.15989  0.95199   0.0074    6361499.34216  43.84953  18.63997   58614.5544    49.85367       43.16697   34.31813  35.56324   33.0    0.42601   -19.1693   0.9962 
   -8.48399  0.00695  14.44847     14.37737  1.79789  1.21938  2.96556  0.18148     0.01183  6744.49396   4604.34304  4.57648         3459.16419     19.11669  0.00727  58574.83721   0.8047   0.0206    6130283.66105  43.41649  18.62511   58614.5544    49.84153       43.15021   31.72723  37.63295   30.0    0.38436  -19.16431  0.97786 
   -7.27291  0.14381  16.85977     14.51756  1.62293  0.55085  4.13827  0.08901     0.01015  7361.03391   4812.87797  0.63514         2022.45321      19.2467   0.0098   58576.0483  1.33759  0.59513     3950902.8425  43.42875  18.64459   58614.5544    49.90665       43.16493   34.31813  42.29229   36.0     0.3623  -19.14253  0.47794 
   -5.96745  0.00887   13.1098     14.83769  1.46693  0.35126  2.94338  0.11008     0.01025  5688.51452   4498.75345  0.54255         5715.17279     16.20699    1e-05  58577.35376  0.56816  0.02611     494340.37619  44.50604  18.66385   58614.5544    49.86988       43.19193   31.33874  36.70701   29.5    0.40835  -19.18099   0.9697 
