 log(Bfield)      Mns    Pspin  cutoff_power  cutoff_wavelength  fnickel    kappa  kappagamma  mejecta  log(nhhost)  temperature  texplosion  thetaPB     vejecta      A_V        MJD_0   log(KE)      M_Ni  Peak_mag     Peak_MJD 
    14.23546  1.20299  4.42872       0.52322          3897.4985  0.00295  0.22817     0.01204  4.10236     20.28361   6588.15468   -12.25933  0.47086  4786.45724  0.10674  57253.03067  51.86655   0.15897  19.73508     57315.21 
    14.74451  1.53351  2.29263       0.59739          2580.0319  0.02456  0.33971     0.01062  4.57286     20.73857   4679.16038    -8.33835  0.32083  4700.44816   0.3043  57256.95165  51.86329   1.36001  19.73241  57312.80759 
    14.96822  2.02434  1.70402        0.4172         2234.60921  0.01305  0.29563     0.01123  4.93467     20.94647   5337.10807    -7.18934  0.29694  4772.82658  0.49114  57258.10066  51.88512   0.73707  19.71946  57315.65925 
    14.46774  1.27321    3.893       0.75265         2228.88789  0.05351  0.27622     0.01019  4.44539     20.17657    6025.4006   -10.52207  0.36532   4778.2599  0.08343  57254.76793  51.87434   2.94151  19.75692  57312.80759 
    13.98963  1.22113  4.59533       0.49646         3468.10881  0.01922  0.25903     0.01326  4.86607     18.96217   4653.39934   -13.76475  1.10445  5069.47461  0.00509  57251.52525  51.93593   1.08195  19.73555  57315.65925 
    14.01652  1.35807   4.9671       0.19039         5074.94098   0.0661  0.26065     0.01392  4.99906     18.50411   3923.87789    -15.4068  1.22762   5415.9226  0.00177   57249.8832  51.99635   3.74632  19.71549     57315.21 
    14.33449  1.59322  1.13308       0.41998         3011.87196  0.02441  0.21672     0.01126  6.26928     20.98785    6044.8261    -7.80458  1.28021   4593.2889  0.54023  57257.48542  51.87764   1.46355  19.76728  57315.65925 
     15.0043  1.85047  1.08285       0.32794          2215.9502  0.04894  0.30894     0.01274  4.68384     20.84934   5386.14852    -6.44209  0.28803  4634.23135   0.3927  57258.84791  51.85368   2.72746  19.77083  57312.80759 
    14.50698  1.16898   2.3147       0.52989          2112.4347  0.00671  0.28813     0.02235  4.49014     20.36576   6961.15942    -7.66639  0.41816  4776.53332  0.12897  57257.62361  51.87516   0.36981  19.70414  57315.65925 
    14.71466  1.49203  3.35025       0.97359         2393.62697  0.00506   0.2898     0.01002   5.3574     20.09244   4050.85241    -7.13574  0.32704  4896.60517  0.06873  57258.15426   51.9164   0.29212  19.74522  57315.65925 
    14.29242  1.06966  3.58171       0.43961         2265.56822  0.03194  0.24293     0.01136  5.03559     20.31982   4925.29033   -11.18483  0.41398  5056.51517  0.11602  57254.10517  51.93751   1.81372  19.76042     57315.21 
    14.72234  1.89063   1.8529       0.04164         4599.51877  0.02398  0.22424     0.01336  5.77697     21.02015    6258.6588      -8.337  0.44064  5012.60195  0.58194    57256.953  51.94487   1.40922  19.78976  57315.65925 
    14.38504  1.21563  2.56614       0.69306         2230.38949   0.0101  0.21016     0.01265  5.86568      20.1269   9668.54851    -7.41421  0.61173  4469.08795  0.07441  57257.87579  51.84681   0.59565  19.81811     57315.21 
    14.66184  1.16756  0.99638       0.26205         2606.92224  0.04383  0.24989     0.01553  4.94434     20.96958   4576.87875    -7.20433   0.2769  4646.31402  0.51798  57258.08567    51.862   2.47697  19.78788     57315.21 
    14.42178  1.44399  0.72645       0.03343         5345.07078   0.0577  0.21184     0.01549  6.15495     21.09622   7822.33943    -8.31457  0.70807  4826.85766  0.69335  57256.97543  51.91879   3.44385  19.73942     57315.21 
    14.83891  2.04833  1.36785       0.66645         2017.01839  0.00409  0.21922     0.01158   5.9323     20.87941   6911.08453    -4.91512   0.4868  4617.49327  0.42086  57260.37488  51.87638   0.24172  19.69976  57315.65925 
    14.34582  1.00698   3.0947       0.51197         2349.40325  0.00698  0.33804     0.01045  3.64959     20.33616   5413.40312    -11.6012  0.30708  4735.47326  0.12047   57253.6888  51.84338   0.36372  19.72903  57315.65925 
     14.8885  1.84269   0.9887       0.36146         2409.62332  0.00401  0.15973     0.01042  8.01852     21.01223   3019.11155    -7.10013  0.33194  4531.35664  0.57143  57258.18987   51.8909   0.25485  19.72872     57315.21 
    14.38416  1.27517  1.59384       0.59011         2316.52238  0.02826  0.25213     0.01027  5.09064     20.85917   8550.09802    -7.01851  0.58827  4524.36352   0.4017  57258.27149  51.84213   1.60893  19.78792     57315.21 
    14.35724  1.20038  2.55663       0.50317         2128.13011  0.02624  0.26712     0.01138  4.77662     20.71002   6011.78583    -9.05039  0.49761  4729.71199  0.28493  57256.23961   51.8736   1.47008  19.73276  57312.80759 
    14.57309  1.91252  0.97774       0.12238         5840.58899  0.01188  0.16457      0.0295  6.06685     21.04187   7071.16898    -5.61892  0.78406  4293.09593  0.61178  57259.67108  51.81549    0.7068  19.80271  57315.65925 
    14.91371  1.51887  1.11436       0.42508         2656.41319  0.10097  0.28453     0.01135  5.30153     20.65656   7552.29941    -5.29964   0.2953  4781.91637  0.25193  57259.99036  51.89467   5.80826  19.73262  57315.65925 
    14.87513  1.94998  1.43536        0.3318         3270.35125  0.07519   0.2269     0.01113  5.28363     21.01923   6853.86092    -7.03961  0.34983  4550.38549  0.58071  57258.25039  51.85119   4.32166  19.78324     57315.21 
    14.59027  1.61046   2.0496        0.6501         2695.83369  0.00188  0.21973     0.01037  5.22646     20.96174   6553.47945     -7.6996  0.45469  4484.97635  0.50871   57257.5904  51.83743   0.10773  19.76122  57315.65925 
    14.39809  1.07546  3.26974       0.42895         2226.64952  0.02377  0.28807     0.01016  4.61764     20.44455   4760.07617   -12.36205   0.3056  4958.26389  0.15462  57252.92795  51.91078   1.31989  19.74463     57315.21 
    14.71756  1.35469  3.14648       0.67459         2378.84059  0.10885  0.33163     0.01104  4.61423     20.00601   5317.45934    -8.29469  0.29479  5089.35822  0.05633  57256.99531  51.93336   6.04264  19.77283  57315.65925 
    14.18946  1.22537  1.72066       0.44485         2013.55701  0.11534  0.22868     0.01067  4.72585     20.96742   8512.22847    -8.68868  0.78937  4704.03882   0.5154  57256.60132  51.86767   6.44302  19.75126   57318.5109 
     14.3672  1.28134  1.51795       0.48699         2216.57484  0.01725  0.21668     0.01657  5.98715     20.75316   7367.15813    -6.39269  0.73765  4758.80699  0.31469  57258.89731  51.90354   1.02262   19.7344  57315.65925 
    14.44684  1.14944   2.4469       0.51812         3753.02678  0.01212   0.1986     0.01061  5.30169     20.93046   5807.78116    -8.68184  0.33471  4491.80512  0.47336  57256.60816  51.84031   0.69728   19.7515     57315.21 
    14.67746  1.69837  1.31981       0.51663          2134.8581  0.01253  0.19307     0.01618  6.39824     20.94095   3451.15469    -6.98562  0.49823  4611.33789  0.48492  57258.30438  51.88318   0.75513  19.76669     57315.21 
    14.69168  1.52228  0.73031       0.39245         2009.05054  0.00463  0.20852     0.01122  6.12266     20.81536   7328.23617    -6.43761  0.48099  4340.34516  0.36315  57258.85239  51.82596   0.27626  19.76431     57315.21 
    14.84187  1.72056   1.5724       0.05808         3464.47537  0.12128  0.27346      0.0103  4.99509     21.09457   9932.72337    -8.32151  0.26642  4920.70705  0.69071  57256.96849  51.91297   6.87196  19.74873     57315.21 
    14.52007  1.21035  2.80601       0.30199         3901.36946  0.00563  0.33111     0.01651  4.58042     20.02103   5521.73685    -8.03128  0.41271  4917.84959  0.05831  57257.25872  51.90275   0.31214  19.77507  57312.80759 
    14.02659  1.80158  5.97864       0.18987         4740.32658  0.00255  0.31485     0.01082  4.57055     17.25788   3291.07393   -17.07577  1.56829  5684.75623   0.0001  57248.21423  52.02838   0.14124  19.76027     57315.21 
    14.24328  1.18795  3.58263       0.57463         2397.24557  0.00601  0.27646     0.01243  4.68755     20.07149   5658.48458   -11.36308   0.6088  4847.43245   0.0655  57253.92692  51.89284   0.33496  19.71431     57315.21 
     15.0743  1.99313  1.02481       0.00015         3777.07508  0.00914  0.15038     0.02916  8.49752     20.39784   4909.87413    -5.07406  0.33829  4492.87197  0.13886  57260.21594  51.88919   0.58791  19.78446  57315.65925 
    14.64351  1.52821  1.50018       0.53846         2293.13827  0.03913  0.30255     0.01148  4.82116     20.81253   8823.50035    -7.14657  0.46771  4571.82776  0.36079  57258.14343  51.84515   2.19723  19.76142     57315.21 
    14.77085  1.39666  1.55766       0.62803         2394.56703  0.01462  0.30051     0.01159  5.11093     20.52546   5089.43767    -6.06869  0.33262  4675.89443  0.18629  57259.22131  51.87118   0.83329  19.73139  57315.65925 
    14.41262  1.14987  3.48529       0.53825         2674.87617  0.03477  0.29283     0.01088  4.46254     20.19693   7862.36338   -10.17673  0.38163  4813.11572  0.08743  57255.11327  51.88109   1.91327  19.76198     57315.21 
    14.58196  1.29848  1.75709       0.40556         2300.18943   0.0697  0.30371     0.01103  4.44907     20.98225   7798.04322    -7.68575  0.32067  4838.85374   0.5333  57257.60425  51.88538   3.83244  19.75378  57315.65925 
    14.55294  1.59033  0.91486       0.09054         3629.41298  0.01067  0.14579     0.01287  7.31909      21.0086   7790.98509    -7.78901  0.58102  4491.95115  0.56667  57257.50099  51.87419   0.66333  19.74074  57315.65925 
    14.15227  1.17301  3.58198       0.45796         2155.39923  0.03996  0.31197      0.0107  4.00858     20.56492    5706.7263   -11.76297  0.58074  5067.62944  0.20401  57253.52703  51.91342   2.13684   19.7872  57315.65925 
    14.67661  1.68662  2.47293       0.33442          2652.7893  0.04831  0.33792     0.01572  4.54561     20.81759   9121.17423    -8.31797  0.44281  5032.32646  0.36502  57256.97203  51.92187   2.67137  19.77834     57315.21 
    14.69594  1.57679  1.01499       0.28952         2389.71017  0.14242  0.29987     0.01363  4.53602     21.03548   7225.01594    -7.36065  0.41489  4780.97695  0.60285  57257.92935  51.87713    7.8714  19.75238     57315.21 
     14.4677  1.38498   4.3191       0.68489          2043.8499  0.01034  0.30992      0.0129  4.01791      19.9273   4855.85899   -11.23262   0.3987  5031.58397  0.04699  57254.05738   51.9075   0.55357  19.75858     57311.29 
    14.77508  1.74661  2.25146       0.60006         2069.77926  0.00578  0.21214     0.01068  5.23533     20.89932   5953.39359    -7.37737  0.33932  4387.59512  0.44061  57257.91263  51.81854   0.33142  19.81678     57315.21 
     14.6038  1.34585  2.84237       0.29986         2028.51912  0.01007  0.13872     0.01338  8.06882     19.80045   3242.55062    -7.65852  0.42221  4635.51414  0.03509  57257.63148  51.91126   0.64038  19.75763  57315.65925 
    14.51452  1.11323   2.3946       0.90597          2156.9717    0.434  0.26766     0.01015  4.67338     20.40655   5897.88193    -6.28073  0.50243  5303.69325  0.14167  57259.00927  51.97063  24.17331  19.77218  57315.65925 
    14.69603  1.68924  0.70817        0.1399         4200.45531  0.10032  0.25179     0.01052  5.35268     21.05688   8920.99686      -7.394   0.4835  4571.71038   0.6333    57257.896  51.85667   5.78431  19.73961     57315.21 
    14.60301  1.44667   0.8154       0.42586         2028.42363  0.00434  0.14384      0.0102  7.89482     20.94865   6458.36434    -7.14701   0.4752  4224.18524   0.4936  57258.14299  51.82839    0.2744  19.69486  57315.65925 
    14.49885  1.56247  2.29312       0.50641          2368.7122  0.00964   0.1438     0.01053  8.54951     20.87221   5945.45707    -8.01011  0.58368  4802.50475  0.41394  57257.27989  51.94768   0.62123  19.79388  57315.65925 
    14.57511  1.35981  2.23639        0.7789          2117.0595  0.00385  0.28707      0.0152  4.55131     20.82991   6793.63127    -7.00716  0.38943   4802.6042  0.37553  57258.28284  51.88143   0.21303  19.77603     57315.21 
    14.51018   1.3543  0.91067        0.4417         2372.30088   0.0026  0.26812     0.01293  4.83652     21.01101   8035.74337     -5.6239  0.49983   4642.1118  0.56981   57259.6661  51.85876   0.14634  19.77163  57315.65925 
     14.6829  1.24873  3.06534       0.71904         2276.15894  0.12391  0.32493     0.01002  4.86013     19.76457   6295.32567    -8.03416   0.2936  5005.23947  0.03231  57257.25584  51.92472   6.97165   19.7266     57315.21 
    14.50501  1.42391  1.45524       0.36666         2002.34112  0.07498  0.29762     0.01099  4.67149     20.94858   9209.68652     -8.3177  0.50671  4677.39213  0.49352   57256.9723  51.86143   4.17585   19.7834      57311.3 
    14.46874  1.50979  1.34237       0.36781         2244.66232  0.00561  0.26848     0.01098   5.0063     20.96989   8522.34899    -8.26594  0.61823  4587.49622  0.51834  57257.02406  51.85232   0.31781  19.76156  57315.65925 
     14.7211  1.62009  1.66341       0.46535         2573.64592  0.02252  0.22486     0.01059  5.86495     20.60635   8824.85175    -6.19545  0.47546  4336.52344  0.22443  57259.09455  51.82064   1.32807  19.76496  57315.65925 
    14.56923  1.44768  3.85061       1.10452         2694.06723   0.0199  0.22442     0.01034  5.91365     20.62713    3563.5025    -8.66461   0.3384  5158.46738  0.23543  57256.62539  51.97228    1.1761  19.72876  57315.65925 
    14.59715  1.42854  0.98074       0.32942         2167.43267  0.00476  0.15635     0.01476  7.22361     20.90881   9775.97762    -6.77612  0.47079  4387.56979  0.45034  57258.51388  51.85244   0.29526   19.7521  57315.65925 
    14.60103  1.12699  1.26887       0.00314          3620.9321  0.03354  0.16605     0.01837  6.22835     20.91051   8777.37501    -7.29426  0.29099  4641.95164  0.45211  57257.99574  51.88611   2.00757  19.71071     57315.21 
    14.30367  1.06449  3.53655        0.3514         2064.99497  0.02125  0.29355     0.01066  4.04815     20.39991   5638.94326   -12.98098  0.31732  5017.89327  0.13952  57252.30902  51.90601   1.13934  19.73965  57315.65925 
    14.53345  1.37746  4.24423       0.44365         2246.94231  0.01107   0.2556     0.01192  4.42576     19.79724   5536.29096   -10.92474  0.35204  4771.85432  0.03483  57254.36526  51.87266   0.60799  19.68857  57315.65925 
    14.48393  1.36893  4.15534        0.5749         2067.06227  0.06363  0.26147     0.01926  4.35411     20.03983    6123.0517    -9.44545  0.46802  4853.41338  0.06089  57255.84455  51.88551   3.47899  19.78676     57315.21 
    14.16889  1.09837  3.08092       0.09344         3239.61845  0.03178    0.294     0.01297  3.98817     20.73171   7157.70882   -12.06467  0.52876   5036.7145  0.29953  57253.22533  51.90751   1.69728  19.73027  57315.65925 
    14.82572  1.69543  0.80806       0.16781         3136.89992  0.14723  0.23812     0.01127  5.33829     20.85794   6718.71302    -6.57992   0.4447  4584.87197  0.40056  57258.71008  51.85887   8.48369    19.723     57315.21 
    14.45215  1.44921  1.80205       0.54414         2172.48886  0.01378  0.20383     0.01809  5.80424     20.76308   8273.90334    -7.13141  0.69354  4684.20725  0.32196  57258.15859  51.88652   0.81096  19.73841  57315.65925 
     14.3488  1.49562  3.07677       0.48418         2132.51642  0.04542  0.18728      0.0102  5.05205     20.81245   9190.91904    -9.69334  0.65101  4495.30641  0.36072  57255.59666  51.83569   2.58076  19.73827     57315.21 
    14.16919  1.20176  3.78153       0.66814         2133.49708  0.00405  0.30008     0.01541   4.1692     20.00226   6484.44878    -9.76033  0.73837  5150.18057  0.05585  57255.52967  51.93205   0.21888  19.78728     57315.21 
    14.65034  1.58921  1.26891       0.51386         2757.39501  0.01254  0.17814     0.01327  6.62792      20.5915   6591.12548     -5.4926  0.60812  4092.95064  0.21689   57259.7974  51.78326   0.76181  19.74221  57312.80759 
    14.71571  1.59165   1.8128       0.48731         2043.24189  0.01575  0.24953     0.01326  5.30779      20.7805   5246.14944    -6.78885  0.40263  4682.16244  0.33514  57258.50115  51.87649   0.90612  19.71271     57315.21 
    14.76064  1.46718  1.72166       0.57116         2128.40757  0.05338  0.28537     0.01014  6.10597     19.54805   3257.14027    -7.76196  0.40934  4752.06079  0.01962  57257.52804  51.90439   3.17984  19.76858     57315.21 
    14.41156  1.41311  1.00275       0.43912         2586.50895  0.29728   0.2529     0.01199  4.63179      20.8614   9319.65524    -6.99493  0.94669  4717.80622  0.40376  57258.29507  51.86794  16.51996  19.76958  57312.80759 
    14.40442  1.16387  3.41503       0.53722         2334.51991  0.02847  0.33788      0.0102  4.53655     20.15645   4429.79754   -10.40262  0.37194  4933.93303  0.07965  57254.88738   51.9045   1.57361   19.7551  57312.80759 
     14.2692  1.53118  2.17459        0.0225         5886.51217  0.09712  0.20143     0.01681  4.58418     21.03305   6545.57716    -9.03668  0.89518  4737.64741  0.59948  57256.25332  51.87042   5.38218  19.72449  57315.65925 
    14.53811  1.51734  2.07676       0.48496         2095.75982  0.03219   0.2563     0.01034  5.18098     20.71082   9110.11774    -7.53986   0.5498  4453.64969  0.28546  57257.75014  51.83038   1.84078  19.76322  57315.65925 
    14.39799  1.29383  3.13968       0.76333         2021.46601  0.00857  0.32167     0.01184  4.47013     20.49471   4461.66257    -9.87419  0.47842  4941.93134  0.17355  57255.41581  51.90422   0.47164  19.76498  57312.80759 
    14.53338   1.7889  0.76031       0.02192         5275.68501  0.18412  0.23404     0.01818  5.54439     21.05833   7926.64948    -8.47676  0.91825  5123.22356  0.63542  57256.81324  51.95942  10.71003  19.76031     57315.21 
    14.22496  1.30123  2.06636         0.391         2006.13581  0.09369   0.2111     0.01227  5.67315     20.81403    6412.8192    -7.95554  0.98133  4959.23315  0.36204  57257.33446  51.93363   5.48131  19.73697  57312.80759 
    14.74494  1.32582  2.73579       0.54577         2736.77146  0.03904  0.29434     0.01156  4.78811      20.6909   7034.04111    -8.01403  0.24458  4812.82931  0.27267  57257.27597    51.889   2.18801  19.74342     57315.21 
    14.80106  1.55171  2.37422       0.69697         2157.06699  0.02685   0.2812     0.01061  4.86309      20.6425   6409.97705    -6.31448  0.29806  4678.16525  0.24391  57258.97552  51.86609   1.51099   19.7572     57315.21 
    14.38152  1.06069  0.83852       0.34948           2025.038  0.00943  0.27067     0.01226   5.1667     20.77568   9655.87291     -7.1338  0.54375  4422.01409  0.33144   57258.1562  51.82388    0.5387  19.73441  57315.65925 
    14.20855  1.20594   3.4905       0.65743            2458.71  0.05179  0.23226     0.01036  4.83792     20.63449   6873.55951    -9.79645  0.60648  4820.40218  0.23945  57255.49355  51.89152   2.91083  19.69968     57315.21 
    14.07363  1.19526  4.08368       0.54181         2477.31809  0.00546  0.24685     0.01287   5.1321     19.20495   4656.02822   -12.52656  0.93477  5020.15128  0.00891  57252.76344  51.93334    0.3115  19.71648  57312.80759 
    14.17019   1.1058  3.36701       0.56407         2109.68717  0.00648  0.26074     0.01149  4.90532     19.89687   5951.81231   -10.93528  0.69685  4716.96086  0.04381  57254.35472  51.87422   0.36531  19.76404  57312.80759 
     14.3236  1.11767  3.47922       0.75008         2124.99991  0.01054  0.28838     0.01097  4.42553     20.55275   3564.63778   -11.58296  0.35559   5043.4056  0.19837  57253.70704  51.92073   0.57867   19.7783  57312.80759 
    14.24215  1.04837   2.8073       0.43133         2264.38311  0.01544  0.32053     0.01136   4.5283       20.463    3345.4754   -10.70442  0.48306  4881.68413  0.16133  57254.58558  51.89504     0.853  19.78487  57312.80759 
