 texplosion  fnickel    Pspin  log(Bfield)      Mns  thetaPB  mejecta    kappa  kappagamma     vejecta  temperature    alpha  cutoff_wavelength  log(nhhost)      A_V         MJD0  kenergy  mnickel            TSD   log(L0)  Peak_mag     Peak_MJD  log(E_rad)  log(Peak_lum)  Rise_Time    E_fold  tau_1  delta_m15     r_peak     frac 
  -12.81142  0.00952  0.78273     14.30715  1.79672  1.22575   5.5179  0.24845     0.01022  5096.37049   5381.64473   0.0563         2968.32435     21.04816   0.6207  57252.47858  0.85492  0.05255    24843.60936  48.34089  19.72547  57319.77098    51.15471       44.40905   21.64251  51.15501   44.5    0.13804  -20.85062  0.99991 
  -13.44227   0.0196  1.27222     14.32268  1.88806  1.13421  4.52694  0.30766     0.01154  5210.96512   4830.07574  0.11148         2264.61566     21.01944  0.58098  57251.84773  0.73328  0.08871    64209.48085  47.52814  19.71453     57319.13    51.11444       44.36381   23.61001  49.18751   43.5    0.14957  -20.81387  0.99941 
  -12.53596  0.01402  1.29151     14.23393  1.67713  1.35353  4.39279  0.32467     0.01009  5051.68898    5218.7442  0.08405         5273.34092     20.94927   0.4943  57252.75404  0.66872   0.0616    88453.88287   47.3245  19.72604     57319.13    51.08884       44.32658   21.64251  52.34805   43.0    0.15542  -20.75822  0.99949 
  -14.91484   0.0145  2.87777     14.51584  1.80729  0.53261  4.54012  0.30364      0.0135  5407.00399    3421.0787   0.0061         4473.61995     20.80438  0.35408  57250.37516  0.79179  0.06583   129205.07698  46.49648  19.70681     57319.13    51.08926       44.32991   24.07253  49.92623   43.5    0.14591  -20.59966  0.99731 
  -16.72827  0.07595   4.8768     14.12463  1.57164  1.35576  4.49968   0.3168     0.01135  5399.08863   3161.75743  0.14852         5293.81341     18.18145  0.00084  57248.56173  0.78244  0.34175  1955157.96002  44.79775  19.70706  57317.37063    51.06827       44.31675   21.64251  51.15501   45.0    0.15735  -20.25676  0.95213 
  -16.13564  0.08188  5.35168     14.21224  1.83463  1.32327  5.63766  0.30349     0.01086  6096.21027   3075.73904  0.00282         5075.19038      18.0346   0.0006  57249.15436  1.24982  0.46164   1835980.3254  44.81154  19.70839     57319.13     51.1296       44.36755   23.61001  51.15501   44.0    0.15848  -20.32333  0.93908 
  -12.84166  0.05222  0.71203     14.42457  1.85045  0.86465  6.65827  0.20174     0.01034  5317.05118   5385.79663  0.03968         2224.37935     21.09197   0.6866  57252.44834  1.12287   0.3477     12329.2743  48.74019  19.71424     57319.13    51.10576       44.34905   21.64251  53.12251   43.0    0.14974  -20.90516   0.9996 
  -13.21487  0.00447  0.94314     14.32125  1.90218  1.45845  4.76272  0.29917     0.01469  5266.24057   4894.84051  0.06455         3964.45075     21.06531  0.64571  57252.07513  0.78792  0.02128    35786.23822  48.04522   19.7034     57319.13    51.03917       44.28022   24.06433  49.93443   44.5    0.13912  -20.87165  0.99994 
  -12.30058   0.0023  1.22893     14.28085   1.6804  1.14957  4.39658  0.33498     0.01283   5266.7443   5041.80505  0.10791          4626.1079     20.96644  0.51425  57252.98942  0.72749  0.01013    64650.63633  47.50463  19.71722     57319.14    51.15451        44.4036   23.61001  49.18751   43.0    0.14644  -20.78125  0.99993 
   -12.9323  0.00916  1.18613      14.7105  1.96608  0.48051  5.12437  0.32562     0.01083  5233.66237   4165.98587  0.14227         3811.50183     20.94171  0.48578   57252.3577   0.8373  0.04692     9742.90577  48.42549  19.73273     57319.14    51.06573       44.30414   23.61001  51.15501   45.0    0.12581  -20.70656  0.99978 
   -11.9075   0.0025  0.84098     14.40654  1.96937  1.17046  5.75232  0.27374     0.01116   5495.6218   5155.98368  0.25435         2072.58168     21.04452  0.61553   57253.3825  1.03634  0.01438     19890.3827  48.41496  19.73929     57319.14    51.09285       44.33018   21.64251  53.12251   42.5    0.13529  -20.82764  0.99998 
  -11.70271  0.00795  0.91747     14.37447  2.05504   1.5605  4.57933  0.33748     0.01115  5362.81257   5361.59596  0.09904          4840.3479      21.0638  0.64347  57253.58729  0.78562  0.03642     28633.4144  48.19961   19.7207     57319.13    51.07154       44.30935   27.54501  49.18751   43.5    0.16034  -20.91364  0.99992 
  -12.61483  0.01701  1.81527     14.54123  2.19922  0.80528  5.06044  0.29182     0.01104  5371.29117   5021.43765  0.19587         2036.93348     20.95504  0.50092  57252.67517  0.87091  0.08607    55654.61667  47.34773  19.70579     57319.14    51.04399       44.28051   29.21216  47.52036   42.5    0.14835  -20.74714  0.99902 
  -13.44211  0.00668  1.46911     14.32496  1.51099  0.70995  4.89513   0.2949     0.01144  5318.69665    4622.2162  0.15286         2087.12115     20.95715  0.50336  57251.84789  0.82604  0.03269     67807.2808  47.28272  19.73048     57319.13    51.08043       44.32203   25.57751  49.18751   43.5    0.14397  -20.73609  0.99956 
  -13.32274   0.0027  1.05244     14.38228  1.71838  0.77059  5.18362  0.29163     0.01034  5398.24496   4830.35541  0.00661         3157.79023     21.03935  0.60825  57251.96726  0.90108  0.01402    30392.93221  47.97679  19.71099     57319.14    51.12939       44.36948   23.61001  50.38875   43.0    0.14864  -20.85501  0.99993 
  -12.31598  0.02723  0.87318     14.38311  1.83841  0.95108   5.8519  0.23769        0.01  5244.54818   4912.27229  0.02964         5042.93469     21.03615  0.60378  57252.97402  0.96015  0.15933    22296.45793  48.30285  19.70599     57319.13     51.1288       44.38136   23.61001  49.18751   42.5    0.13919  -20.87304  0.99962 
  -13.06334  0.00131  1.04692     14.31408  1.92417  1.52779  6.35829  0.19073      0.0105  5023.34623   5217.90856  0.08351         2827.51605     21.03074  0.59631  57252.22666  0.95709  0.00834     46102.0425  47.84954  19.75895     57319.14    51.07817       44.31556   23.61001  51.15501   43.0    0.14631  -20.84943  0.99997 
  -12.52925  0.01002   0.7357     14.44506  1.55172  0.61261  4.62893  0.31786     0.01212  5214.04161   4993.00144  0.06677         4467.12251     21.01937   0.5809  57252.76075  0.75068   0.0464    10043.96267  48.72435  19.67924  57317.37063    50.60343       43.79007   44.30261  48.16991   43.0    0.14618    -20.914  0.99991 
    -14.988  0.01968  1.63497     14.04409  1.48929  1.40069  4.23263  0.32721     0.01001  5259.85743   3914.05743  0.05331         2952.56022     21.05606   0.6321    57250.302  0.69853   0.0833    301735.1044  46.53518  19.74055     57319.13     51.1473       44.40568   23.61001  49.18751   44.0    0.15564  -20.81763  0.99855 
  -14.03792  0.00133  0.75817     14.46417  1.79143  0.67221  7.49805  0.17195     0.01029  5236.79756   5635.95434  0.01537         5706.99821     21.11502  0.72401  57251.25208  1.22661  0.00994    11277.22799  48.71031  19.72937     57319.13    51.04667        44.2819   21.64251  53.12251   43.5    0.13733  -20.82564  0.99998 
  -12.13071  0.00387  0.95721     14.31167  1.66978  0.96719  5.34048  0.23166     0.01251   5127.1642   4839.26789  0.11438         5716.30604     21.06099  0.63932  57253.15929  0.83746  0.02069    33817.75231  48.00035  19.73206     57319.13    51.02874       44.26055   25.57751  51.15501   43.5    0.15494  -20.90807  0.99992 
  -13.21629   0.0052  1.25858     14.33901  1.60598  0.73378  5.36889  0.24895     0.01025   5173.0704   4263.68297  0.07788          4847.9824      21.0363  0.60398  57252.07371  0.85705  0.02791    49579.14706  47.57953  19.71256     57319.14    51.06711       44.30531   27.54501  49.18751   43.5    0.14841   -20.8478  0.99976 
  -13.25629   0.0012   0.7957     14.27265  1.75853   1.5015  4.96404  0.33353     0.01014  5315.14766   5130.30796  0.00886         5397.54666     21.03398  0.60077  57252.03371  0.83655  0.00596    29455.73464  48.24333  19.71553     57319.13    51.14428       44.39607   25.57751  49.18751   44.5     0.1445  -20.83449  0.99999 
  -12.37753   0.0062  0.86717     14.32855  1.70183  0.97541  4.71842  0.31965      0.0101  5151.79942   5408.58022  0.03718         4830.20635     21.02027   0.5821  57252.91247  0.74704  0.02925    26171.73204  48.20572  19.71042     57319.14    51.11547       44.36145   23.61001  49.18751   44.5    0.14599  -20.80632  0.99992 
   -13.9759  0.00263  1.48868     14.01848  1.26497  1.25143  4.62268  0.32057     0.01123  5412.72376   4873.35408  0.00454         4012.13005     20.94654  0.49121   57251.3141  0.80789  0.01217   239081.15957  46.64678  19.71622  57317.37063    50.59062       43.76207   42.33511  52.10492   43.5    0.15025  -20.73022  0.99978 
  -12.90365  0.04447  1.08609     14.21531  1.55687  1.21428  4.71306  0.29996     0.01068   5066.3015   4771.22978  0.10998         5875.96622     20.98473  0.53637  57252.38635  0.72163  0.20958    63267.96814  47.58818  19.68571  57317.37063    50.58973        43.7683   45.25251  49.18751   43.5     0.1393  -20.79431  0.99871 
  -12.32262  0.00333  1.05316     14.44875  1.83947  0.74052  5.22578  0.24377     0.01045  5106.87773    5201.4102  0.03645         5492.41927     21.04478   0.6159  57252.96738    0.813  0.01741    23988.13624  48.10856  19.70836     57319.13    51.06425       44.30672   24.07253  49.91803   43.5    0.14972  -20.84571  0.99993 
  -11.11548  0.03226   1.0093     14.31561  1.80452  1.56385   4.8905  0.31323     0.01168  5345.00258   5257.52727  0.16986         4901.36985     20.99464  0.54874  57254.17452  0.83344  0.15777    39903.04043  47.91616  19.72516     57319.13    51.10009       44.34937   23.61001  49.18751   42.5    0.14504  -20.86162  0.99945 
  -11.49838   0.0012  0.75458     14.27728  1.62111  1.23823  5.43855  0.25928     0.01608  5453.65041    5297.3071  0.03115         4905.01235     21.03007  0.59539  57253.79162  0.96491  0.00653    23904.96326  48.34476  19.73039     57319.13    51.08136        44.3272   21.64251  51.15501   44.5     0.1486  -20.79966  0.99999 
  -13.08557  0.00137  1.16512     14.37533  1.86442  0.99672   4.6919  0.27924     0.01186  5062.58731   5276.46923  0.00078         3986.95207     20.98584  0.53773  57252.20443  0.71733  0.00641    41729.33046   47.7862  19.72311  57319.77098    51.09377       44.33385   21.64251  52.35625   43.0    0.15033   -20.7766  0.99997 
  -13.63894  0.00141  1.27507     14.52465   1.8651  0.61594  5.17613  0.28697     0.01037  5343.45132   4955.67111  0.01755         2157.31746     20.98212  0.53314  57251.65106  0.88161  0.00732    25134.72901  47.92821  19.69382  57317.37063    50.60499        43.7782   44.30261  50.13741   43.5    0.14853  -20.77194  0.99995 
  -12.38372  0.00958  1.58012     14.48704  2.04792  0.72716  4.40234  0.32437     0.01013  5292.46051   5172.03661   0.0959         4114.08015     21.02602  0.58986  57252.90628  0.73557  0.04215      50400.555  47.48034  19.74457     57319.13     51.1319       44.37224   23.61001  51.15501   43.5    0.15339  -20.85613  0.99959 
  -13.72862  0.00713  0.70219     14.31304  1.91285  1.53655  5.22471  0.29682     0.01082  5373.51304   5517.11464  0.04463         2443.80163     21.09819   0.6965  57251.56138  0.89992  0.03723    20716.30305  48.54131  19.70243  57317.37063    51.03362       44.28042   29.21216   46.7541   43.0    0.14064  -20.83282  0.99996 
  -16.42656  0.00121  5.50889     14.12287   1.8526  1.48369  4.63653  0.33387     0.01007  5767.69868   3686.71208    0.115         4136.74374     17.24228   0.0001  57248.86344  0.92008   0.0056  2964734.74822  44.58251  19.69275  57319.77098    51.12982       44.37869   27.54501  47.22001   44.5    0.16084  -20.30622  0.99917 
  -12.71704  0.00121   1.7265     14.33826  1.90972  1.22189  5.27015  0.26736     0.01054   5220.3094   4958.06408  0.19136         2081.10492     20.91466  0.45645  57252.57296  0.85673  0.00638   111328.59533  47.02888  19.72782     57319.13    51.08662       44.32914   26.03183  48.73319   42.5    0.15594  -20.69489  0.99992 
  -12.61344  0.00144  1.13622     14.20484  1.64093  1.56004   5.3428   0.2827     0.01015  5363.23524   5071.02748  0.02118         4512.48965     21.01354  0.57315  57252.67656  0.91675  0.00768    76585.80292  47.48886  19.72399     57319.13    51.10971       44.35639   21.64251  51.15501   42.5    0.13779   -20.8267  0.99995 
  -13.31922  0.00218  0.83025     14.37474  1.66681  0.72823  5.58495  0.23917     0.01177  5249.04285   5537.88822  0.01102         4391.63898     21.10254   0.7035  57251.97078  0.91792  0.01217    18994.99252  48.37367   19.7053     57319.14    51.11327       44.36496   21.64251  51.15501   45.0     0.1436  -20.91834  0.99997 
  -13.71337  0.00312  0.75115     14.38544  1.88053  1.12924  4.99131  0.33707     0.01334  5466.66126   4948.65197  0.00535         2600.38825     21.03446  0.60144  57251.57663  0.88979  0.01556     16698.6525  48.56899   19.7033     57319.13     51.0635       44.30924   27.54501  48.41305   42.5    0.13809   -20.7331  0.99998 
  -13.79683  0.00226  1.02779     14.27778  1.67008  1.54456  5.03474  0.32855     0.01011   5125.6361   4891.23489  0.07753         3017.66174     20.87299  0.41468  57251.49317  0.78904  0.01137    45582.97566  47.80897  19.72473     57319.13    51.00765       44.23678   26.04003  52.65999   43.0    0.14493  -20.57546  0.99995 
  -14.39242     0.02  1.75765      14.3998  1.96508  0.93956  4.83345  0.29279     0.01186  5206.16537   4518.21942  0.02148         5184.45529     20.97516  0.52468  57250.89758  0.78148  0.09669    89425.57721   47.1209  19.70296  57317.37063    50.92404       44.15848   35.41501  45.25251   45.0     0.1412   -20.6967  0.99875 
  -11.73769  0.00333  0.72926     14.49591  1.76235  0.69261  4.87453  0.29112      0.0125  5272.34323   5504.03697  0.19164         2014.94418     21.01856  0.57981  57253.55231  0.80829  0.01624     8868.44381  48.84132  19.72425  57319.77098    51.09931        44.3447   23.61001  51.15501   43.0    0.14538  -20.83757  0.99998 
  -12.32876   0.0035  0.85949     14.31884  1.80587  1.56862  4.82384  0.29915     0.01333  5212.97687   4996.85108  0.05913         5221.53166     21.00432  0.56111  57252.96124  0.78197  0.01687    28529.61999  48.20176  19.70426     57319.13    51.14837       44.41185   23.61001  47.34805   42.5    0.13774  -20.79406  0.99996 
  -13.32921  0.00106  1.01233     14.47339  2.02771  0.83079  5.38143  0.24148     0.01107  5179.92114   5346.00865  0.02099         5476.76568     21.05113  0.62497  57251.96079  0.86133  0.00568    21811.63061  48.22652  19.71066     57319.13    51.07442       44.31088   24.06433  50.70069   43.5    0.14348  -20.86361  0.99998 
  -12.46681  0.01574  0.78819     14.68578  2.09151   0.5189   5.6837  0.25012     0.01182  5361.92134   4939.66523  0.07045         5035.54238     21.09444  0.69051  57252.82319  0.97476  0.08945     5128.41843  49.08606  19.73813     57319.13    51.18358       44.44472   23.61001  47.22001   42.5    0.14282  -20.91934  0.99989 
  -12.93974   0.0021  1.25133     14.27993  1.89102  1.43702  4.81125  0.33704     0.01109  5533.79068   4961.60843  0.04472         2266.75616     21.04743  0.61966  57252.35026  0.87888  0.01011     75754.0489  47.47139  19.71939     57319.14    51.21865       44.48654     19.675  49.31555   42.5    0.14026  -20.87111  0.99994 
  -12.46095  0.00112  0.77815     14.37131  1.92693  1.06113  5.21752  0.29207     0.01031  5390.72844   5425.21859  0.04728           5898.832     21.09645  0.69371  57252.82905  0.90445  0.00586    19596.93195  48.47939  19.72824     57319.13    51.08521        44.3281   24.07253  50.69249   42.5    0.14086  -20.92868  0.99999 
  -11.07672  0.00436  0.91553     14.35652  1.80752    0.884  5.34057  0.26496      0.0102  5458.44762   5533.92212  0.37016         2115.44379     21.10691  0.71062  57254.21328  0.94919  0.02329    27239.69592  48.16738  19.72392  57319.77098     51.1952       44.45506   21.64251  49.18751   42.5    0.13607  -21.00385  0.99993 
  -13.42952  0.01551  0.84573     14.36516  1.74266  0.99746  5.93543  0.26614     0.01006  5376.57766   5000.94456   0.0011         5020.51974     20.98937  0.54212  57251.86048  1.02351  0.09207    21536.11625  48.32243  19.72931     57319.13    51.05104       44.28239   21.64251  53.12251   43.0    0.14205  -20.75691  0.99979 
  -13.05618  0.00486  0.77098     14.25988   1.6759  1.34908  5.22513  0.27966     0.01181  5300.59012   5164.65577  0.08689         4648.51875     21.05327  0.62806  57252.23382  0.87574  0.02539    27950.76112  48.27261  19.72348     57319.13    51.04362       44.28559   27.54501  48.42125   44.0    0.14191  -20.94584  0.99995 
  -13.61137  0.00298  1.47059     14.37646  1.71861  0.67898  4.96556  0.27448     0.01102  5310.98354   4251.85462  0.01425         2980.38436     21.05359  0.62852  57251.67863   0.8355   0.0148    60960.71088  47.38399  19.71698     57319.13    51.18579       44.44705   23.61001  47.34805   45.0    0.14902  -20.85948  0.99984 
  -12.79346   0.0017  0.82658     14.28051   1.6907   1.5004  5.58101  0.28371     0.01087  5323.17658    5361.5134  0.05701          4733.1099     20.99389  0.54779  57252.49654  0.94337  0.00948    29473.42034  48.19291  19.70069     57319.13    51.10074       44.34698   21.64251  51.15501   43.0    0.15365  -20.79094  0.99998 
   -12.5776  0.00952  1.09957     14.27164  1.49595  0.76944   4.9436  0.28742     0.01091  5373.28391   5403.09596  0.02494         5799.61249      21.0657   0.6463   57252.7124  0.85143  0.04707    48072.83762  47.67942  19.71131     57319.13    50.97414       44.19881   23.61001  53.12251   42.5    0.14724  -20.89497  0.99966 
  -12.73001  0.00279  0.79135     14.43882  1.84529  0.81276  4.97663  0.28775     0.01198  5255.75699   5006.96259  0.01362         2835.17371     21.05074  0.62441  57252.55999  0.82004  0.01388    14222.62967  48.58519  19.71671     57319.13    51.07144        44.3135   24.06433  49.92623   42.0    0.15664  -20.88502  0.99998 
  -15.83447  0.00101  5.08241     14.28515  1.82566   0.9795  5.57778  0.32644     0.01257   6068.3763   3086.30824  0.06394         2165.89317     17.51012  0.00018  57249.45553  1.22527  0.00561  1177822.84194  45.04705  19.74874     57319.13    50.93996       44.15876   31.48001  49.18751   45.0    0.15157  -20.30637  0.99928 
  -12.12707  0.00315   0.8479       14.356  1.95587   1.5034  5.43243   0.2655     0.01097  5192.40424   5508.45253  0.11268         5045.12115     21.05135  0.62528  57253.16293  0.87369  0.01712    25341.71481  48.29966  19.73567  57319.77098    51.15828       44.41378   21.64251  51.15501   42.5    0.13838  -20.91764  0.99997 
   -13.5354  0.00157  0.98075     14.22328  1.68419   1.2266  5.09787  0.27147     0.01094  5234.88141   5271.76842  0.10844         4037.98336     21.10653  0.70999   57251.7546  0.83335  0.00798    53797.20425  47.78136  19.71471  57317.37063    51.14272       44.38973   23.61001  49.18751   43.5    0.14553  -20.90023  0.99997 
  -12.78562  0.00117  0.74356     14.33979   1.9464  1.33311  6.27826  0.21043     0.01088  5235.18672    5150.7942  0.00536         3258.76179     21.09319  0.68852  57252.50438  1.02643  0.00737    20897.96746  48.49534  19.73081     57319.13    51.08408       44.32263   27.54501  48.42125   42.5    0.13265  -20.91626  0.99999 
  -13.40412  0.00983  1.37096     14.20116  1.59744  1.24893    4.634  0.30516     0.01256  5275.85328   3386.12425  0.07476         5114.11256     20.99791  0.55288  57251.88588  0.76943  0.04556   110397.90327  47.15526  19.71626     57319.13    51.04639       44.28686   24.06433  49.93443   43.5    0.14582  -20.79367  0.99952 
  -11.47731  0.00176  0.86666     14.42888  1.58555  0.72965  6.28066  0.23514     0.01016  5314.25902   5070.88586  0.25368         2782.24876     20.96206  0.50908  57253.81269  1.05808  0.01106    15343.48303  48.40741  19.71029     57319.13    50.98063       44.21262   29.21216  49.48786   43.0    0.14642  -20.71943  0.99997 
