 texplosion  fnickel    Pspin  log(Bfield)      Mns  thetaPB   mejecta    kappa  kappagamma      vejecta  temperature    alpha  cutoff_wavelength  log(nhhost)      A_V         MJD0   kenergy  mnickel            TSD   log(L0)  Peak_mag     Peak_MJD  log(E_rad)  log(Peak_lum)  Rise_Time    E_fold  tau_1  delta_m15     r_peak     frac 
   -5.70614  0.08102  1.25321      14.7744  1.84554  0.92207   3.04548  0.33372     0.34002  21656.91735   4507.31362  1.01851         3623.39397     16.54745    2e-05  59119.79148   8.52071  0.24674     7606.49135  48.45774  19.21078   59141.5446    50.81807       44.41159    8.55781  23.83081   20.0     0.7328  -21.67404  0.99945 
   -7.77827  0.02379  3.93673     14.43817   1.7973  0.63595    2.3413  0.28944     0.01736  13318.01487   3784.53654  3.11266         2995.65409     17.90119  0.00044  59117.71936   2.47721  0.05571   343841.45322  45.79684  19.14446  59147.75723    51.04778       44.56619   11.91541  26.21389   23.0    0.65731  -21.55449  0.99569 
    -7.4593  0.15018  4.76382     14.62993  1.66881  0.43192   1.10086  0.23445     0.07056  13560.86486   7235.11413  1.33702         4026.73237     17.90588  0.00045  59118.03833   1.20763  0.16533   193317.94532  45.84907  19.19713  59144.56112    50.95841       44.45632    10.0634  26.21389   22.5    0.77085  -21.50758  0.97938 
   -6.69197  0.04056  1.89821     14.78474  1.96625   0.8056   3.77864  0.12289     0.06348  13996.41586    8207.4548  0.77084          5037.8726     16.12717    1e-05  59118.80566   4.41567  0.15325    17727.80704  47.75714  19.16786  59145.48961    50.96501        44.5783    9.79399  18.80298   19.0    0.82612   -21.5567  0.99842 
  -11.53399  0.05798  1.28734     14.54481  1.89796  1.09753   3.45748  0.19393     0.45488   16476.8372   9221.28314  0.14065         3228.42626     20.30378  0.11182  59113.96364    5.5993  0.20045    23761.13229  47.95188  19.22917  59143.40564    51.03494       44.64637   11.91541   18.5009   18.5    0.66973  -21.29887  0.99908 
  -12.14489  0.02015  3.99474     14.32351  1.91773  0.30789   2.25117  0.16693     0.01202  13506.05201   3122.02029  2.31177         3194.07417     17.61213  0.00023  59113.35273   2.44958  0.04536   640572.10027  45.54209  19.18557  59148.59376      50.908        44.3199   14.22451  34.84568   27.0    0.60725  -21.52728  0.99655 
  -11.59983  0.12806  4.57992     14.51123  1.61484  0.47365   2.43997  0.24813     0.17791  15698.45976   7200.73648  2.85412          3136.7768     17.67668  0.00026  59113.89779   3.58695  0.31247   298677.14762  45.68005  19.23394  59143.40564    50.93547       44.38269   18.60197  26.67657   30.0    0.49506  -21.49975   0.9627 
  -11.78474  0.24868  5.53016     14.39556   1.8999   0.7095   2.31794  0.25623     0.04957   15332.1297   9127.67439  3.99327         3173.34725     18.51599  0.00182  59113.71289   3.25038  0.57643   872792.03922  45.12119  19.15968  59144.58773    50.71122       44.24706   18.70693  22.33652   23.0    0.55771   -21.5142  0.92406 
   -7.67509  0.04824  3.70607     14.56013   1.9024  1.22198   2.71809  0.18188     0.04501  15428.86659   5054.48284  1.59097          3663.8176     16.97319    5e-05  59117.82254   3.85975  0.13113    183939.5638  46.14564  19.22945  59145.48961    50.96302       44.60452    9.34954  19.06465   20.0    0.77397   -21.4934  0.99198 
   -7.81758  0.07565  2.17259     14.62467  1.55248  0.74869   3.75332  0.09898     0.01395   12365.1807   5270.98952  1.06862         4335.67139     18.49953  0.00175  59117.68005   3.42329  0.28395    38321.82338  47.20247  19.25324  59145.48961    50.98242       44.49925   16.09603  22.03327   18.5    0.91134  -21.43507  0.99277 
  -11.50833  0.31187  3.80629     14.26038  1.80577  1.16817   1.96181  0.16806     0.05708  13747.90127   6608.52814  0.17309          5121.3125      17.6936  0.00027  59113.98929   2.21186  0.61184   732342.78326  45.49979  19.23442  59145.48961    51.27486       44.86985   11.25389  20.31661   27.0    0.57387  -21.46023  0.95776 
   -5.29268  0.11141  0.87235     14.68534   1.6617  0.78847   5.51504  0.27537     0.05567  21962.03952   4017.00113    0.614         4427.60882     16.47989    2e-05  59120.20494  15.86796  0.61441     5001.26315  48.90893  19.26808  59143.40564    50.71092       44.24077   15.86844  22.07807   21.5    0.59212  -21.75993  0.99937 
   -4.41943  0.01615  1.82404     14.24797  1.31866  1.54919   4.65693   0.0761     0.43543  10236.53564   4855.98051  1.06349          5428.9875     16.20019    1e-05   59121.0782   2.91094  0.07519   130037.47573  46.75284  19.22607   59141.5446    50.80768       44.45788    8.55781  21.44773   22.5    0.65308  -21.69547  0.99815 
  -10.34948  0.14737  0.94513     14.90184  2.06812  0.73178  12.96058  0.07991     0.36326  19448.13225    6545.8357   0.3804         3787.55604     17.76279  0.00032  59115.14814  29.24202  1.91005     2695.89396  49.20273  19.20885  59143.44421    51.03515       44.58955   16.68157  21.44773   28.0     0.5529  -21.15262  0.99886 
   -3.06219  0.20817  1.12002     14.74594  1.87882  1.33353   7.14313  0.12237     0.03235  17270.71207   3326.07916  2.19649         3421.00815     19.37766  0.01326  59122.43543  12.70973    1.487     7051.20817  48.59601   19.2319  59141.41823    51.01879       44.70524    8.24769  18.10235   23.5    0.61888  -21.34335  0.99831 
  -10.17852  0.05664  0.91033     14.31311  1.55699  1.13313   7.95616   0.0417     0.33042  11410.58773   7993.71334  0.25976         3812.14988     20.50876  0.17926  59115.31911   6.17941  0.45063    28332.60959  48.09045  19.13394  59143.40564    50.74289       44.43829   12.18567  16.41131   27.0    0.59219  -21.35439  0.99857 
   -5.93172  0.05343  1.05453     14.67878  1.93098  1.35989    9.2094    0.049     0.44002   14507.9027   6749.24875  0.58672         4510.81523      18.1412  0.00077  59119.56591  11.56293  0.49203     8752.73241  48.56636  19.22142  59141.41823    50.89355       44.51564   12.44648  16.68157   19.5     0.8079  -21.41889  0.99942 
  -15.22945  0.32724  4.40124     14.21207  1.92234  1.46485   1.71993  0.22899     0.14269  14793.21882   4434.67954  0.05285          5240.3284     17.59854  0.00022  59110.26818   2.24525  0.56282  1302137.61502  45.15087  19.19885  59143.40564    51.05058       44.71671    7.53383  20.31661   32.5    0.48328  -21.44158  0.95273 
   -8.50211  0.01827  4.85233     14.62214  1.77125  0.56554   1.46192  0.23267     0.11981  12877.29745   9924.06965  2.64716         3200.77346     19.23027  0.00944  59116.99552   1.44611   0.0267   220660.68226   45.8015  19.24501  59144.56112    51.04736       44.56116   16.68157  23.83081   22.0    0.65268  -21.39511  0.99679 
   -6.44081  0.02716  1.39084     14.60153  1.60109  1.03457   7.94063  0.05975     0.14313  13774.84436    7603.1526  1.02452         4274.15505     18.82226  0.00369  59119.05681   8.98784  0.21566    18018.81402  47.93098  19.23351  59143.40564    50.88105       44.26795   20.81739  31.61039   20.5    0.77159  -21.45836  0.99876 
   -9.38842  0.19712  2.48183     14.44547  1.65768  1.18136   5.38379  0.12165     0.29049  12309.19039     9868.481  1.51549         4080.00154     17.16804    8e-05  59116.10921   4.86602  1.06127    121876.5901  46.61288  19.24499  59144.56112    50.71697       44.28556   17.30766  20.36342   25.0    0.47266  -21.48409  0.96611 
   -5.96951  0.04474  1.51596     14.57175  1.55162  0.90568   7.86238  0.06077     0.03599  13304.07948   4051.99423  0.90948         4187.42042     19.74918  0.03118  59119.52812    8.3014  0.35174    23794.53873  47.72178  19.19904  59140.57988    51.00459       44.63014    13.0696   18.5009   21.5    0.68711  -21.45352   0.9967 
   -8.07643  0.01415  4.14626     14.43993   1.6154  0.89446    2.2694  0.19002     0.04164   11187.0978   5821.31157  3.76971           3408.517     18.74007  0.00305  59117.42119   1.69423  0.03211   340054.95097  45.71026  19.13932  59141.41823    50.89724       44.44916   12.44648  19.06465   25.0    0.57524  -21.44963  0.99678 
  -10.40026  0.02791  4.94698     14.36944  1.55907  0.55541   1.92745  0.19554     0.22719  13308.83784   7706.84223  3.64891         3341.08444     19.06409  0.00644  59115.09737   2.03653  0.05379   646380.77279  45.26254  19.20852  59144.56112    50.93917       44.56505    8.55781  19.06465   32.5    0.50733  -21.47904  0.99181 
  -11.20931   0.0243  3.61056     14.07387  1.75532   1.0421   3.67346  0.06211     0.17609  11434.29454   4769.51386  0.41768         3581.39592     19.85091  0.03941  59114.28832   2.86498  0.08927  1512072.68111  45.21848  19.21594  59146.59011    50.83753       44.35852   13.06896  27.44342   54.5    0.32309  -21.51034  0.99393 
   -7.30873  0.04635  1.73032       14.665  1.75372  0.58943    5.8301  0.09861     0.25724  13910.62487   8946.03476  0.36456         3977.91367     17.14025    8e-05   59118.1889   6.72971   0.2702    22804.73371  47.67852  19.25043  59144.56112    50.81505       44.34566   16.68118  23.56055   21.0    0.59978  -21.54482   0.9964 
   -6.36422  0.32071  3.55876     14.92243  1.77075   0.3741    2.8415  0.10387     0.28188  14570.30911   5240.17489  0.98365         4225.09189     16.31061    1e-05  59119.13341   3.59842  0.91129    29764.71272   46.9407  19.07172  59148.59376    50.99107       44.47551    17.5821  25.31336   23.0    0.84727  -21.52051  0.94538 
   -5.97295  0.20031  2.01344     14.92763  1.64014  0.38256   4.33699  0.07927      0.2515   13683.3905   3551.83573  0.62543          5569.8518     16.43437    2e-05  59119.52468   4.84398  0.86876     8616.26372  47.94053   19.2347  59143.44421    50.98833       44.54123   15.45268  19.06465   21.0    0.85721  -21.51848  0.98386 
   -6.09461    0.058   1.2093     14.70159  1.79975  1.02792    3.1956  0.10781     0.12232  11903.63255   7504.38772  0.87186         5078.80551     16.59686    2e-05  59119.40302   2.70109  0.18534     9658.64299  48.37407    19.137  59147.75723    51.02562       44.57726   11.91541  23.83081   17.5    0.87461  -21.78434  0.99957 
   -5.80001  0.04499  1.34319     14.56408  1.41835  0.78278    1.6288  0.30107     0.45271  13444.69175   4229.94917  0.82319         5929.60667     19.10311  0.00704  59119.69761   1.75629  0.07328    17689.29014  47.91664  19.17224  59143.40564    50.80197       44.47447   13.60003  15.52802   20.0    0.75842  -21.68981  0.99942 
   -5.40302  0.04734  2.39409     14.85221  2.00789  0.60196   3.71122  0.09988     0.34388  12403.30229   5700.22558  1.02131         5935.84893     16.50625    2e-05  59120.09461    3.4058  0.17569    21106.11141   47.4889  19.20993  59143.44421    50.87677       44.53386    8.55781  19.06465   20.0    0.81474  -21.75353  0.99638 
   -7.56803  0.17867  4.89217     14.56262  2.11752  0.96031   1.31828  0.31661     0.03423  15468.85123   8599.18466   1.7596         3010.79246      18.1985  0.00088  59117.92959    1.8817  0.23553   352694.55949  45.66827   19.2281  59139.44645    51.04316       44.75083    7.68032  15.55051   17.0    0.99766  -21.43169  0.97848 
    -7.5015  0.00702  3.89169     14.40808  1.50141  0.50349   1.79723  0.33667      0.0146  13928.11427   9457.29375  2.93504         3612.03366     18.80747  0.00357  59117.99613   2.07978  0.01262   322428.44941  45.75664  19.19492  59140.57988    50.85594       44.58042    10.0634  16.28664   18.5    0.84469  -21.56431  0.99874 
   -6.17199  0.03357  0.70932     14.73449  1.68127  0.63078    15.607  0.07294     0.22757  14908.17474   9238.78558  2.47916         2412.04217     19.52458  0.01859  59119.32564  20.69167  0.52399      2667.8353  49.36664  19.13262  59148.59376    51.02785       44.47211   12.44648  28.59697   23.0    0.30507   -21.6943  0.99973 
    -5.2417  0.47085  1.36151      14.6539  1.67322  1.13365   2.30727  0.17876     0.24394   16250.5178   9284.64605  0.66602         5881.75139     17.06815    6e-05  59120.25593   3.63463  1.08638    14177.67017  48.07275  19.18644  59143.44421     50.8477       44.36871   16.95183  23.56055   17.0    0.96761  -21.69691  0.99565 
   -3.29695  0.31689  0.98874     14.74316  1.65339   0.8968   1.89821  0.26083     0.07744  17112.62616   7673.94803    0.666         5969.37019      18.6738  0.00262  59122.20068   3.31593  0.60153     4898.27201  48.80701  19.17958  59143.40564    50.77577       44.36711    17.5821  20.54719   16.5    0.96261  -21.65835  0.99935 
   -8.85887  0.06097  1.08642     14.62865  1.59039  0.68719   8.69654  0.04458     0.31076  10229.21375   9276.25498  1.07909         4034.58896       20.437  0.15196  59116.63876   5.42823  0.53019     9638.65971  48.41434  19.21931  59143.44421    50.73306       44.34683    8.35777  22.67726   23.0    0.59088  -21.37935  0.99816 
   -9.31759  0.00285  1.67781     14.44876  1.63254  1.39571   4.11555  0.11952     0.32645   9476.06903   6657.27289  1.82929         3607.35689     19.87216  0.04139  59116.18003   2.20451  0.01173    54030.69642  47.29959  19.22295   59141.5446    50.96988       44.64057    9.53232   18.5009   26.5    0.46641  -21.22929  0.99985 
   -4.70189   0.0532  1.76458     14.72074  1.44694  0.55906   2.95948  0.24868     0.24164  16646.99341   4577.13382  1.38086         3724.48697      18.5939  0.00218  59120.79573   4.89231  0.15744    15138.02167  47.75594  19.19499  59144.56112    50.95638       44.47588   13.60003  20.29418   21.5    0.66313  -21.52197  0.99744 
   -3.81787  0.05884  0.93761     14.78215  1.64797  0.77844   4.83642  0.22912     0.31083  19556.35551   6027.57961  1.70671         3848.09545     17.63353  0.00024  59121.67976  11.03385  0.28458     3668.65295  48.97724  19.30894  59144.56112    50.91986       44.47962   14.29849  21.44773   22.0    0.65141  -21.55004  0.99974 
   -8.82961  0.10389   2.5463       14.553  1.75665   0.7797   4.57118     0.06     0.09822  12968.46511   7862.59735  0.35352         5834.89669     19.18014  0.00841  59116.66801   4.58599  0.47492    82856.67919  46.78338   19.2703  59145.48961    50.83561       44.30639   18.44192  26.83662   24.0    0.73409  -21.46195  0.98486 
  -13.57305  0.13434  2.12104     14.34246  1.39818   0.8255   3.38006  0.26326     0.03198  15835.67622   7289.66439  0.99043         2718.23027      18.5999  0.00221  59111.92458   5.05621  0.45407   120659.78366  46.67975  19.20336   59141.5446    50.93416       44.52895   11.91541  21.44773   21.5    0.61729  -21.30613  0.98571 
  -10.23543  0.07901  4.93378     14.30654  1.74423  0.93054   2.37204  0.14262     0.01228  12243.33946   6192.15696  2.20487         3512.05623     18.31974  0.00116   59115.2622   2.12104  0.18742    960946.6614  45.14139  19.26833  59143.40564    51.03795       44.67146   14.29849  16.68157   20.5    0.84337  -21.40548  0.97652 
   -9.44742  0.09289  1.44138     14.55344  1.73054  0.88829    4.4618  0.09636     0.10727  12187.31852    7887.1758  0.38314         5683.01361     18.59128  0.00217  59116.05021   3.95324  0.41444     26101.6718   47.7728  19.17645  59146.59011    50.97217       44.41705   18.73629  25.31336   23.0    0.63075  -21.36648  0.99675 
    -5.2859  0.08009  0.83909     14.70652  1.73233   0.9507  10.27433  0.12283     0.05371  21751.63656   7651.32206  0.82603         3325.66454     18.34505  0.00123  59120.21173  28.99777  0.82292     4375.46836  49.01884  19.19456  59144.56112    50.79934       44.32803    16.5823  22.07807   20.5    0.61222  -21.62233  0.99949 
   -2.61162  0.03882  0.70573     14.86504    1.966  0.87614   7.43199    0.184     0.27862  25826.87587   5914.75904  0.85953          3207.6782     18.55611    0.002  59122.88601  29.57168  0.28853     1692.77583  49.63655  19.28861  59139.44645    50.78678       44.32651    10.0634  26.21389   20.0    0.70258  -22.33425  0.99995 
  -10.94883  0.15021  3.78779     14.21827  1.64037  0.82989   2.08516  0.30015     0.02273  15940.92789   5386.38142  4.91491         2054.39418     17.82015  0.00037   59114.5488   3.16077  0.31321   799810.92794  45.42403  19.13942  59143.44421     50.9766        44.6488    7.14924   18.5009   22.5    0.71549  -21.47957   0.9747 
   -6.38122    0.066  1.01297      14.6781  1.69736  1.08587   3.78699   0.3164      0.2254  23874.21604   7341.78457  3.32746         2443.24141     16.82622    4e-05  59119.11641  12.87595  0.24996     7121.79055  48.63484  19.20001     59140.59    50.69577       44.23649    15.7301  21.94098   19.0    0.61553  -21.53233  0.99969 
   -8.57084  0.15227  3.07164     14.46995  1.50588  0.53205   1.27953  0.31881     0.41371  15171.28576   5178.01054  0.48383         5041.96681     20.21261  0.09064  59116.92678    1.7568  0.19483   151509.16367  46.29146  19.24196  59147.75723    51.05566       44.47776   14.29849  28.59697   27.0    0.62182  -21.69451  0.98819 
   -8.78624  0.01348  4.07664     14.65273  1.78319  0.47366   2.02473  0.16423      0.1788  14263.98665   4163.78587  0.77739         3900.35772      19.6933  0.02742  59116.71138   2.45741  0.02729   136193.04056  46.16528  19.22893  59143.44421    50.89745       44.41842   16.21889  23.30419   27.0    0.64695  -21.49388  0.99771 
   -4.35126  0.48161  1.08364     14.75047  1.85741  1.03301    2.8937  0.25682     0.17313  18400.16301   7082.41626  0.71374          4418.3948     17.55898   0.0002  59121.14637   5.84419  1.39363     6390.71679  48.66243  19.21388  59148.59376    51.02717       44.50873   11.91541  28.59697   20.5    0.72261  -21.57505  0.99828 
   -9.70398  0.28061  3.11541     14.64196  1.82213  0.67324   2.30596  0.23118     0.05723  16196.99025   8483.41472   0.5628         4200.22776     18.03603   0.0006  59115.79365   3.60867  0.64707    85408.64842  46.61089  19.20493  59143.44421    50.86953       44.49506   14.26412  19.63009   19.0    0.76491  -21.50902  0.97076 
   -4.68181  0.25822  0.76064     14.92887  1.97146  0.66899   6.52746  0.26612     0.01221  20332.95316   9035.98523  1.82022         3881.21779     16.90019    4e-05  59120.81581  16.09801  1.68552     1469.63052  49.63407  19.16686   59141.5446    50.75919       44.32294   14.82956  21.44773   19.5    0.65219  -21.81637  0.99956 
   -7.54049  0.00413  2.20626     14.22285  1.42534  1.24219   3.34469  0.05714     0.12902   7894.05588   3724.56321  0.97881         4787.01124     20.09655  0.06939  59117.95714   1.24332  0.01381   230862.70462   46.3721  19.22538  59144.56112    50.81431       44.35597    17.5821  21.94098   27.5    0.62971   -21.4866  0.99953 
   -6.39747  0.16147  1.32386     14.83458  2.04526  0.79693   2.55194  0.31409     0.03678  21324.61547   3143.47004  0.09331         3944.12709     17.01095    6e-05  59119.10016   6.92246  0.41206     7129.86651  48.48283  19.14173  59145.48961    51.04582        44.6178     12.752  21.14221   15.5    1.22701  -21.51274  0.99895 
   -8.84525  0.02068  3.48658     14.41621  1.77595   1.0538    3.0334  0.09803     0.04456  12501.90309   6445.95271  0.70106         4265.33363     16.76138    3e-05  59116.65238   2.82819  0.06273   294870.06681  45.96385  19.20094  59140.57988    50.73841       44.35852    7.14924  23.83081   24.5     0.7034  -21.43792  0.99616 
   -8.94737    0.019  1.41937      14.5827  1.50916  0.74307   4.06986  0.26987     0.03036  19387.35474   7818.71829  1.93095         2799.61114     20.21114  0.09034  59116.55025   9.12523  0.07733    19289.92906  47.85806   19.1241  59146.59011     50.8391       44.38343   11.32987  24.41635   18.5    0.76838     -21.48  0.99931 
   -7.49664  0.42777  2.41097     14.62663  1.54453  0.53903   2.21113  0.09397      0.0359   8462.45215    6923.1381  1.06602         5776.23834      19.8296  0.03753  59118.00098   0.94457  0.94586     46531.0757  47.02552  19.18487  59146.59011    51.06729       44.53319    9.99001  23.83081   24.5    0.68692  -21.64874  0.96781 
