 log(Bfield)      Mns    Pspin  cutoff_power  cutoff_wavelength  fnickel    kappa  kappagamma   mejecta  log(nhhost)  temperature  texplosion  thetaPB      vejecta      A_V        MJD_0   log(KE)      M_Ni  Peak_mag     Peak_MJD 
    13.94334  1.47665  2.48626       2.02663          2938.3387  0.06826  0.01014     0.31831  97.28118     19.37181   5555.03343   -11.10319  1.31081  13134.10203  0.01308  56351.86581  53.01069   6.79865  20.28018    56399.891 
     14.0649  1.60548  2.56873       1.57011         3117.43043  0.19282  0.02904     0.41647  33.90967     19.55698   3891.96774    -12.8603  0.94057  13395.64389  0.02003   56350.1087  52.95569  16.26661  20.28647    56399.891 
    14.14839  1.79713  2.83007       1.69861         2932.48097  0.04127  0.02331     0.35412  39.72655     16.41465   5546.53416   -17.73452   0.5949  12254.05885    1e-05  56345.23448  52.88995   3.57608  20.29312  56397.57784 
    13.98295   1.6865  2.89976       1.26864         3193.81932  0.06076  0.01128     0.11839  82.36128     18.91411   4819.64798   -14.86815  1.02348   13819.4101  0.00456  56348.10085  53.04424    5.9054  20.32991    56399.891 
    13.88414  1.76906  2.68118         2.381          3005.9614  0.03635  0.06065     0.49399  12.18346      20.2552    5400.2386   -15.24085  1.19013  11070.16911  0.09998  56347.72815  52.70627   2.52803  20.25792  56397.57784 
    14.13775  1.93971  3.16193       1.66505         3358.17711   0.2706  0.04276     0.21424  17.38288     16.38073   5201.38634   -10.71654  1.07506  11144.48171    1e-05  56352.25246  52.74304  20.21298  20.29431  56397.57784 
    13.92083  1.78573  2.97547       3.18704         2841.16354  0.03438  0.01544     0.08783  55.12998     17.24933   4911.71744   -15.15049  1.37456  11433.18323   0.0001  56347.81851  52.85285    3.1421  20.28894  56397.57784 
    14.01444  1.62493  2.86959       1.96323         3065.05847  0.31536  0.04888     0.33332  19.51208     18.02161   5559.77359   -10.70577  1.09658  13866.33774  0.00058  56352.26323  52.94246  24.08276  20.24616  56397.57784 
     13.9497  1.50041  2.74051       2.10939         3115.43428  0.05944  0.02759     0.26341   20.7999     18.45301   5111.55684   -10.74034  0.78676  11498.78592  0.00158  56352.22866  52.78506   4.59404  20.21648    56399.891 
    14.35806  1.52285  2.58323       2.42477         2969.04505  0.06165  0.02572     0.13706  31.49382     19.56861   5155.67912   -18.04162  0.26134  12051.63103  0.02057  56344.92738  52.85832   5.13482  20.28147    56399.891 
    14.30054  1.85751  3.04927       1.83563         3134.36539  0.22328  0.03094     0.45239  30.94909     18.05869   5530.57326   -10.86781  0.69806  12750.78038  0.00064  56352.10119  52.90598  18.54124  20.21973  56397.57784 
    14.10614  1.61936  2.84935       1.75542         3044.51508  0.07126  0.01264     0.21749  63.84041     16.39267   4902.46778   -11.60427  0.68611  13132.87771    1e-05  56351.36473   52.9832   6.66351  20.29332    56396.325 
    14.17939  2.02284  3.22577       2.59376         2915.30176  0.48009  0.06839     0.42924   13.0778     17.20457   5005.53267   -12.38845  1.12494  11976.48078    9e-05  56350.58055  52.78097   33.8848  20.25417  56397.57784 
    14.07827  1.81802  2.28093       1.62857         3277.92042   0.0935  0.01108     0.13145  77.27576     20.54184   5524.33471    -9.90889  1.27232  11866.10287  0.19345  56353.06011  52.90774   9.00118  20.16915  56397.57784 
     13.9048  1.78349  2.82812       2.09892         3026.14909  0.04893  0.05631     0.38781  12.92969     19.61668   6037.82385   -13.85903  1.47063  10816.97786  0.02298  56349.10997  52.69151   3.44524  20.24393  56397.57784 
    14.14554  1.77755  2.80204       1.58294         3165.78094  0.20959  0.02459     0.33917  38.33467     19.45108    4961.0812   -13.13822  1.02263  12424.28963   0.0157  56349.83078  52.89934  18.05264  20.25119    56399.891 
    13.97398  1.70099   3.0126       2.29504         3041.37996  0.16168  0.04885     0.34333  13.86336     18.98794   5641.09393   -12.41658  0.88874   11871.5055   0.0054  56350.55242  52.77848  11.54771  20.20531    56396.325 
     14.1546  1.42986  2.54981       2.07555         3265.75344  0.09293  0.01437     0.15874  45.15899     17.01062   5960.12767   -12.48533  0.53913  10285.47935    6e-05  56350.48367  52.74703   8.22467  20.26248  56397.57784 
    13.99885  1.20263  2.15384       0.86132         3702.87659  0.30025  0.03879      0.3542  24.58106     18.13894   5769.70623   -12.32931  0.70044  13515.50602  0.00077  56350.63969  52.93879  23.93182  20.25795    56399.891 
    14.60541  2.08945  3.36097       2.07366         3079.41616  0.15454  0.04553     0.25203  17.48193     19.19532   5046.30732   -16.01569  0.26112   11626.2652  0.00871  56346.95331  52.78028  11.55613  20.26139    56399.891 
    14.04996  1.75545  2.98969       1.68785         3249.69228  0.03953  0.01953     0.48301  37.92111     16.64851   5582.25142    -14.2935  0.71232  12442.14082    2e-05   56348.6755   52.8998   3.39906  20.25485  56397.57784 
    13.94638  1.71079  3.03845        1.8326         3194.16686  0.20641  0.05276     0.38543  10.80984     17.67469   4540.02427   -12.27564   0.9945  11505.85953  0.00026  56350.69336  52.72886      14.0  20.26014    56399.891 
    14.00622  2.13373  3.46222       1.91116         3289.24962  0.08366  0.03389     0.11768  17.76999     19.52213   5775.70987   -13.50756  1.52677  10861.52048  0.01849  56349.46144  52.72255   6.27569  20.22041  56397.57784 
    14.17022   1.6759  2.85038       1.85666          3145.3718  0.17908  0.02322     0.36189   35.9244     19.14874    5462.2964   -10.31814  0.79789  11711.19444  0.00782  56352.65086  52.84324  15.25668  20.28129  56397.57784 
    13.99657   1.6079  2.47417       1.00946         3436.70776  0.11978  0.01812     0.22695  53.86878     19.21733   5440.93144   -12.93712  1.41448  13276.91068  0.00916  56350.03188  52.98112  10.90652  20.25506    56399.891 
    13.91644  1.75644  2.65356        2.2403         2963.20143  0.08759  0.01782     0.08796  45.47187     20.45325   4790.08889   -13.84834  1.29161  12213.69226  0.15775  56349.12066  52.89677    7.7611  20.21277  56397.57784 
    14.12426  2.02847  3.37736       2.81511         2940.73474  0.07549  0.01508      0.2199  49.81996     18.11924   4369.39951   -10.85623  1.01673  11833.95265  0.00073  56352.11277  52.87576   6.78874  20.27633    56399.891 
    14.12762  1.93074   3.0893       1.77305         2727.71992  0.21372  0.02936       0.182  37.45958     19.02718   4293.30504   -12.35502   1.4697  14509.69466  0.00591  56350.61398  53.03243   18.3374  20.21558  56397.57784 
    13.95235  1.71361  2.81028       1.67331         3109.27702  0.05371  0.01387     0.10227  57.82469     16.44345   5331.58455   -12.66065  1.47573  11548.70604    2e-05  56350.30835  52.86485   4.94595  20.22085  56397.57784 
     13.8745  1.66905  2.82072       2.39255         3128.19174  0.04037   0.0196      0.3618   34.4614     17.09858   5933.90489   -12.33358   1.4996  10566.77992    7e-05  56350.63542  52.75085   3.41544  20.20635    56399.891 
    14.29924  1.28441  2.36546       2.47071         2959.95613  0.04231  0.02139     0.46027  38.87201     16.95516   5325.03455    -15.4537  0.23465  12535.34603    5e-05   56347.5153  52.90809    3.6529  20.27748    56399.891 
    13.80812  1.49149  2.57395       2.84362         2959.79939  0.04302  0.04834     0.46495  13.55368     19.20934   5889.02048   -12.25948  1.35497  10215.50839    0.009  56350.70952    52.646    3.0587  20.25779    56399.891 
    14.13993  1.74719   2.9298       2.57237         2915.60041  0.17306  0.08376     0.49477   8.08627     17.49394   5107.18466   -11.22444  0.60403  12418.68554  0.00017  56351.74456  52.76743  11.01135  20.25729    56399.891 
    13.88619  1.76354  2.82479       1.30646         3480.76955  0.04172  0.01962     0.34164  41.26791     19.23242   5471.94223   -15.17124  1.50753  11851.38908  0.00949  56347.79776  52.86368   3.63781  20.26736    56399.891 
    14.22948    2.076  3.41868       3.09625         2909.30776  0.04698   0.0185     0.19405  34.13019      16.2274   6210.06932   -11.93359  0.67745  10090.21513    1e-05  56351.03541  52.71005   3.96797  20.29246  56397.57784 
    14.17611  1.83758  3.01935       1.89844         3331.28155  0.22318  0.07114     0.23528   9.49558     19.12671   5703.18425   -13.31391  0.62933  10608.96968  0.00744  56349.65509   52.6462  14.71895  20.27742  56397.57784 
    14.22458  1.92738  3.07148       1.96573         2996.22837  0.07404  0.07699      0.2879  10.86779     16.65566   5597.13028   -16.17528  0.53455  11546.90293    3e-05  56346.79372  52.73245   5.02764  20.26453    56399.891 
    14.22735  1.92562  3.14609       2.28507         3188.97875  0.17337  0.01767     0.05824  37.93492     17.98704    5905.6381    -8.27568  1.00914  10398.42376  0.00054  56354.69332  52.74397  14.90645  20.23015  56397.57784 
     14.0873  1.97817   3.0593       1.62286          3035.5822  0.26436  0.05565     0.26271  17.54347     16.64705   4630.97353   -13.11377  1.39996  12507.38327    2e-05  56349.85523  52.84403  19.78215  20.30576    56399.891 
    14.07167  1.61247  2.65295       1.63325         3167.94812  0.11082  0.03651     0.22212  23.96021      18.7471   5248.26277   -18.20746  0.62743  11720.40563   0.0031  56344.76154  52.81299    8.7923  20.36172    56399.891 
    14.37624  1.96073  3.08865       2.21951         3163.20588  0.05256   0.0197     0.40377  36.94526      19.5773   5948.37365   -13.80011  0.41755  11278.37625  0.02099  56349.16889  52.81259   4.49904  20.26096    56399.891 
    14.01217  1.70793  2.86542       2.02016          2976.9926  0.11578  0.02468     0.33261  38.93125     19.77239   5237.76426   -12.53465  1.03613  12963.47744  0.03289  56350.43435  52.93737   9.99806  20.28816  56397.57784 
    14.16325  1.65354  2.63125       2.19845         3048.37395   0.2388  0.03243     0.49684  30.17574      18.4125   5674.92444   -10.23938  0.91102  12528.82387  0.00144  56352.72962  52.88881  19.74186  20.28887  56397.57784 
    13.94684  1.81401  3.05895       1.81459         3236.01392  0.03255  0.02361      0.2537  27.55261     17.81516   5145.77442   -11.65282  1.23907  10783.78226  0.00036  56351.31618  52.75157   2.64816  20.22742    56399.891 
    14.09217  1.89948  3.13921       1.16762         3470.67918  0.04951  0.01387     0.27945  64.38176     16.12553   5241.00492   -15.89345  0.80736  12553.03556    1e-05  56347.07555  52.94455   4.63559  20.28634  56397.57784 
    14.05147   1.6965  2.77575       1.52726         3252.02491  0.16918  0.02243     0.17149  34.35222      18.9867   4937.54548   -11.98583  1.18391  11511.20355  0.00539  56350.98317  52.82497  14.30375  20.25461  56397.57784 
    14.44093  1.94972  3.24143        1.8866         3428.60323  0.05795  0.01012     0.09907  65.00626     17.23612   5360.88662   -13.14837  0.40407  10331.85472   0.0001  56349.82063  52.77605   5.43359  20.15767  56397.57784 
    13.89836   1.8208  2.99686       1.71192         3156.63328  0.05574   0.0181     0.22542  47.16692     19.46241    4795.6406   -14.33941  1.51804  12639.43431  0.01611  56348.62959  52.92912   4.96864  20.25994    56399.891 
    14.06357   1.4169  2.61011       3.08229         2909.57754  0.04339  0.01345     0.14891  54.60035     18.81894   5441.29053   -12.35343  0.54818  11782.00445  0.00366  56350.61557  52.87829   3.95888  20.27139  56397.57784 
    14.19254  1.71526  3.00697       3.50789         2920.81615  0.03178  0.04035     0.35595  15.03527       18.565   6059.56171   -12.66764  0.48267  10323.28423  0.00204  56350.30136  52.66419   2.30717  20.29379  56397.57784 
    14.18357  1.67039  2.97932       2.58728         3175.16202  0.05134  0.01074     0.23111  53.50467     17.63357   6106.28734   -11.88994  0.56686   9617.52925  0.00024  56351.07906  52.70058   4.66999   20.2837    56399.891 
    14.02353  1.95624   3.1484       1.63719         3250.67736  0.04055  0.01289     0.26733  61.80809     18.19811   6131.49568   -15.16724  1.15838  11697.62503  0.00088  56347.80176   52.8805   3.77283  20.25296  56397.57784 
    14.01032  1.69153  2.81997       1.38083         3124.27593  0.13289  0.02708     0.37695  33.08044     16.66642   4947.08863    -14.7018  0.97244  12835.35265    3e-05   56348.2672  52.91673  11.16302  20.21831  56397.57784 
    13.91783  1.73742  2.61284        1.8108         2906.85795  0.07694  0.01519     0.18966  63.38356     20.39554   4800.55684   -13.95294  1.50842  13306.22274  0.13812  56349.01606  52.99411   7.18644  20.23249  56397.57784 
    13.98671  1.84463  2.98781       2.94411         3012.94624  0.03107  0.01943     0.10298  36.06548     16.21692   4156.85297   -15.18866   1.0491  10399.85614    1e-05  56347.78034  52.74038   2.64878  20.22053    56396.325 
    14.35494  1.89362  3.13743       1.42984         3201.16519  0.08013  0.02622     0.15341  26.98576     19.31343   5385.62334    -15.3782  0.37941  12151.52641  0.01143   56347.5908  52.85368    6.4954  20.30134  56397.57784 
    13.95423  1.67817  2.82649       2.13441         2970.34001  0.16431  0.04181     0.16171  17.55778     18.77018   5317.85645   -11.14521  1.09332  12456.74812  0.00327  56351.82379  52.84058  12.29673  20.29664    56399.891 
    13.75891  1.59855  2.73393       2.26425         3062.10462  0.04682  0.05335     0.26516  11.35475     19.99985   4931.07084   -13.67725  1.42125  11752.41572  0.05554  56349.29175  52.75181   3.20874  20.24577  56397.57784 
    13.98204  1.33945  2.21248       3.37572         2496.15131  0.17321  0.02816       0.341  45.31403     16.24971    3405.0749    -9.57238  0.99479  15394.01193    1e-05  56353.39662  53.09753  15.33807  20.25266    56399.891 
    13.86934  1.58396  2.68511       1.77885         3296.30698  0.11828  0.04574     0.27515  12.38361     17.48491   5146.02966   -13.63684  1.18355  10086.87763  0.00017  56349.33216  52.62695   8.25483  20.25026  56397.57784 
    14.13511   1.5019  2.64332       3.46304         2847.85302  0.07286  0.07161     0.37342  10.36556     17.25985   5446.73157   -13.66306  0.47664  10866.45855   0.0001  56349.30594   52.6753   4.89771  20.26991  56397.57784 
    14.10754  1.89191  3.07336        1.7426         3378.50102  0.42497  0.05944     0.37616  12.06733     17.62307   5422.71186   -10.52936  1.24375  10665.72166  0.00023  56352.43964  52.67308   29.5001  20.24354  56397.57784 
    14.18591  1.81718  2.47279       1.03371          3605.2439  0.21428  0.02633      0.0986  34.81126     19.89164   5536.23571    -7.80712   1.0658  12270.15988  0.04329  56355.16188  52.88141  18.15769  20.28735    56399.891 
     14.4774  2.05291   3.2596       1.39582         3184.03616  0.05827  0.03614     0.41818  23.92926     18.09651   5505.80695   -16.14173  0.29983  13542.68583  0.00069  56346.82727  52.93841   4.62154  20.23413    56399.891 
    13.81233  1.55399  2.78003       2.31994         2995.30742   0.0587  0.01729     0.39453  36.52602     16.14146   6391.50952   -14.28426  1.23377  11657.18897    1e-05  56348.68474  52.84045   5.01513  20.27089  56397.57784 
    14.04132  1.70633  2.95392        2.1957         3017.35895  0.08248  0.01848     0.13198  40.95276        19.21   4846.78989   -13.34655   0.8492  11810.08651  0.00901  56349.62245   52.8601   7.18345  20.29207    56399.891 
    13.88941  1.71017  2.74199       1.81782         3172.41276  0.02993  0.01816     0.08752  40.96638     19.88463   5238.04095   -15.45932   1.1465  10863.80795   0.0426  56347.50968  52.78758   2.60713  20.25417    56396.325 
    13.74252  1.26471  2.39584       1.74477         3136.64353  0.32271  0.07399     0.39321  10.29133      19.1752   6680.70253   -11.50899  1.10458  13781.11663  0.00832  56351.46001  52.88102   21.6588  20.22639  56397.57784 
    13.91584  1.78046  2.95863       2.64992         3004.50835  0.07026  0.03071     0.45731  24.81185     17.01309   5268.09035   -14.49363  1.50272   11073.6828    6e-05  56348.47537  52.76644    5.6099  20.29633  56397.57784 
    14.22757  1.51664  2.63782       1.28251         3173.31348  0.06103  0.06667     0.43997  10.70304     16.83732   5588.48679   -11.76627  0.35991  13224.61593    4e-05  56351.20273  52.84887   4.13036  20.20552    56399.891 
    14.03123  1.74921  2.81902       1.78313         3050.32198  0.09724  0.01498     0.27812  58.70011      19.4722   5335.70354    -11.1955  1.30486  13021.92928  0.01648   56351.7735  52.97016   8.97479  20.21159  56397.57784 
    14.08027  1.95382  3.16219       1.98215         3182.07261  0.21095  0.04092     0.44345  19.00612     16.08984    5167.6787   -10.68464  1.51631  11466.14193    1e-05  56352.28436   52.7752  16.02944  20.27413    56399.891 
    14.34696  2.09501  3.24913       1.28986         3359.18489  0.10169  0.01636     0.14763  49.72108      18.0252   6057.01497   -12.28125  0.65615  11698.97433  0.00059  56350.68775  52.86566   9.14135  20.26723    56399.891 
    14.26729  2.11713  3.16493        1.3324         2978.16716  0.30374  0.03957     0.30043  28.53379     16.27323   5032.98212   -10.67373  1.11571  15411.80002    1e-05  56352.29527  53.06442  24.86542  20.28408    56399.891 
    13.99959   1.4572  2.19358       1.55417         3112.64166  0.20783  0.02619      0.3948  39.11916     17.92118    5689.2436    -9.58356  1.56905  14191.26656  0.00046  56353.38544  53.01632  17.96225  20.17686    56396.325 
    14.13944  1.85014  3.02265       2.29473         3026.12998  0.24836  0.03238     0.31367  27.88677     16.62604   5003.25686    -8.09598  1.36784  12285.62496    2e-05  56354.87302  52.86575  20.24907  20.27248  56397.57784 
    14.22138  1.83669  2.80585       1.64799         3229.80011  0.08617  0.01072     0.24881  83.88209     17.81495   5394.32821   -12.08912  0.86371  11931.89351  0.00036  56350.87988  52.91786   8.39757  20.26541    56399.891 
     13.8981  1.61838   2.7955       2.06094          3152.0153  0.05521   0.0132     0.27664  61.31267      16.0163   4966.72781    -14.1141  1.28033  11523.95374    1e-05   56348.8549  52.86696   5.13083  20.23652  56397.57784 
    14.10562  1.69075  2.87939        3.4157         2839.70552  0.04703  0.01508     0.30717  50.10088     16.65368   5389.97836   -13.21233  0.69442   11020.0475    3e-05  56349.75667  52.81426   4.23255  20.24029  56397.57784 
    14.04431  1.90408  3.13929       1.41254         3318.06784  0.08072  0.01263     0.29964  71.88692     19.17521   6832.36599   -13.76972   1.2883   12980.4354  0.00832  56349.19928  52.98096   7.68655  20.29604    56399.891 
    13.94932  1.48334  2.68805       2.30273         3171.59644  0.17237  0.02082     0.07885   32.9494     18.22835   4291.19579   -11.08107  1.24289  10676.62158  0.00094  56351.88793  52.75649  14.46961  20.25528  56397.57784 
    14.31026  2.06374  3.34268       1.83752         3205.74775  0.08835  0.05696      0.2585  10.54998      19.6863    6222.5328   -13.79012  0.47298  10903.51185  0.02698  56349.17888   52.6799   5.96124  20.29437  56397.57784 
    14.06908  1.66351  2.71645       1.40662         3395.35072  0.12519  0.01403     0.27283  64.49728     16.72964    5718.1006     -8.7205  1.38959   12612.9015    3e-05   56354.2485   52.9488  11.72531   20.2282    56399.891 
    13.92358  1.53688   2.6832       2.04469         3300.81976  0.19506  0.05255     0.41907   9.23838     19.48289   6273.03884   -10.93148  1.06081    9071.8663  0.01689  56352.03752  52.50762  12.78707  20.34002  56397.57784 
    14.35875  1.81018  2.98792       2.32379         3085.53433  0.02875  0.02497     0.45758  29.33724     16.00921   5784.34197   -14.35288  0.36102  10725.95258    1e-05  56348.61612  52.75171   2.36475  20.28519    56399.891 
