 log(Bfield)      Mns    Pspin  cutoff_power  cutoff_wavelength  fnickel    kappa  kappagamma   mejecta  log(nhhost)  temperature  texplosion  thetaPB      vejecta      A_V        MJD_0   log(KE)      M_Ni  Peak_mag     Peak_MJD 
    14.06083  1.63181  3.94777       0.13907         5193.96627  0.00492  0.06996     0.03487    2.0544     18.14233   5905.82532    -6.83402  0.84605   8568.12747  0.00077  58653.36598    52.283    0.2156  20.06427  58690.31885 
    14.43687  1.43153  4.21974       1.21261         3530.51004  0.00381  0.19213      0.1441   1.33083     16.38954   7771.61489    -6.88308  0.30559   9498.90859    1e-05  58653.31692  52.30539   0.14289  19.93629  58690.31885 
    14.12108   1.8956   4.5645       0.29842         5704.45559  0.01019  0.14089     0.16603   1.80632     16.05798   8431.01647    -7.49797  1.30171   9129.18917    1e-05  58652.70203  52.31924   0.42746  19.92428  58688.44337 
    14.27772  1.80089   4.1195       0.42665         3540.45957  0.02001  0.16986     0.16284   3.29435     16.44174   5259.40106    -5.84822  1.08196  11662.64138    2e-05  58654.35178  52.61373   1.01334  19.90693  58688.44337 
    13.77704  1.20373  2.97303       0.68964         4703.25278  0.07603  0.03267     0.01176   4.03047     20.23759   3238.87884    -6.40562  1.15702   6592.94142  0.09601  58653.79438  52.14261   4.07227  19.86244     58691.22 
    14.13736  1.78151  4.55421       0.06607         4867.26367  0.00687  0.32622      0.2536    1.0437     16.43431   5737.10035    -6.77181  1.05436  12944.34279    2e-05  58653.42819   52.5315   0.23387  19.90909  58688.32456 
    14.52489  1.93038  4.99603       3.79418         2312.46569  0.08366  0.20698     0.41997   1.59668     16.68088   6289.40918    -7.24081  0.35253   9822.04551    3e-05  58652.95919   52.3639   3.36052   19.8799  58690.31885 
    14.14431  1.74194  4.06807       0.60508          4964.1042  0.00259  0.12407     0.39481   1.67918     18.23968   7289.68663    -6.18501  1.26755    7137.1022  0.00096  58654.01499  52.09435   0.10607  19.97665  58690.31885 
    14.22515  1.52755  3.84565       0.66123         2278.51195  0.02951   0.2326     0.25828   1.67795     18.65689   7915.36231    -7.45516  0.56126  10981.36929  0.00252  58652.74484  52.46851   1.20649  19.98044     58691.17 
    14.07883  1.82934  4.55079       0.11977         4390.62623  0.00945  0.32774     0.28271   0.96484     19.14223   4055.85328    -6.62091  1.50459  12126.49726  0.00771  58653.57909  52.46006   0.31072  19.92002  58690.31885 
    14.71301  1.94083  4.97491        0.5851         2614.05413  0.10391  0.20675     0.09958   1.68118     16.08072   4376.32179    -6.40862  0.27594  12389.03661    1e-05  58653.79138  52.57356    4.2514  20.00036  58690.31885 
    14.24688   1.6124  3.94276       0.42252         2548.29442  0.00295  0.29201     0.04533   1.12983     17.04151   3334.03054    -7.79731  0.54539   9995.76003    6e-05  58652.40269  52.32137   0.10363  19.92178  58688.44337 
    13.76868  1.34633   3.6542       0.16735         4501.09464  0.46521  0.09108     0.05726   2.35011     18.80053   5646.86591    -7.66945  1.32539  11082.88116  0.00351  58652.53055  52.52539  21.28675  19.89311  58688.32456 
    14.22731  1.62062  3.38202       0.23058         5437.58074  0.00559  0.13355     0.15918   3.60834     17.79089   5228.96849    -5.26435   1.2669   10488.1549  0.00034  58654.93565  52.53268   0.29037  19.95046  58690.31885 
    14.14307  1.82823  4.65168       0.38787         5876.74039  0.00477  0.16179     0.17029   1.26574     16.57787   9977.13647    -6.50512  1.12803   9280.56083    2e-05  58653.69488  52.27672   0.17544  19.91743  58690.31885 
    14.18453  1.94979  4.97126       0.86177         2911.39049  0.02842  0.16542      0.2521     2.111     18.93481   3729.73842    -8.03538  0.91529  10981.51852  0.00478  58652.16462  52.50243   1.25643  19.87789  58688.44337 
    14.09341  1.59808  4.47911        2.7463         2271.78514  0.00643  0.22886     0.24427     1.351     16.76891   5238.80137    -7.53965   0.8832   10304.2163    3e-05  58652.66035  52.37858   0.24272  19.93296  58690.31885 
    14.09601  1.87437  5.17027       3.74481         2277.54993  0.02195  0.04352     0.03455   5.94851     17.99379   7418.36212    -5.97746  1.06104  11646.02893  0.00055  58654.22254  52.68022   1.29903  19.94569  58690.31885 
    14.08716  1.83996  4.41638       0.54654         3895.87519  0.00486  0.29582     0.27917   0.83572     18.35805   5162.90605    -7.71521  1.49285   8230.53939  0.00127  58652.48479   52.0951   0.14965  19.95006     58691.17 
    14.08334  1.75312   4.7438       0.65887         2922.29737  0.00127  0.31776     0.29848   1.25599     18.43637   5860.66889    -5.98437  1.29886  14315.29497  0.00152  58654.21563  52.65185   0.04664   19.9261  58690.31885 
    14.17998  1.67741  4.01526       0.33778         3562.80868  0.01099  0.16362     0.15928   3.07921     16.51176   4347.26563     -5.8507  1.42369  11847.82956    2e-05   58654.3493  52.61896    0.5456  19.93692  58688.44337 
    14.30354  1.77701  4.32586       0.42158         3949.68852   0.0078   0.1548     0.11416   1.47259     19.43272   7855.29654    -6.90536  0.69214   8744.29225  0.01505  58653.29464  52.25011   0.30437  19.95029  58688.32456 
    14.03159  1.36017  3.99404       0.64267         2722.80019  0.02108  0.13182     0.11125   2.52155     17.14014   7199.21039    -7.07545  0.81233  12806.07886    8e-05  58653.12455  52.66048   0.98605   19.8899  58690.31885 
    14.44602  2.05081  4.69551       0.30279         4008.70597  0.01409  0.27645      0.0391   1.01783     16.67075   7820.90113    -7.12809  0.35191  11491.21071    3e-05  58653.07191  52.42341   0.47421  19.84055  58688.44337 
    14.14198  1.96301  5.27492       2.70709         2146.99622  0.02451  0.23967     0.16075   1.00258     18.25299   5845.53503    -6.38887  1.00929  11964.11988  0.00099  58653.81113  52.45562   0.81968  19.87974     58691.17 
    13.95166  1.39204  3.26152       0.52409         5208.41856  0.00177  0.12693     0.06699   1.08609     19.63412   8484.51792    -7.86103  0.64383    6841.3972  0.02392  58652.33897  51.98492   0.06122  19.94295  58688.32456 
    14.09153  1.78465  4.45795       0.14888         4062.42992  0.00315  0.06571     0.21732   3.41163     17.35168   5221.65805    -6.54288  1.17531  10668.30401  0.00012  58653.65712  52.54064   0.16128   20.0136  58688.32456 
    13.96523  1.62856  4.13015       0.91184         2058.69688  0.00464  0.16828     0.19712   1.55274     19.86568   6993.55813    -6.37234  1.25804  12194.70302  0.04078  58653.82766  52.54746   0.18436  19.99345  58690.31885 
     14.4239  2.00383  4.83938         0.172         5638.00936  0.02294   0.2212     0.08708   1.35916     16.33681   3678.13331    -8.19037  0.46238  10961.87411    1e-05  58652.00963  52.43332   0.86813  20.01828     58691.17 
    14.22625  1.51974  3.69214        0.2882          4377.2483  0.05008  0.24837     0.03499   1.06458     17.54678   5903.95194     -7.8404  0.39051  10391.59763   0.0002   58652.3596  52.34435    1.7179   19.9511  58688.44337 
    14.29414  1.80244  4.69009       1.10335         3080.03563  0.01406   0.2848     0.23185   1.11273     17.07925   9198.60682    -7.86209  0.69288   8723.20295    7e-05  58652.33791  52.20036   0.49116  20.03547  58688.44337 
    14.17006  2.02982  5.54259       3.03696         2985.16464   0.0074  0.06371     0.05986   4.30503     18.03944   5491.22232    -7.51272  1.27186   7440.13105  0.00061  58652.68728  52.25528   0.40352  19.89868  58690.31885 
    14.11638  1.51074  3.48108       1.25752         2588.85137  0.06715  0.14609     0.05325   3.69897     18.33056   7660.24117    -5.73741   1.5047   9699.23949  0.00119  58654.46259  52.46775     3.513  19.93036  58688.44337 
    14.06487  1.53502  3.92812        0.3307          3866.5962    0.046  0.10364      0.0648   3.78491     18.68082   9847.39643    -7.60351  1.00948  10772.68775  0.00266  58652.59649  52.56167   2.42206  19.88613  58690.31885 
    14.52997  1.77168  3.82833       0.02708         5297.92399   0.1643  0.28654     0.49602      1.81     17.65657   6842.28064    -5.25474  0.55639  11886.88505  0.00025  58654.94526  52.54881   6.89724  19.85808  58690.31885 
    14.08027  1.52791  3.91573       0.34848         3518.45657  0.04096  0.31548     0.37179     1.101      19.0821   9562.06009    -7.50656  0.81144  10859.85135  0.00671  58652.69344  52.38875   1.42499  19.91061  58690.31885 
    14.16324  1.56851  4.33311       1.08732         3110.64568   0.0211  0.10893     0.04275   2.37179     17.74342   4598.39704    -7.72151  0.50695  11710.30973  0.00031  58652.47849  52.57448   0.96849  19.92823  58688.32456 
    14.13598   1.9215  4.91657       0.13775         5868.91432  0.07897  0.15451      0.1462   1.79569     16.30462   3559.70261    -6.82578  0.91553  13251.33954    1e-05  58653.37422  52.64201    3.3062  19.97039  58688.44337 
    13.88306  1.52788  3.99595       0.02007         5924.88841  0.09281  0.33996     0.27147   0.74651       16.933   5847.91166    -8.04845  1.10765  12816.87343    5e-05  58652.15155  52.45616   2.70746  19.91669  58690.31885 
    13.69888  1.70139  3.21338       0.38509         5930.44076  0.04038  0.11923     0.01253   1.82498     19.88017   7622.35534     -8.9302  0.94288   9405.48354  0.04216   58651.2698  52.34667    1.7002  19.86592  58688.32456 
    14.32664   1.6237  4.01621       0.04208          5050.2617    0.003  0.25249     0.20043   1.13654      19.8627   9664.34654    -6.48984  0.48886  11873.22795   0.0405  58653.71016  52.47194   0.10581  19.83467  58690.31885 
      13.951  1.60392  4.22116       0.08993         4051.46147  0.01594  0.07948     0.04582   3.16226     17.06742    3888.3312    -7.17318  1.43473  11635.56963    6e-05  58653.02682  52.60661   0.79761  19.82833      58692.3 
     14.0452  1.81956  4.73368       0.56615         3125.91048  0.01633  0.10015     0.04713   3.28564     16.54134    9426.5612    -7.82067  1.51644  11416.33979    2e-05  58652.37933  52.59486   0.82615  19.91055  58690.31885 
    14.04505  1.65682  4.14395       0.15252         3474.45662  0.13937  0.17477      0.4715   1.57756     16.28488   7180.62976    -7.24609   1.4871  10153.14228    1e-05  58652.95391  52.39081   5.57386  19.97294  58690.31885 
    14.39698  1.67928  4.18094        0.0653          4036.7546  0.01679  0.08868     0.12072   3.16131     19.69191   5621.02111     -6.5883  0.43636  11292.24596  0.02733   58653.6117  52.58055   0.84041  19.91004  58690.31885 
    14.17463  1.87579  4.11198       0.55066         2946.88982  0.13254  0.25796        0.02    1.7093     18.29598   6846.19797    -7.75842   1.3845   9020.99373   0.0011  58652.44158  52.30054   5.45434   19.8987  58688.44337 
    14.14579  1.72644  4.26005       0.69924         3280.25213  0.04223   0.0856     0.07683   4.45813     20.42997   7552.07873    -7.32244  0.84117   12813.5426  0.14952  58652.87756  52.73146   2.32315  19.93646  58690.31885 
    14.21243  1.86506  4.65056       2.09384         2716.26525  0.00118  0.28253     0.18602   1.45721      17.6153   5590.75868    -6.78534  1.17665   8830.66382  0.00023  58653.41466  52.25695   0.04578  19.90223      58692.3 
    14.15511  1.96528  4.87624       0.27054         5727.71435  0.00976  0.29611     0.27924    0.8518     18.96306    8318.2392    -6.52237  1.35926  10608.15188   0.0051  58653.67763  52.31939   0.30342  19.95208  58690.31885 
     14.2152  1.87765  4.79004       0.87971         2625.77987  0.25743  0.17915     0.09556   2.03863     19.27963   6451.72451    -6.05467  1.51461  11125.73129  0.01058  58654.14533  52.50878  11.25014  19.94612  58690.31885 
    14.18391  1.57192  4.11387       0.19225         2499.28449  0.25524  0.06479     0.10287   8.69872     18.27504   9626.55125    -6.58035  1.28019  13491.76283  0.00105  58653.61965  52.84656  16.51022  19.95586  58688.44337 
    14.65253  1.96555  4.79791       0.07335          2708.5346  0.05258  0.07414     0.33989   3.58269     17.28231   7542.90822    -6.97444  0.32413  10696.79442  0.00011  58653.22556  52.54893   2.72636  19.90938  58690.31885 
    14.13631  1.40674  3.50775       0.35836         5675.46083  0.00602  0.20383     0.35238   1.63186     17.03214   9373.93243    -6.99599  0.79648    9108.5389    6e-05  58653.20401  52.30179   0.24365  19.85815  58688.32456 
     14.1999  1.81209  4.50645       0.45058         3226.91129  0.00231  0.20163     0.05677   2.10206     19.45488   6115.26085    -6.73637  1.16663  11571.59703  0.01583  58653.46363  52.54729   0.10176  19.91396  58688.44337 
     14.1527  1.74815  4.40432       0.16548         3212.38849  0.03359   0.0475     0.01028   8.51902     16.27407   3573.32617    -7.32701  0.92488  12537.97492    1e-05  58652.87299  52.78085   2.16266  19.94236  58690.31885 
    14.62112  2.07802  5.17251       0.79457         2136.25144  0.05728   0.0449      0.1874   5.69995     16.81283   5858.23763    -7.01634  0.33402  10958.59573    4e-05  58653.18366  52.62282   3.35511  19.94916  58690.31885 
    14.15297  1.85538   4.4534       0.50235         4601.74185  0.33586   0.1949     0.05565   1.76076     19.94178   9843.30583     -6.6637  1.45158     9887.242  0.04859   58653.5363  52.38468  13.96584  19.88754  58690.31885 
    14.31454  2.14384  5.02725       0.18448         4356.06083   0.0376  0.25279     0.04215   1.42326     18.41007   3227.87092    -7.35794  0.94038  10810.58792  0.00143  58652.84206  52.42884   1.44786  19.84512  58692.32731 
    14.09097   1.4933  3.79084       1.90445         2143.07695  0.29295  0.12998     0.02582   3.86353     19.79387   7187.37885    -6.38684  1.11362  11651.29379  0.03456  58653.81316  52.63221  15.51046  19.90048  58690.31885 
    13.97731  1.84605  4.47431       0.52886         2712.55276  0.04005  0.30692     0.14672    1.0479     17.26385   7729.84338    -8.08228  0.99814  12853.18417   0.0001  58652.11772  52.52611   1.36461  19.92356  58690.31885 
    14.17499  1.75748  4.46935       0.21517         3816.23134   0.0481  0.10964     0.04392   3.82063     16.43425   9371.78585    -6.89112  1.00104  12146.35697    2e-05  58653.30888  52.66703   2.53915  19.85313  58688.44337 
    14.26657  1.55704  4.09137       0.10138         3186.25386  0.04507  0.09866     0.16597    4.0948     18.63063   6521.57054    -6.51726  0.59098  13663.63393  0.00237  58653.68274  52.77744   2.42433  19.94317  58688.44337 
    13.83614    1.498  3.78747       0.91035         2024.41339  0.02546  0.32095     0.07685    1.2861     17.79355   8314.76601    -8.23726  1.12318  14414.61742  0.00035  58651.96274  52.66189   0.94283  19.88564   58691.2891 
    14.10101  1.61429  4.16387       3.81274         2312.44872  0.00304  0.32151      0.0686    1.7946     16.91135   9589.68009    -6.35464  1.26896  12165.94708    5e-05  58653.84536  52.56769   0.12731  19.84105  58690.31885 
    13.83419  1.83133  3.62415       0.21421          3941.0345  0.00307  0.27393     0.01839   1.06249     19.49017   5847.36471    -8.86978  1.12748   9617.22905  0.01718  58651.33022  52.27672    0.1051  19.95433  58688.32456 
    13.78509  1.79452  3.55637       0.04516         5959.82241  0.03714  0.29612     0.04075   1.01672     19.98665   9860.44345    -8.47094  1.00628  12853.86333  0.05387  58651.72906  52.52055   1.24942  19.96125  58688.44337 
    14.12798  1.73892  4.75648       2.23087         2658.65685  0.00234  0.26578     0.19402   1.43537     16.55326   8964.45616    -6.32943  1.22647  10763.91983    2e-05  58653.87057  52.42646   0.09056  19.86832  58688.32456 
    14.28161  1.68626  4.23936        0.0577          5698.6827  0.06116  0.30519     0.32393   1.11386     17.66879   5653.02766    -6.32612  0.64302  12802.52734  0.00026  58653.87388  52.53378   2.13804  19.94725  58690.31885 
    14.10837  1.62711  4.36611       0.33802         3283.56749  0.36885  0.17365     0.21356   2.73635       19.127   9187.34516    -6.74466  1.40826  12586.09123  0.00744  58653.45534  52.65627  17.68906   19.9754  58690.31885 
    13.66906  1.69978  3.50124        0.1035         4005.43766  0.00413  0.31149     0.04052    1.1501     17.05664   6128.36185    -9.18767  1.35444  13305.79765    6e-05  58651.01233  52.57299    0.1462  19.94194     58691.17 
    14.44521  2.04268  4.76382       0.27279         3835.90167   0.0124  0.06054     0.31066   5.59296     18.61741    5147.6883    -6.06396  0.75077    10443.362   0.0023  58654.13604  52.57895   0.72315  19.88144     58691.17 
    14.13484  1.64502  4.08556       0.01676         5828.69335  0.47851  0.27357      0.0517   2.09067     16.64696   4864.50174    -6.64153  1.21306  13892.95945    2e-05  58653.55847  52.70532  21.08569  19.94561  58690.31885 
    14.23274   1.9299  4.67126       1.86656         2832.81242  0.02046   0.1393     0.01612   2.71336     19.75581   7431.11691    -7.11441  0.82407   9038.51605  0.03166  58653.08559  52.36757   0.97863  19.94511  58690.31885 
    13.85101  1.57798  4.33521       1.61194         2876.34852  0.00111  0.08375     0.06188   2.35517     18.84108   5014.29642    -7.10057  1.54939   9041.63694  0.00385  58653.09943  52.34888   0.05061  19.93989  58690.31885 
    14.49123  1.73868   3.3584       0.05297         5428.29651  0.37972  0.28306      0.0231   1.64698     16.41285   3503.58435    -6.36638  0.56442   9556.96971    1e-05  58653.83362  52.34496  15.42247  19.95425     58691.17 
    13.88447  1.62299  3.40431       0.16622         2416.21668  0.00455  0.30934     0.02865   1.27159     20.31384   3852.70962    -9.34683  1.46975  10399.22457  0.11444  58650.85317  52.37636   0.16768  20.00019  58688.44337 
    14.21741   1.7054  4.36382       1.55195         2280.98112   0.3624  0.29175     0.34275   1.32213      16.2888   7017.18538    -6.39541  0.91321  10403.67452    1e-05  58653.80459  52.38332  13.56764  19.89824  58690.31885 
    14.36216  1.90607    4.677       0.30518         2324.18247   0.0013  0.18871     0.12803   1.47393     18.76045   5867.29482    -6.27964  0.58545  11685.79585   0.0032  58653.92036  52.50212   0.05085   19.9601  58688.32456 
    14.16055  1.97542  4.55488       0.56548         5312.53071  0.00377  0.04904     0.01051   3.65612     16.61897   9326.13998    -6.20815  1.30579    7154.8829    2e-05  58653.99185  52.20207   0.19644  19.95445  58688.32456 
    13.89946  1.46282  4.11121       0.13484         2382.85052  0.03366   0.2695     0.16263   0.95561     17.47375   8036.02891    -7.12359  1.33778  13835.67189  0.00017  58653.07641  52.57275     1.102  19.86935  58688.44337 
    14.52145  1.79524  4.39793       0.37089         5717.80067  0.00392  0.27483     0.07041   1.13023      19.2869   4650.83763    -7.48207   0.3626  10185.36591  0.01076  58652.71793  52.33776   0.13803  19.96712  58688.32456 
    14.41383  2.07757  5.39956       0.17601         2220.30349  0.40513  0.13633      0.1297   3.12657     17.15816   3680.79935    -5.87788  0.72927  15163.34622    8e-05  58654.32212  52.83519  20.21012  19.94157     58691.22 
    14.29002  1.94276  4.93013       1.25853          2946.1395  0.02485  0.18612     0.12056   1.95081     17.92496    4781.0896     -8.5422  0.55362  11482.43983  0.00047   58651.6578  52.52981   1.07019  19.95436  58688.44337 
    14.12629  1.86712  5.24182       0.01365         4985.37057  0.28916  0.03717     0.03946   7.15348      19.4848   8304.10934    -6.22737  1.44609  13526.96221  0.01696  58653.97263  52.82941  17.88584  19.92036  58688.44337 
    14.26719  1.60125  4.11265       0.38616         5206.23897  0.04762  0.05039     0.05453    2.5469     16.18527   8748.58388    -6.63535  0.48184   8466.96984    1e-05  58653.56465  52.30244   2.23431  19.92432     58691.17 
