 texplosion  fnickel    Pspin  log(Bfield)      Mns  thetaPB   mejecta    kappa  kappagamma      vejecta  temperature    alpha  cutoff_wavelength  log(nhhost)      A_V         MJD0   kenergy  mnickel           TSD   log(L0)  Peak_mag     Peak_MJD  log(E_rad)  log(Peak_lum)  Rise_Time    E_fold  tau_1  delta_m15     r_peak     frac 
  -20.35875  0.02547  3.22608     14.53591  1.88258  1.28143  11.98417  0.01911     0.14258   5651.23821   3068.81909  1.12725         5538.09596     16.42781    1e-05  56129.34125   2.28309  0.30521  154204.35051  46.33815  18.06227  56154.05643    50.86135        44.3974    12.5252  22.96287   28.0    0.47887   -21.0664  0.98587 
  -40.83333  0.01449  1.11949     14.32496   1.3919  0.79683   5.58206  0.09498     0.15473   6132.90887   3189.48196  0.54609         4663.83075     16.87196    4e-05  56108.86667   1.25243  0.08086   36269.98837  47.75486  17.51774  56137.16411    51.24493       44.75315    12.5252   25.0504   40.5    0.26177  -20.63206  0.99939 
  -19.20336  0.19138  1.07856     14.89025  1.75306  0.56663   5.08505    0.063     0.02343   6026.00902   3006.59368  1.32504         5515.65562     18.58749  0.00215  56130.49664   1.10149  0.97318    3139.04416  48.95015  17.77817  56156.46962    50.87503        44.5202    10.8442  16.29374   25.0    0.40354  -21.72638  0.99844 
  -23.52433   0.0018   0.9968      14.4654  1.78683  0.69326     8.635  0.02711     0.15174   8298.95183   3181.05091  0.62378         5854.17499     20.93797  0.48161  56126.17567   3.54761  0.01555   19334.12024  48.23739  17.98548  56146.81686    51.12756       44.60104   14.61273   25.0504   27.0    0.59325  -21.85744  0.99994 
  -11.85467  0.01737  3.70294     14.40354  1.80172  1.18795   2.26321  0.04371     0.46047   7591.72244   3030.65318  1.21542         4877.59811      20.8329  0.37812  56137.84533    0.7781  0.03932   357700.0265  45.83392  17.88887  56151.64324    50.85461       44.31996    12.5252  27.13793   26.5    0.77281   -21.4723  0.99734 
  -23.23775  0.13249  2.29419     14.49896  1.69364  1.05506   2.85768  0.10456     0.23396   6223.26304   3057.11165   1.3297         5740.52451     16.58374    2e-05  56126.46225    0.6602  0.37861   83170.25062  46.85644  18.02628  56156.46962    50.78483       44.36278    12.5252  16.70027   27.0    0.45315  -21.44758  0.99003 
  -13.58245  0.33937  2.44751     14.54337  1.51329   1.1771   2.73925   0.0794     0.04549   6200.11065   3060.16297  1.27706         5969.66384     17.16935    8e-05  56136.11755   0.62814  0.92961   68936.49157  46.83287   18.0105  56156.46962    50.84082       44.31817   14.61273   25.0504   26.5    0.57484  -21.14795  0.96977 
  -33.25573  0.00663  1.43816     14.55617  1.33812  0.38722   5.60778  0.05299     0.11113   6809.55899   3058.05194   0.7371         5228.71539      18.5126  0.00181  56116.44427   1.55116  0.03716   19841.64485  47.78215  17.76886  56154.05643    50.91436       44.50357   10.43767   18.7878   32.5    0.43362  -21.26644  0.99944 
  -36.37912  0.01781   1.4381     14.31121  1.44203  1.13996  15.06811  0.03132     0.20193   5422.27557   3077.98493  1.50817         4931.74624     18.38119  0.00134  56113.32088   2.64271  0.26839   66061.75123  47.29229  18.05622  56154.05643    51.30858       44.79533   14.61273  25.56149   37.0    0.29304  -20.93404   0.9967 
  -54.38873  0.00107  0.85584     14.26314  1.70774  1.14619   5.87791  0.11916     0.17478   6683.23567   3002.78011  0.73611         3295.45706     19.07449   0.0066  56095.31127   1.56612  0.00627   34573.38241  48.09774  17.73431  56144.40367     51.0043       44.42608   16.70027    31.313   44.5    0.24783  -20.56736  0.99998 
  -28.20827  0.00204  1.83922     14.41607  1.69426  1.10996  13.40744   0.0184     0.01687   4990.20341   3001.05754  1.03627         5892.36575     17.72058  0.00029  56121.49173   1.99163  0.02739   78330.31967  47.07463  17.70246  56149.23005    51.08438       44.59045    12.5252   25.0504   29.0     0.4038  -21.29455  0.99954 
  -20.09198  0.00132   3.7946     14.41176  1.73777  1.30757   2.72856  0.09527       0.113   5698.59628   3085.41398  1.37261         5075.84147     20.09193  0.06865  56129.60802   0.52856  0.00359  348842.35571  45.80788  17.74523  56146.81686    50.94797       44.45653   14.61273  22.96287   30.0     0.4294  -21.08979  0.99973 
  -22.29181  0.00104  0.82367     14.16199  1.47212  1.35179   4.51014  0.07018     0.16146   7888.54032   3090.76493  0.72893         4882.71511     21.07244  0.65641  56127.40819   1.67421  0.00467   43983.83973  47.96199  17.89577  56149.23005    51.06744       44.55751   14.61273   25.0504   27.5    0.50073  -21.82302  0.99998 
  -31.99127  0.06086  2.16263     14.49395  1.85969  0.85761   3.17717  0.11701     0.24277   6618.95039   3016.35431  1.87627         3683.78152     20.51737  0.18285  56117.70873   0.83032  0.19335   83046.22926    46.949   18.0587  56154.05643    51.01454       44.55257   14.61273  20.87533   32.0    0.39089  -21.41356  0.99591 
  -53.94455  0.00573  1.07768     14.34315  1.91049  1.28256  19.60948  0.03356     0.03649   5967.68885   3066.13694  0.81671         4674.17202     17.34329  0.00012  56095.75545   4.16587  0.11241   42426.32856  47.85738  17.73015  56144.40367    51.15576       44.66525   14.61273  24.54624   44.5    0.24189  -20.54099  0.99955 
  -46.07377  0.01061  1.03112     14.54226   1.6858  0.64289  32.92306  0.01798     0.01124   5981.71157   3049.15329  1.32179         3696.38125     18.76555  0.00324  56103.62623   7.02713  0.34926   13699.97579  48.33231  17.69681  56151.64324    50.83274       44.31746   14.61273   25.0504   43.5    0.25484  -20.49089  0.99864 
  -37.54174  0.00204  1.34351     14.30635  1.62123  1.03937  13.62115  0.02598      0.1092   7196.83953   3205.92675  0.91653         4965.24308     17.02783    6e-05  56112.15826   4.20847   0.0278   66289.08036  47.40076  17.55196  56141.99048    51.26661       44.83163   10.43767  20.87533   34.0     0.3859  -21.25778  0.99974 
  -29.97799  0.00376  2.86695     14.38033   1.7594  1.55337  11.74978  0.03201     0.08623   5716.21497   3097.97277  1.33041         5059.37749     18.52704  0.00187  56119.72201    2.2902  0.04419  233006.53512    46.232  17.97327  56154.05643    50.81675       44.33076   14.61273  20.87533   32.5    0.33538  -21.21105  0.99817 
  -37.69936  0.00183  1.60168     14.37323  1.59269  0.91047  21.65567  0.01832     0.07052   5574.79443   3158.39962  1.75824         3882.73404     20.25364  0.09962  56112.00064   4.01473  0.03968   68019.88401  47.22919  17.86492  56149.23005    51.07916       44.59265    12.5252   25.0504   37.0     0.3118  -20.94834  0.99944 
  -31.09435  0.00204   2.5108     14.26974  1.60207  1.57054   6.36329  0.04949     0.20935   6275.16854   3092.75133  0.91566          5340.7614      19.7945  0.03461  56118.60565   1.49472    0.013  270798.65553  46.24126  17.97014  56151.64324    50.92536       44.50019    12.5252  20.87533   32.0    0.38067  -21.24675  0.99952 
  -34.54594  0.00477   1.0936     14.30811    1.741  1.22701   8.46844  0.03716     0.11228   6713.75021   3069.48081  0.57756         5178.73724     20.40969   0.1427  56115.15406   2.27699   0.0404   46785.83852  47.76182  17.65351  56134.75092    51.20798       44.65605   14.61273  29.22547   35.5    0.37528  -21.17672   0.9998 
  -14.01995  0.00231  4.05978     14.39182  1.67109   1.3105    4.7293  0.02719     0.04408   5740.98115    3057.4073  1.38305         5856.91631     19.71774    0.029  56135.68005   0.92981   0.0109  420902.54134  45.65066  17.65791  56127.51135    51.39158       44.70322    18.7878  41.75067   25.0     0.6675  -21.33991    0.999 
  -15.46312  0.00277  3.76299     14.31815  1.34239  1.00993   2.18139  0.06432     0.18387   5404.59097   3252.95415  1.43487         5237.43706     16.20322    1e-05  56134.23688   0.38009  0.00605  407802.21712  45.63521   18.0414  56154.05643    50.86087        44.4001   14.61273  20.87533   27.5    0.58445  -21.08308  0.99934 
  -50.94594  0.00228  1.25019     14.29824  1.73506  1.48455  28.58111  0.02281     0.05875   5814.63287   3062.80905  1.80937         3761.21514     18.36605  0.00129  56098.75406   5.76436  0.06514   63767.22471  47.50961  17.54112  56141.99048    51.15632       44.67779    12.5252  24.54624   44.0    0.24403  -20.49368  0.99956 
   -32.7194  0.00124  1.44326     14.29914  1.72144  1.40798   7.85612  0.02694     0.33586   6269.52291   3183.77352  0.91253          5741.1798     17.49635  0.00017   56116.9806   1.84206  0.00977   83967.56765  47.26194  17.62203  56146.81686    51.17502       44.71166    12.5252  22.96287   29.5    0.49713  -21.51277   0.9999 
  -31.81191  0.01186  2.24356     14.49873  1.63512  0.69989   9.02613  0.03504     0.03075   5929.70125    3027.8281  1.11502         4708.16888     18.52435  0.00186  56117.88809   1.89319  0.10708    76875.2831  46.89473  17.78191      56149.7    51.19921       44.82724   10.43767   18.7878   32.0    0.37803  -21.19082    0.997 
  -16.08358  0.03675  3.00355     14.48729  1.69265  1.45327  13.12472  0.02115     0.06918   6962.00614   3131.83173  1.14597         5080.45566     20.14948  0.07838  56133.61642   3.79478  0.48227   150341.0667  46.36507  17.84355      56149.7    51.39238       45.03286    8.35013   18.7878   27.5    0.54339   -21.0789  0.97773 
  -32.19349  0.00232  1.69585     14.27326  1.52844  1.55999  19.31798  0.01794     0.36859   5549.11038   3003.24135  1.04088         5601.86995     19.52725  0.01871  56117.50651   3.54842  0.04475  115961.73353     46.93  17.95639      56149.7    51.00908       44.49165    12.5252  25.56149   32.0    0.35183  -21.25088  0.99924 
  -34.06931  0.04482  1.77188     14.15484  1.15973  1.21616   6.42005  0.07944      0.1305    6419.0952   3056.80418  1.04211         4790.23338     18.45078  0.00157  56115.63069   1.57802  0.28772  165717.66766  46.61697  17.83748  56151.64324    50.91415       44.37251   16.70027  27.13793   36.0    0.30058  -20.91386  0.99171 
    -36.909   0.0034  2.20614     14.39592  1.87184  1.18356  14.93332  0.03329     0.16425   6799.93714   3041.49565  0.79307          4114.0183     18.49026  0.00172    56112.791   4.11902  0.05079  136621.64139  46.71833  17.73919  56144.40367    51.11937       44.60309   14.61273   25.0504   37.5    0.30575  -20.87494  0.99888 
  -26.98182  0.06497  3.00906     14.36354  2.00153  1.55949   2.38555  0.25237     0.32857  11009.57269   3385.00765  1.07368         2855.72697     20.75915  0.31907  56122.71818   1.72487  0.15498  315465.88733  46.11439  17.59224  56141.99048    51.15574       44.64459   14.61273  24.54624   32.5    0.38056  -21.41191  0.99412 
  -30.59529  0.00317  3.17673     14.39982  1.35765  0.64546   2.93763  0.14012     0.43342   6323.09124   3035.05559  2.09947         3775.05397     17.25858   0.0001  56119.10471   0.70062  0.00931  201805.52295  46.09274  17.61533  56141.99048    51.15626       44.60649   14.61273  29.22547   35.0    0.34039  -21.06186  0.99929 
  -16.94861  0.00246  5.42349     14.44405  1.74815  0.99363   3.43061  0.02981     0.38373   6045.69618   3298.97623  1.50447         5377.38957     16.58496    2e-05  56132.75139   0.74798  0.00844  617817.50815  45.25201  17.97055  56149.23005     51.1069       44.56465    12.5252  29.22547   28.0    0.66003   -21.2117  0.99871 
  -37.40331  0.00184  1.10812     14.21792  1.20347  0.68754  16.58805  0.02475     0.35252   7582.44221   3243.99167   0.3442         5087.02861     20.34279  0.12233  56112.29669   5.68906  0.03059   50301.72188  47.55852  17.92257  56154.05643    51.01638       44.53925    12.5252   25.0504   38.0    0.34544  -21.05452  0.99969 
  -29.49654  0.12524   0.9158     14.42331  1.44733  0.81861  12.92301  0.05344     0.03604  11420.70999   3323.01449  0.02668         3307.36432     20.66595  0.25744  56120.20346  10.05489  1.61847   16045.98132  48.30044   17.9276  56154.05643    51.02691       44.70218   10.43767  16.70027   31.0    0.39987  -21.36427   0.9948 
  -19.97486  0.01449  5.26104     14.91795  1.93057   0.3271   5.01768    0.034     0.09392   6449.67312   3034.35802  1.80958          4641.4131     20.15127   0.0787  56129.72514    1.2451  0.07268   72400.48791  46.25265  17.90069  56156.46962    50.79503       44.34885    12.5252   18.7878   28.0     0.5668  -21.26172  0.99104 
  -44.43701   0.0102  1.72373     14.26532   1.6875  1.48789   4.48862  0.12801     0.26178   6722.86148   3118.72619  0.81468         4118.86277     19.34819  0.01239  56105.26299   1.21018  0.04577  137200.63469  46.88579  17.98727  56156.46962    50.90565       44.42078   10.43767   25.0504   40.5    0.28297  -20.73645  0.99929 
  -47.99941  0.01724  0.80193     14.38087  1.66738  0.79739   5.77476  0.10078     0.34379   7513.00666   3036.87889  1.24485         2533.91336     18.20031  0.00088  56101.70059   1.94441  0.09957    17234.2356  48.44622  17.78184  56144.40367    51.21854       44.68557   14.61273  27.13793   41.5    0.28466  -20.71317  0.99978 
  -22.49565  0.00149  1.09381      14.3622  1.69115  1.13725  19.75931  0.01175     0.02196   5899.91426   3062.11516  0.69823           5730.926     20.75749  0.31785  56127.20435    4.1029  0.02949   35439.22525  47.86966  17.97764  56151.64324    50.99987       44.51477    12.5252   25.0504   28.0    0.45742  -21.37429  0.99986 
  -14.23586  0.00133  4.82652     14.50269  2.07211  1.38176   7.86939  0.01037     0.36749   5432.54034   3145.31864  1.37927         5926.24983     18.67809  0.00265  56135.46414    1.3854  0.01044  442712.05377  45.57187    17.645  56141.99048     51.2387        44.7438   10.43767  27.13793   25.5    0.72009   -21.3986  0.99902 
  -33.33497   0.1825  1.19901     14.39182  1.76154  1.49951   3.87136  0.09748     0.12152   8343.82953   3582.48966  0.67496          4743.8679     18.41103  0.00143  56116.36503   1.60776  0.70651   38701.20122  47.76936  17.77103  56146.81686    50.91407       44.41526    12.5252  25.29057   31.5    0.43979  -21.20589  0.99644 
  -40.04368  0.00453  2.19922     14.34531  1.61578  0.91015    7.1914  0.05388     0.02265   5121.56821   3066.07377  1.20796          5231.3631     17.27379   0.0001  56109.65632   1.12524  0.03256  147951.02012  46.62257  17.74119  56144.40367     51.0379       44.46528   14.61273    31.313   39.5    0.28445  -20.96059   0.9991 
  -41.95295  0.00547  1.61501     14.78292  1.84627  0.38545   9.51428  0.05202     0.05394   5614.45629   3060.61678  1.03951         5253.21338     17.29489  0.00011  56107.74705   1.78903  0.05204   12151.53642  48.03416  17.96648  56146.81686    51.22193       44.72897    12.5252   25.0504   39.5    0.27362  -20.81074  0.99942 
   -22.1492  0.01484  2.68598     14.22785  1.17809   0.8234   6.52872  0.03009     0.03834   6543.18749   3078.63497  1.24775         4841.40707     20.04697   0.0619   56127.5508   1.66738  0.09687  276377.98345  46.04031  17.79861  56141.99048    51.43246       44.96226   10.43767   25.0504   29.5    0.53786  -21.26923   0.9935 
  -20.37936  0.00926  3.98593     14.55923  1.97455  0.80718   7.09074   0.0352     0.12015   6592.60169   3019.66498  1.22401         5607.45759     20.46384  0.16165  56129.32064   1.83837  0.06566  221763.87745  46.01736  17.64034  56137.16411    51.12599       44.55494   16.70027  29.22547   29.5    0.49064  -21.39215  0.99551 
  -14.22847  0.01265  6.23204     14.90109  1.85503  0.33066   3.68495  0.03503     0.32673   7343.99035   3252.69416  1.50609         5432.70456     16.29947    1e-05  56135.47153   1.18556  0.04661  105498.05391  45.92469  17.87944  56151.64324    50.99352       44.55931    12.5252  20.87533   27.5    0.67654  -21.22762  0.99141 
  -24.86773  0.00299  1.57793     14.37463  1.72024  1.01622   9.51624  0.03061     0.31283   7118.37962   3054.75332  0.90525          4460.8931     20.76667  0.32463  56124.83227   2.87644  0.02841   70845.46709  47.25795  17.90559  56154.05643    50.75545       44.31639   12.93173  18.38127   29.5    0.47536  -21.48878  0.99966 
  -17.85457  0.04236  3.72243     14.46512  1.68297  1.10352   4.71051  0.03399     0.24667   6109.47303   3142.84388  1.52886         5235.31583     16.34075    1e-05  56131.84543   1.04882  0.19955  254277.98417  45.94796  17.64638  56144.40367    51.27046       44.87545    8.35013  20.87533   24.5    0.65182  -21.34921  0.98514 
  -31.14932  0.01207  2.66298     14.61685  2.00976  0.66857   7.04218  0.05528     0.10253    7715.3073    3017.1693  0.58117         4978.20733      16.1231    1e-05  56118.55068   2.50058  0.08501   77266.34553  46.83327   17.6812  56146.81686    51.14839       44.72891   10.43767  20.87533   32.0     0.4031  -21.21655  0.99751 
   -26.9265  0.04927  2.47651     14.48507  1.66437  0.83466   5.35226  0.04787     0.32374   6395.41879   3102.51907   1.0233         4889.90329     19.48052   0.0168   56122.7735   1.30588  0.26371  101533.17237  46.69581  17.77692  56151.64324    50.86688       44.48522   10.43767  16.70027   29.5     0.4777  -21.21327  0.99128 
  -38.97914  0.00212  1.13365     14.36147  1.68226  1.00585   5.68397  0.07287     0.06346   5726.18273   3318.27819  0.69618         5932.75756     18.82478  0.00371  56110.72086   1.11175  0.01203   37994.79672  47.80606  17.75897   56139.5773    51.17806       44.62405    12.5252  29.22547   37.5    0.30706  -20.89885  0.99993 
  -20.63433  0.00177  3.18847     14.34305  1.60304  1.18287   8.81659  0.01533     0.34354   6248.58175   3165.38142  1.28559         5363.59091     18.29488   0.0011  56129.06567   2.05348  0.01556  311759.59798   45.9728   17.8392  56154.05643    50.73163       44.26721   12.93173   20.4688   25.5    0.64856  -21.44995  0.99907 
  -50.93376   0.0034  0.92829     14.27581  1.71958   1.2066  13.13238  0.05158     0.03758   6357.36055   3078.39038  0.22775         5403.12326     19.93679  0.04803  56098.76624    3.1661  0.04459    38636.0473  47.98191  17.76909  56151.64324    50.83819       44.44364   10.43767  16.94043   44.5    0.23313  -20.54538  0.99985 
  -14.95319  0.00908  4.03592     14.94246  1.81179  0.31546   8.62161  0.01422      0.0458   6084.86958   3065.75411  1.36431         5713.02868     18.54887  0.00197  56134.74681   1.90422  0.07828   35717.31266  46.76219  17.81206  56144.40367    51.04524       44.49186   16.70027  27.64902   24.0    0.70203   -21.4108  0.99379 
  -18.36973  0.01603  5.04441     14.29769  1.64793  1.42967   2.68217  0.06967      0.4803   7087.95574   3068.09198  1.97221         4116.58775      20.2801  0.10588  56131.33027   0.80381    0.043  988552.79333  45.08516  17.95208  56156.46962    50.75206       44.34229   10.43767  16.70027   30.5    0.55651  -21.15193  0.99379 
  -44.47517  0.00304  1.21099     14.24607  1.60497  1.46416   8.41544  0.06177     0.09338   6718.19862   3054.68998  4.80109         3050.13688     17.15788    8e-05  56105.22483   2.26574  0.02557   70376.18931  47.46061  17.92082  56156.46962    50.82336       44.35133    12.5252  22.96287   39.0    0.32255  -20.91091  0.99981 
  -44.30542   0.0028  1.21889     14.31096  1.82119   1.0146  18.63541  0.02371     0.33357   9626.37751   3228.49096  0.43157          3574.0278     19.43131    0.015  56105.39458   10.3013  0.05216   60005.03435  47.57908  17.78312      56149.7    51.32144       44.94534    8.35013  20.87533   38.0    0.37985  -21.19928  0.99966 
  -32.36395  0.01541  2.55485     14.70633  1.57043  0.37413  15.88615  0.02582     0.01666   6583.20977   3148.41692  0.76435         5792.27588       18.797  0.00348  56117.33605   4.10697  0.24478   36805.37009  47.08422  17.66299  56134.75092    51.36943       44.80441    12.5252  31.71953   34.5    0.35205   -21.1323  0.99046 
