 texplosion  fnickel    Pspin  log(Bfield)      Mns  thetaPB  mejecta    kappa  kappagamma     vejecta  temperature    alpha  cutoff_wavelength  log(nhhost)      A_V         MJD0  kenergy  mnickel             TSD   log(L0)  Peak_mag     Peak_MJD  log(E_rad)  log(Peak_lum)  Rise_Time     E_fold  tau_1  delta_m15     r_peak     frac 
  -10.81464  0.00756  2.49557     13.32955  1.29914  0.84322  0.91707  0.30525     0.04582  2305.17019   9998.34663  2.74694         3728.66336     18.90836   0.0045  59154.57918  0.02907  0.00693  16470901.77409  44.37144  17.12234  59234.52734    51.26365       44.15453   58.06412  113.94114  136.0    0.04527  -21.05188  0.99958 
   -10.9663  0.00729   3.0065     13.56233  1.68122  0.73646  0.88598  0.30974     0.04487  2179.07903   9958.45154  2.56267         3747.20688     18.99543   0.0055  59154.42752   0.0251  0.00646  10590177.20273  44.51344  17.13059  59234.52734    51.28065       44.18092   56.46343  112.23404  138.0     0.0453  -21.04679  0.99962 
   -11.1163  0.00657  3.14658     13.55917  1.77831  0.80861  1.29697  0.21091     0.03185  2234.29656   9973.10069  2.54221         3743.82603     18.09848   0.0007  59154.27752  0.03862  0.00853  12449751.22678  44.42801   17.1378  59235.42687    51.29044       44.19386   55.46833  109.92134  137.5    0.04322  -21.03346  0.99949 
  -10.61029  0.00482  3.09188     13.63771  1.71982  0.60454  1.46349  0.17314     0.02353  2083.01372   9938.57817  2.71435         3803.66255      18.8653  0.00407  59154.78353  0.03788  0.00706   8096946.56849  44.61556  17.14115  59234.54297    51.27604        44.1692   57.14278  114.86248  138.5    0.04449  -21.03091  0.99957 
  -11.04071  0.00173  2.62581     13.35586  1.42197  0.91425  1.00292   0.2834     0.03958  2259.20618   9968.00982  2.80601           3609.952     17.91203  0.00045  59154.35311  0.03054  0.00174  17681269.08031  44.33569  17.12819  59233.32339    51.27012       44.16582   56.28833  112.40913  136.5     0.0434  -21.03573   0.9999 
  -12.69695  0.00715  2.56963     13.64739  1.29858  1.05287  5.52346  0.13135     0.47651  1349.66067   9161.33715  3.33544          4111.7214     16.23507    1e-05  59152.69687  0.06002  0.03951   4038648.46886  44.95633  17.13683  59234.52734    51.26254       44.15472   57.26744  114.73781  117.0    0.04307  -20.99736  0.99781 
  -10.59429  0.00781  3.12554     13.57105  1.73726    0.765   1.0216  0.26047     0.04153  2221.78966   9913.80871  2.73739         3685.44163     16.10981    1e-05  59154.79953  0.03008  0.00798   11361440.3797  44.46343  17.13347  59233.32339     51.2809       44.17887   57.14278  111.55468  141.5    0.04499  -21.03267  0.99951 
  -10.73519  0.00819  2.87221     13.49223  1.58333  0.80939  0.91185  0.30844      0.0519  2338.40001    9979.7661  2.75608         3516.49735     18.24779  0.00098  59154.65863  0.02974  0.00747  12570920.71721  44.45262  17.12451  59233.32339    51.30928       44.22486   54.48044  107.60144  138.5    0.04642   -21.0317  0.99956 
  -10.63018  0.00428  3.60724     13.68319  2.07941  0.78566  1.12518  0.25196     0.03897  2282.80498   9990.59495  2.75853         3711.82376     17.49354  0.00017  59154.76364  0.03498  0.00482  10807746.27858   44.4387  17.12486  59242.73453    51.21698       44.07869   70.61473    93.1497  137.0    0.04606  -21.04478   0.9997 
  -11.14037  0.00193  3.28489     13.60092  1.86616  0.78385  1.34265  0.21811     0.03365  2356.22957   9994.62896  2.54464         3751.86048     18.30618  0.00112  59154.25345  0.04447  0.00259  11748122.55584  44.43678  17.14103  59234.52734    51.28489       44.19022   56.23249  109.15718  135.0    0.04526  -21.04547  0.99984 
  -11.17506  0.00934  2.92441     13.50197  1.62163  0.81531  0.95394  0.31852     0.04957  2374.32078    9964.2971  2.65747         3565.11388     16.83514    4e-05  59154.21876  0.03208  0.00891  12761610.99216  44.44081   17.1329  59233.27786    51.30637       44.21784   54.44452  109.01757  137.0    0.04329  -21.03611  0.99947 
   -10.2514  0.00419  3.06572     13.65231  1.72791  0.58089  0.97838  0.25011     0.03736  2144.80915   9948.93561  2.67254         3716.84713     17.89602  0.00044  59155.14242  0.02685   0.0041    7477984.3438  44.65952  17.13875  59235.42687    51.27553       44.16852   56.46343  115.54183  141.0    0.04497    -21.026  0.99976 
   -10.6314  0.00438  2.81971     13.49176  1.55042  0.72392  1.22629   0.2259     0.03262  2268.55312   9923.56355  2.92888         3614.60243     17.63767  0.00024  59154.76242  0.03765  0.00537  11889190.04231  44.48373  17.13994  59234.52734    51.27136       44.16744   58.06412  110.63334  136.0    0.04411  -21.04704  0.99968 
  -10.75059  0.01733  2.89686     13.47685  1.57146  0.82508  0.85295  0.33413     0.05597  2374.34458   9995.81692  2.63746         3704.66624     18.48812  0.00171  59154.64323  0.02868  0.01478  13622690.01359  44.40703  17.13769  59233.32339     51.2785       44.17639   56.46343  112.23404  136.5    0.04632  -21.05008   0.9991 
  -11.04689  0.00522   2.6439     13.41931  1.45006  0.79597  0.99821   0.2749     0.04028  2252.63697   9965.71228  2.81316         3519.30416     17.99422  0.00055  59154.34692  0.03022  0.00521  13648219.38291  44.45067  17.12874  59234.54297    51.27188       44.16716   58.25261  110.44485  137.5      0.043  -21.02945   0.9997 
   -10.7575   0.0112  2.94227     13.49362  1.64731  0.86849  1.03849  0.25981     0.04154  2291.97799   9945.08289  2.45439         3653.78909     17.70604  0.00028  59154.63632  0.03254  0.01163  13637061.94322  44.41353  17.11208  59242.73453    51.22414       44.09208   69.79161   93.97282  138.0    0.04314  -21.03133  0.99932 
  -11.30144  0.00611  3.04588     13.55809  1.67687  0.80106  1.52746  0.18385     0.02796  2170.73745   9980.82219  2.27602         3891.20637     18.52705  0.00187  59154.09238  0.04294  0.00933  11054812.87989  44.48237  17.13322  59235.42687     51.2773       44.16899   58.25261  113.75264  138.0    0.04555   -21.0396  0.99944 
  -10.95681  0.01123  3.03591     13.55717  1.67624   0.7236  1.00851  0.28129     0.04688  2384.39539   9999.27754  2.44743         3792.80996     16.80928    4e-05  59154.43701   0.0342  0.01133  11025370.54907  44.48621  17.13132  59234.52734    51.28754       44.19368   56.23249  109.15718  137.0     0.0444  -21.04085  0.99931 
  -10.43832  0.00353  2.80293     13.54629  1.58065  0.62129   1.0451   0.2408     0.03982  2369.65363   9996.82243   2.3913         3697.02825     18.43466  0.00151   59154.9555  0.03501  0.00368   9317520.06362  44.60316  17.12098  59234.52734    51.29099       44.19385   56.46343  112.23404  136.0    0.03994  -21.02964  0.99979 
  -10.97693  0.00995  3.19198     13.52481  1.74873  0.85917  0.96303  0.28565     0.04208  2207.46219   9980.78359  2.79602         3855.15737     18.41604  0.00145  59154.41689  0.02799  0.00959  14758060.04926  44.33442  17.11031  59242.73453    51.24461       44.12569   68.53039   91.11414  138.5    0.04424  -21.04504  0.99939 
  -10.49176  0.00211  3.17881     13.54681  1.77179  0.84806  0.88059  0.32294     0.05382  2366.19296   9971.96051  2.63029         3716.26026     17.33879  0.00012  59154.90206  0.02941  0.00186  13400788.35691   44.3856  17.14086  59234.52734    51.27554       44.17262   56.23249  112.46498  136.0    0.04471  -21.04522  0.99989 
  -10.69342  0.00482  3.04124     13.51598  1.63981  0.83667  1.03076  0.25551     0.03858  2133.81222   9957.71558  2.62515         3822.92319     16.75908    3e-05   59154.7004    0.028  0.00497  13084383.70173  44.40078  17.12341  59234.52734    51.27441       44.17045   56.46343  112.23404  139.5    0.04665  -21.02746  0.99969 
  -10.30219  0.01835  2.67962     13.41825  1.44146  0.81759  0.89116  0.30593      0.0518  2346.29807   9952.77381  2.68736         3632.58498     18.19202  0.00086  59155.09163  0.02926  0.01636  14004487.10584  44.42523  17.13082  59233.32339    51.27677       44.17831   56.46343  112.23404  138.5    0.04394  -21.04937  0.99903 
   -10.6535  0.01458  3.25062     13.55522  1.81788  0.89578  1.03355  0.25598     0.03498   2082.7613   9980.92657   2.6061         3861.54425     17.53734  0.00019  59154.74032  0.02674  0.01506  13831723.15454   44.3636  17.12812  59233.32339    51.30162       44.20992   55.37039  109.95416  138.5    0.04659  -21.04315  0.99908 
  -10.75195  0.00394  3.22888     13.57366  1.83756  0.80339  1.21494  0.22098     0.03448  2312.34106   9970.64727  2.74691         3661.32923      16.8966    4e-05  59154.64187  0.03875  0.00478  12671686.15798  44.41215  17.12548  59234.52734     51.2731       44.17133   56.46343  112.23404  137.0    0.04459   -21.0377  0.99971 
  -11.13652  0.01126  2.91786     13.49599  1.61346  0.81524  1.15529    0.238     0.03609  2242.37005   9999.90056  2.64747         3636.27236     16.40217    1e-05   59154.2573  0.03465  0.01301  12993583.72404  44.43274  17.04703  59239.09596    51.27844       44.19539   62.84808   95.22046  138.0    0.04502   -21.0255  0.99923 
  -11.32548  0.00236  2.89608     13.54243  1.62646  0.70792  1.22887  0.22827     0.03597  2341.82315   9979.54703  2.43767         3637.56683     16.70645    3e-05  59154.06833   0.0402   0.0029  10419043.64857  44.53864  17.12876  59234.52734    51.29678       44.20317   54.48044  110.84411  136.5    0.04133  -21.02833  0.99983 
  -11.15323  0.00523  3.28927     13.62483  1.85966  0.73131  1.21436  0.24028     0.03763  2339.17376    9917.6979  2.49915         3808.99061     16.72935    3e-05  59154.24059  0.03964  0.00635  10514384.59206   44.4823  17.13987  59233.32339    51.26734       44.15921   57.26744  114.73781  137.0    0.04505  -21.04769  0.99961 
  -10.31871  0.00138  2.90556     13.50436  1.59033  0.76169  0.75358   0.3185     0.05054  2176.11172   9967.72436  2.48386         3844.24313      18.4516  0.00157  59155.07511  0.02129  0.00104  12218972.01454  44.45684  17.07981  59235.45739    51.30991       44.22934   58.06412  101.82546  139.5    0.04293  -21.03146  0.99994 
  -10.84665  0.00202  2.74155     13.41605  1.48915   0.8685  0.85096  0.30948     0.04558  2185.90443   9985.53229  2.69075         3664.72318     17.14969    8e-05  59154.54717  0.02425  0.00172  15298212.37237  44.38115  17.13005  59235.42687     51.2822       44.17637   56.46343  112.23404  138.5    0.04477  -21.02519   0.9999 
  -11.89587  0.00235  2.66569     13.35194  1.43275  1.06669  1.35353  0.25734     0.04148  2509.23448   9952.86333  2.67138         3488.52417     17.29796  0.00011  59153.49794  0.05084  0.00318  18694910.55431  44.30167   17.1404  59234.52734    51.28593       44.18346   56.28833  112.40913  134.0    0.04539  -21.05277  0.99981 
  -10.54837  0.00262   3.1639     13.60386  1.74914  0.70066  1.05818  0.27254     0.04979  2465.97358   9986.05209  2.57534          3741.7354     18.79218  0.00344  59154.84545  0.03839  0.00277   10078025.3886  44.50785  17.12761  59234.52734    51.31602       44.22927   55.37039   108.0917  136.5    0.04556  -21.05232  0.99983 
  -11.04304  0.00299  2.84938      13.5811  1.54115  0.61654  1.15203  0.23729     0.03326   2124.9478   9950.70512  2.60674         3751.38227     18.71163  0.00286  59154.35078  0.03103  0.00345   7997775.90119  44.64422  17.13331  59233.27786    51.27514       44.17008   56.46343  112.23404  138.5      0.044  -21.03367  0.99979 
  -11.23997  0.01203  3.50098     13.78347  1.96053  0.56156   1.0309  0.28918     0.04656  2304.38712   9984.11287  2.61003         3803.30867     16.86804    4e-05  59154.15385  0.03266   0.0124   6048171.71278  44.69122  17.12318  59235.42687    51.28923       44.19361   56.46343  108.92625  137.0    0.04663  -21.04697  0.99921 
  -10.72526  0.00555  3.04717     13.57552  1.66211  0.69721  1.30908  0.20733     0.03276   2257.9448   9967.76755  2.72657         3738.34062     17.47206  0.00016  59154.66856  0.03981  0.00726  10121221.10143  44.51648  17.13859  59233.32339    51.26432        44.1596   56.46343  112.23404  137.5    0.04623  -21.04041  0.99955 
  -10.74357  0.00131  3.17239     13.60639  1.79085  0.74455  1.12088  0.26211     0.04546   2414.2651   9987.68864  2.62413         3570.53125     17.87991  0.00042  59154.65024  0.03897  0.00147   10253187.3947  44.50827  17.13696  59234.52734    51.28313       44.18318   56.28833  112.40913  138.0    0.04488  -21.03781  0.99991 
  -10.74452  0.00301  2.82959     13.51194  1.55633  0.74077  1.07264  0.24643       0.043  2351.79559   9986.88466  2.32093         3716.82696     16.58493    2e-05   59154.6493  0.03539  0.00322  10951832.11471  44.51801   17.1219  59234.52734     51.2606        44.1576   58.25261  110.44485  138.0    0.04401  -21.03397  0.99981 
  -10.39472  0.00349  3.32164     13.79866  1.84039  0.46577  1.21283  0.20931     0.03007  2083.87495   9918.62027  2.80476         3831.82399     16.00942    1e-05   59154.9991  0.03142  0.00423   4765541.43131  44.81294  17.14222  59235.45739    51.30562       44.21186   56.23249  109.15718  140.0    0.04774  -21.03354  0.99973 
  -10.70388  0.01239  2.57572     13.50667   1.3837  0.59768  0.97866  0.28033     0.04719  2360.45604   9930.88971  2.62509         3545.88527     17.78376  0.00034  59154.68994  0.03253  0.01212    8266250.6783  44.67078  17.12575  59234.52734    51.28767       44.18582   57.14278  111.55468  138.0    0.04313  -21.03359   0.9993 
   -10.6054  0.01862   3.1441     13.69491  1.78363  0.55438  1.50049  0.18913     0.03197  2439.28455   9973.64544  2.40892         3747.44747     16.95298    5e-05  59154.78841  0.05326  0.02794   6672429.93996  44.70087  17.13671  59233.32339    51.27213       44.17069   56.46343  112.23404  135.0    0.04403  -21.05366  0.99834 
      -10.9  0.00594  2.84907     13.51717  1.54784  0.72671  1.17941  0.25767     0.04936  2575.94744   9994.45175  2.35473         3650.20814     17.75207  0.00031  59154.49382  0.04668  0.00701  10779856.14792  44.51655  17.13298  59234.54297    51.25185        44.1383   58.88264  113.70172  134.5    0.04362  -21.04411  0.99958 
  -11.10206  0.00403  3.08586     13.54725  1.72511  0.77192  0.92169  0.27814     0.04107  2156.70341   9988.80859  2.52944         3849.49812      17.5319  0.00019  59154.29176  0.02557  0.00372  12271000.05204  44.43803  17.12727  59234.54297    51.27614       44.17301   56.46343  112.23404  140.0     0.0421   -21.0315  0.99977 
   -10.9349  0.00574  2.84869      13.5768  1.58261  0.62209  0.95146  0.29332     0.04898  2379.76263   9993.50611  2.50134         3589.03799     18.11501  0.00072  59154.45892  0.03214  0.00546    8372809.6672  44.63606  17.14138  59234.52734    51.27412        44.1702   56.23249  112.46498  137.0    0.04212  -21.02832  0.99968 
  -11.35505  0.00218  2.72316     13.46318  1.47662  0.73322  1.24509  0.22153       0.032  2223.34055   9962.87583  2.79907         3612.19289     16.13977    1e-05  59154.03877  0.03671  0.00271  12046999.83479  44.48709  17.14003  59234.54297    51.29157       44.19598   54.48044  110.90923  138.0    0.04391  -21.02469  0.99984 
  -10.89028  0.00608  3.02082     13.50173  1.67384  0.85768  1.32288   0.1972     0.03052  2206.44137   9999.22673  2.59717         3717.11722     17.57826  0.00021  59154.50354  0.03842  0.00804  14070546.10758    44.384  17.12397  59243.17578    51.22238       44.08087   71.14621   93.99843  140.5    0.04455  -21.01916  0.99951 
  -10.79516  0.00745  3.05734     13.50542  1.72179  0.86743  0.81034  0.31497     0.04489  2157.52143   9995.87311  2.65857         3710.84306     17.84992  0.00039  59154.59866   0.0225  0.00604  14576418.22854  44.37049  17.13773  59234.52734    51.30622       44.21038   56.46343  108.92625  138.5    0.04197  -21.02108  0.99964 
  -10.97292  0.00776  3.06196     13.59354  1.67504  0.70984   1.1178  0.25041     0.04292  2322.65697   9997.71456   2.2423          3882.3284     16.68154    3e-05   59154.4209  0.03597  0.00868    9479168.6157   44.5441  17.11986  59234.54297    51.26135       44.15205   58.08491  113.92035  138.0     0.0452  -21.04097  0.99947 
  -10.84996  0.00647  2.98613     13.52805  1.62661   0.7626  0.88633   0.3037      0.0433  2129.67679   9957.27645  2.72666         3765.94493     16.04371    1e-05  59154.54386  0.02398  0.00573   11836148.1541   44.4567  17.13447   59246.3731    51.23273       44.08965   73.13501   98.24878  140.5    0.04428  -21.03062  0.99965 
  -11.27987  0.00226  3.04042     13.56314  1.69805  0.72845  1.20782  0.21897     0.02966  2113.49785   9999.95371  2.53467         3828.78936       18.746   0.0031  59154.11395  0.03218  0.00273  10898239.87645  44.49557  17.13293  59234.52734    51.27517       44.17433   56.46343  112.23404  138.0    0.04347  -21.03221  0.99984 
  -10.60224  0.00413  2.85267     13.52026  1.53328  0.71386   1.0138  0.27418     0.04042  2196.06902   9981.77142  2.77816         3730.96798     18.93089  0.00474  59154.79158  0.02917  0.00418  10553984.96123  44.52055  17.12944  59234.54297    51.26822       44.16047   57.26744  114.73781  137.0    0.04799  -21.05628  0.99974 
  -10.48386  0.01707  3.12816     13.68847  1.74915  0.60415  0.97673  0.29094     0.05605  2420.84131   9939.13948   2.3093         3674.90717     17.31763  0.00012  59154.90996  0.03415  0.01667    6672381.2294  44.69681  17.13335  59233.32339    51.28769       44.19361   56.46343  108.92625  138.5    0.04623  -21.04168  0.99901 
  -11.04831  0.00128  2.69661     13.34127  1.44966  1.01469  1.10424  0.24049     0.03313  2152.03358   9937.52632  2.82096         3717.68564     17.39545  0.00014  59154.34551  0.03051  0.00141  20331867.35962   44.2603  17.12697  59234.54297    51.29402       44.20051   55.37039  110.01928  138.0    0.04322   -21.0338  0.99991 
   -11.0768  0.00809    2.945     13.47352  1.64001  0.89353  0.89263  0.32752     0.05856  2507.16077   9999.87954  2.57457         3557.05326     16.98528    5e-05  59154.31702  0.03347  0.00722   14920848.4197  44.37173  17.12678  59234.52734    51.26803       44.16218   57.26744  111.43002  135.5     0.0433  -21.04033  0.99957 
  -11.07915  0.00854  2.84713     13.56649  1.54063  0.68008  0.99073  0.32471     0.05285  2363.58686   9987.21719  2.63477          3566.2193      16.9575    5e-05  59154.31467  0.03302  0.00846   8537682.36291  44.61639  17.13512  59234.52734    51.28609       44.18957   55.46833  109.92134  136.0    0.04724  -21.05373   0.9995 
  -10.94095  0.00401  3.05579     13.66404  1.70066  0.56608  0.96909  0.24783     0.03328  1991.21689   9996.89324  2.45632         3936.18621     18.04735  0.00062  59154.45287  0.02292  0.00389   6927948.90962  44.68861  17.13157  59234.52734    51.28366       44.18419   56.23249  112.46498  141.0    0.04391  -21.02746  0.99977 
  -10.62868  0.00675  2.94436     13.60767  1.60737  0.59177  0.90616  0.30125     0.04831  2291.97849   9926.07704  2.66839         3717.25377     17.03149    6e-05  59154.76514   0.0284  0.00611   7880923.14762   44.6404  17.13698  59233.32339    51.29055       44.19484   56.23249  109.15718  138.5    0.04554  -21.03913  0.99963 
  -11.24576  0.02274  2.91171     13.51565  1.55254  0.73237  0.90463  0.31918     0.04618  2228.10889   9964.94089  2.67438         3812.08571     18.03431   0.0006  59154.14806  0.02679  0.02057  11372602.56705  44.47573  17.14635  59233.32339    51.27615       44.16986   55.46833  113.22914  136.0    0.04439  -21.04186  0.99871 
  -11.01695  0.00237  2.60348     13.39425  1.40427  0.77785  0.99763   0.2651     0.03961  2274.07961   9986.15412  2.65331          3713.5466     18.61497  0.00229  59154.37686  0.03078  0.00237   14383851.0938  44.42731   17.1302  59234.52734    51.31027       44.22123   55.37039   108.0917  137.5    0.04184  -21.03974  0.99986 
