 texplosion  fnickel    Pspin  log(Bfield)      Mns  thetaPB   mejecta    kappa  kappagamma      vejecta  temperature    alpha  cutoff_wavelength  log(nhhost)      A_V         MJD0   kenergy  mnickel           TSD   log(L0)  Peak_mag     Peak_MJD  log(E_rad)  log(Peak_lum)  Rise_Time    E_fold  tau_1  delta_m15     r_peak     frac 
  -21.64161  0.09438  1.13286     14.78782   1.7466  1.48356  21.55439  0.03682     0.48806  11132.32547   7760.60697  3.18239         3402.57715     16.65039    2e-05  58008.20294  15.93436  2.03438    5529.88926  48.65997  18.29219  58032.32801    50.77045        44.0813   11.57705  32.41573   35.0    0.37979  -20.92826  0.99808 
  -29.92883  0.25838  2.18675     14.64529    1.989  1.19316   8.54732  0.06603     0.46689  10187.33985   6914.41427  0.10878         4373.76364     17.29956  0.00011  57999.91572    5.2915  2.20846   45233.77498  47.23242  18.07843  58040.42176    51.00572       44.57981    6.94623  18.52327   38.5    0.38277   -20.9264  0.96525 
  -25.86454  0.24178  0.89333     14.89313  1.48053   0.8739   9.85431  0.12621         0.5  15000.82353   7827.46861  4.61857         5030.63763     19.38832  0.01358  58003.98001  13.22767  2.38261    1794.70816  49.28325  18.26006  58026.93218    50.82647       44.02406   18.52327  46.30818   45.0    0.38706  -21.14276  0.99908 
  -18.16846  0.45127  1.01282      14.9129  1.54115  0.92474    5.7074  0.09539     0.49202  12411.11661   7121.54222  1.80295         3943.98945     18.60527  0.00224  58011.67609   5.24429  2.57558    2192.47594  49.10469   18.2001  58021.53635     50.8159       44.00656   16.20786  43.99277   38.5    0.46658  -20.91803  0.99863 
  -17.62048  0.37658  1.21128     14.85655  1.96361  0.99254   9.38965  0.05559     0.46941  15840.32939   5629.71039  1.96199         2221.40943     20.67732  0.26427  58012.22407  14.05417  3.53599    5179.25405  48.68115  18.12129  58024.23427    50.75552       43.99891   13.89245  39.36195   36.5    0.55414  -21.30568  0.99557 
  -16.25565    0.118  1.13976     14.68108  1.61385  1.29625  19.85321  0.01542     0.49916   8264.27017   6633.73624  1.63043         3165.47543     19.29831  0.01104   58013.5889   8.08848  2.34266    8455.77079  48.43593  18.08962  58018.83844    50.79276       43.97777   18.52327  45.21489   44.0    0.48355  -20.82069  0.99612 
   -24.5671  0.18953  1.01139     14.79876  1.50252  1.05798  13.18239  0.08509     0.49936  14494.00792   6923.07423  1.89501         5392.70545     19.74676  0.03101  58005.27745  16.51955  2.49847    3605.33595  48.87888  18.29325  58029.84455     50.7797       43.97271   16.20786  43.99277   36.0    0.36289  -21.30214  0.99813 
  -32.15776  0.22758  1.08113     14.93011  1.83145   1.0295   10.9305  0.06552     0.09138   7458.84173   7261.31084  3.55581         5053.54645     17.29999  0.00011  57997.68679   3.62752  2.48754    2742.51956  49.02574  18.07273  58024.23427    50.82764       43.97655   18.52327  46.30818   65.5     0.2303   -20.6956  0.99862 
  -23.20717  0.27674  1.45267     14.82903   1.5917  1.29836  10.20412  0.06089     0.37155   9955.34554   5834.74268  2.81563         4731.53001     16.85628    4e-05  58006.63738   6.03275   2.8239    6854.11145  48.31042  17.66786  58013.44261    51.08895       44.65802    6.94623  18.52327   42.0    0.34572   -21.1052   0.9937 
  -23.15796  0.13988  0.85527      14.8003  1.24596  0.48139  19.34817  0.03217      0.3568  12310.58131   7598.53364  0.91541         2756.07846     20.11576  0.07252  58006.68659  17.49138  2.70647    2122.82951  49.17323  18.29751  58040.42176     50.8024        44.2461    7.19378  22.90654   34.5    0.40825  -21.03059  0.99644 
  -29.35698  0.48904  3.99968     14.74991  1.90724  1.25769   4.94986  0.06971     0.31514    6494.4043   6761.33177  2.33382         4343.64634      16.8319    4e-05  58000.48757   1.24537  2.42067   89628.90149  46.39275  18.05366  58032.32801    50.67757        43.9382   13.89245  32.41573   45.5    0.37651  -20.96609  0.86005 
  -37.87265  0.34659  0.78875     14.47162   1.3251  1.55062  13.17559  0.09475     0.23634  14744.13129   4822.25487  0.93717         3822.04266     20.68379  0.26824   57991.9719  17.08581  4.56651    8723.72983  48.65651  18.32162   58029.6301    50.96712       44.26727   16.20786  32.41573   65.5    0.25073  -20.92556  0.99574 
  -39.68278  0.47864  0.81924     14.76389  1.37886  1.27462  11.04449  0.10857     0.48262  17451.86835   4044.11098  1.02832         3023.39678     18.31294  0.00114  57990.16177  20.06581  5.28635    2549.01188  49.17517  18.29925  58026.93218    51.10601       44.60585    9.26164  20.83868   55.5    0.27042  -20.85327  0.99832 
  -18.68327  0.24692  2.31723        14.88  1.71559  1.26709   9.16694  0.02538      0.0904   5448.37698   7173.71969  2.93582         4408.61051     18.82191  0.00369  58011.16128   1.62325  2.26349   14865.41887  47.60114  18.29632   58029.6301    50.78417       43.98176   16.20786  46.30818   41.0    0.43156  -20.88749  0.97611 
  -63.72657  0.48812  1.40191       14.477  1.95789  1.19044   8.07456  0.12491     0.48864   9101.28689   4796.41755   0.2292          4744.8889     20.27989  0.10583  57966.11798   3.98981  3.94137   39723.18388  47.66815  18.26399  58029.91855    50.87717       44.06189   16.20786  46.30818   70.0    0.20171  -20.64127  0.97494 
  -37.84167   0.4505  0.90333     14.72107  1.67741  0.88009   6.49767  0.16098     0.45373   10874.2415   8903.06624  0.32716         4858.78941     19.84514  0.03889  57992.00288   4.58335  2.92721    4592.03982  48.91978  18.30813  58032.32801    50.83626       44.11704   13.89245  34.73114   58.0    0.18011  -20.52395  0.99749 
  -23.67681  0.19522  1.70828     14.95122  2.07083  1.20604  14.01668  0.05389     0.45783  10264.82864   6349.12253  3.35299         4309.83146     20.29464  0.10949  58006.16774      8.81   2.7363     7024.9271  48.27323  17.18127  58008.04678    51.05501       44.60282    6.94623  16.20786   41.0    0.28685  -21.13659  0.99302 
  -23.92226   0.1088   1.6442     14.80791  1.57874  1.07069  21.83241  0.02059      0.0596   6820.68404   7850.11674  3.30773         4064.73168     19.13313  0.00755  58005.92229   6.05877  2.37541     9598.9323  48.05302  18.07718  58024.23427    50.73816       43.90487   16.20786  46.30818   37.5    0.32284  -21.22121  0.98892 
   -42.7646  0.29713  1.32933     14.46984  1.39151  1.28041  11.40597  0.07829     0.49981  10302.45976   5250.84221  0.54672         3897.53946     18.59477  0.00219  57987.07995   7.22173  3.38905   26235.16206  47.74618  18.27621  58026.93218    50.91024       44.19829   15.44766  34.73114   73.5    0.22913  -20.56117  0.97722 
  -16.12052  0.19987   2.6921     14.47417  1.07312  1.35359  10.64646  0.02031     0.45683   5169.06276   6966.02095  2.78496         5309.92533     17.69189  0.00027  58013.72403    1.6969  2.12793   81341.11211    46.529  18.18696  58032.32801    50.81082       44.07343   13.89245  32.41573   33.5    0.45452   -21.2243  0.87698 
   -23.2753  0.20229  1.48189     14.51294  1.18416   1.3497  10.09045  0.02539     0.36892   3862.33153   9356.37407  2.90675         4695.52583     17.46153  0.00016  58006.56925   0.89792  2.04115   22749.98336  47.64364  18.12186  58024.23427    50.73983       43.96567   18.52327  41.67736   41.0    0.30205  -20.93272  0.98193 
  -29.38644  0.17247  1.19032     14.54878  1.42661  1.25522  15.19294  0.03662     0.35763   8514.68681   6398.41344  4.00127          2541.1101     16.80015    4e-05  58000.45811   6.57062  2.62039   14993.13719  48.09593  18.22149  58024.23427    50.79731       43.94506   18.52327  53.25441   40.5    0.27442  -21.22503  0.99083 
  -13.54244  0.19341   2.2816     15.01876  1.60198  1.46599  10.95368  0.01765     0.04469   8402.61476   9976.79699  4.79494         4530.31672     16.20284    1e-05  58016.30211   4.61335  2.11857    7102.99317  47.90558  17.83348  58016.14053    51.24993       44.94903    6.94623  13.89245   24.0    0.73266  -21.32753  0.98878 
  -23.21636  0.20529  1.00206     14.77727  1.24548  1.38191  16.02078  0.03664     0.43924  11198.18165   5165.54601  2.36298          5533.6397     17.93446  0.00048  58006.62819  11.98411  3.28898    3238.97649  48.85199  18.14258  58021.53635    50.93816       44.23647   13.89245  30.10032   43.0    0.37185  -21.17603  0.99792 
  -37.70357  0.18208  3.25219     14.58282  1.55646  0.83478  10.75687  0.04979     0.35033   5715.84229    8671.7603  4.55476         3532.20083     18.13467  0.00076  57992.14098    2.0964  1.95863  104392.08824  46.41796    17.957  58021.53635    50.76879       43.90467   16.20786  53.25441   54.0    0.22454  -20.53098  0.88929 
  -33.03829  0.11278   1.1113     15.04737  1.97585  0.61041  17.02616  0.08751     0.48887  10511.03241   9142.28621  4.50254         4631.23311     18.06751  0.00065  57996.80626  11.22108  1.92017    1821.78993  49.21244  18.05818  58016.14053    51.29577       44.85945    9.26164  20.83868   63.5    0.07368  -20.53249  0.99847 
  -36.66217  0.35325  0.81189     14.70913  1.65418  1.12885  10.20851  0.20392      0.4997  15451.84472   5024.31429  1.74223         4853.38285     20.36484   0.1287  57993.18238  14.53952  3.60615      3864.866   49.0813  18.06464  58029.91855      50.695       43.92811   13.89245  39.36195   72.5    0.21073  -20.70063  0.99842 
  -36.16668  0.31206  1.84059     14.47545  1.24307  0.78842   8.40721  0.04386     0.07111   8460.49309   6108.11192  0.44058           4079.903     18.44549  0.00155  57993.67787    3.5898  2.62359   43783.86787  47.19211  18.12856  58024.23427    50.79195       44.03115   16.20786  39.36195   65.5    0.33494  -20.61153  0.93769 
  -28.58125  0.25396  1.01347     14.73262  1.72136   1.4208  10.78164  0.07668     0.42648  11289.45029   6341.40888  3.50397         2729.22362     16.19958    1e-05   58001.2633   8.19705  2.73812    5624.35968  48.74303  18.21526  58026.93218    50.88073       44.21015   11.57705  30.10032   43.0     0.3179  -20.99146  0.99783 
  -40.67026  0.15229   7.9348     14.75859  1.71357  0.48481  14.48365  0.01425     0.04132   3435.56518   6852.93934  4.16386         5326.51695     19.46034  0.01603  57989.17429   1.01977  2.20568  304509.48744  45.22007  18.10088  58026.93218    50.72718       43.96699   13.89245  34.73114   53.5    0.27491   -21.0782  0.57109 
  -23.47748  0.44348  1.19433     14.90852  1.59578  0.95691     6.647  0.16434      0.2666  15409.35278   5045.70929  1.71181         5098.21017     19.21114  0.00903  58006.36707   9.41503  2.94783    3221.02004  48.80957  17.85107  58018.83844    50.75647       43.97631   16.20786  41.67736   33.0    0.44891  -21.36893  0.99706 
  -29.61612  0.38001   2.1243     14.80956  1.60994   1.3377   7.00538  0.03289     0.36606   3975.48747   5992.59632    4.548         4506.52816     16.79277    3e-05  58000.22843   0.66045  2.66213   16215.82644  47.61128  18.25666  58037.72384    50.75659       44.09814    9.26164   25.4695   42.5    0.33077  -21.11913  0.97374 
  -29.56039  0.17288   1.0301     14.80392  1.60543  1.50084  17.80758  0.04819     0.37728   9871.78499   5158.40307  3.16117         5406.89724     17.79146  0.00034  58000.28416  10.35198  3.07852    3902.28294  48.85736  17.97587  58026.93218    50.75006       43.90196   16.20786    50.939   42.0      0.294    -21.379  0.99814 
  -27.73208  0.45899  0.86805     14.86259  1.60973   0.7887   8.99325  0.16574         0.5  17570.18699   4856.98593  3.85292         3314.27107     20.64472  0.24516  58002.11247  16.56138  4.12784    2120.66733  49.27204  17.98272  58021.53635    50.78044       43.94784   16.20786  46.30818   44.0      0.328  -21.25989  0.99811 
  -16.50245  0.28444  2.63014     14.85092  1.37324  0.41554   6.97922  0.03185     0.46355   6158.27373   6890.61968  3.18911         2904.53208     16.32738    1e-05   58013.3421   1.57889  1.98515   17526.00414  47.32295    18.217  58026.93218    50.85273       44.03868   16.20786  46.30818   41.0     0.4561  -20.82376   0.9147 
  -25.00961  0.21695  1.40538     14.56238  1.34615  1.04913  13.80276   0.0316     0.49993   9420.36901   5813.19569  3.02996         2577.22977     20.23775  0.09605  58004.83494   7.30683  2.99447   18524.42711  47.83461  18.32994  58032.32801    50.79697       44.12728   11.57705  27.78491   48.0    0.37061    -21.027  0.97893 
  -31.47329  0.19283  0.92343     14.72509  1.50511  1.28687  15.11608  0.01886     0.24645   4332.92997   6563.74341  2.88418         4482.09044     19.98369  0.05351  57998.37126   1.69289  2.91479    4226.81581  48.88959  18.26792  58026.93218     51.0131       44.43348   11.57705  23.15409   78.0    0.24156  -20.61854  0.99824 
  -29.31394  0.13872  1.02468     14.73743   1.4192  0.91447   15.8752  0.03925     0.49664   6340.77187   7892.20816  3.23395         5204.10051     19.18898  0.00858  58000.53061   3.80742  2.20218    4636.29375  48.73354  18.19329  58021.53635     50.8135       44.02499   16.20786  41.67736   44.0     0.2587  -21.14318  0.99724 
  -28.73185  0.27019  1.10816     14.70465   1.3573  0.69587   9.53031   0.1261     0.25992  12105.37132   5497.66206  4.11678         3144.90193     17.27653  0.00011   58001.1127   8.33087  2.57495    6031.04324  48.53192  18.22882  58026.93218    50.96835       44.27879    9.26164  30.10032   41.5    0.26299  -21.06531  0.99258 
  -30.75407  0.13349  1.00893     14.69235  1.38264  1.13673  20.18725  0.04239     0.46243   9492.33558     6140.097  4.38591         3821.72507     18.97134   0.0052  57999.09048  10.85052  2.69478    5389.46854  48.67029  18.04922  58021.53635    50.83255       43.95875   18.52327  53.25441   60.5    0.25197  -20.68927  0.99701 
  -26.57806  0.09919  1.63021     14.90046  1.87197  1.10276  23.90866  0.02161     0.46828    6516.2399   6588.05482  2.85743         4786.22998     17.62578  0.00023  58003.26649   6.05587  2.37146    7305.92356  48.25298  18.37063   58029.6301    50.92269        44.3333    9.26164   25.4695   42.5    0.28043  -21.08267  0.99309 
   -28.7368  0.21183  0.86926     14.89933  1.23007  0.75795  16.79141   0.0366     0.49878   9615.30966   5488.40928  3.90444         5400.18407     20.10723  0.07111  58001.10775   9.26064  3.55684    1372.06714  49.34311  18.10389  58024.23427    50.95513       44.35078    9.26164   25.4695   45.5    0.31653  -21.36017  0.99852 
  -35.14053  0.18666  0.74758     14.80281  1.85397  1.25085  18.32561  0.04088     0.48464  11464.33465   5306.97923  0.46512         5332.87308     19.17954   0.0084  57994.70402  14.36757  3.42066    2385.67346  49.41202  18.17036  58021.53635     50.8389       44.09869   16.20786  34.73114   69.5    0.28673  -20.67904  0.99936 
  -26.86235   0.2444  1.43352     14.87437  1.94792  1.46038   13.3223  0.06267     0.33884  12629.22416   5209.69479   2.5351         3135.75112     17.47242  0.00016   58002.9822  12.67535  3.25603    6629.07107  48.42416  18.31523  58026.93218    51.00028       44.30022   16.20786  32.41573   50.5    0.29602  -20.89376  0.99474 
   -12.7899  0.43406  1.11337     14.85177      1.7  1.44589    6.8959  0.06822     0.46697  15838.97243    5267.4474  3.92276         2306.26604     19.46355  0.01615  58017.05465  10.31981  2.99321    3872.67386    48.818  18.03489  58021.53635    50.85673       43.98749   16.20786  59.42558   40.5    0.55804  -20.95715    0.998 
  -35.97122  0.31535  3.23569     14.93666  1.79508  0.54914   7.72202   0.0784     0.48983    7222.5302   7511.26059  2.38433         4701.75504      18.2744  0.00105  57993.87333   2.40291   2.4351   23361.78467  47.13449  18.34488  58035.02593    50.93289       44.34882    6.94623   25.4695   59.5     0.2485  -20.69671  0.89772 
  -28.70706  0.18615  0.93384     14.57463  1.57753  1.39766  16.39153  0.02573     0.49683    10612.739   5095.91605  0.02198         3207.55688     18.80526  0.00355  58001.13749   11.0129  3.05123    9058.90046   48.5692  18.27859  58024.23427    50.84296       44.07411   16.20786  37.04655   49.5    0.44702  -20.89838  0.99645 
  -22.94405  0.19025  0.82162     14.69589  1.74682  1.54134  18.35058  0.05757         0.5  13319.31433    6203.4253   1.7267          4841.7579     20.89713  0.43838   58006.9005  19.41962  3.49128    4442.46073  49.03413  18.43582  58029.91855     51.0721       44.64575    9.26164  16.20786   33.0    0.33942  -21.96555  0.99861 
  -23.56187  0.11882  1.17233     14.85223  2.17144  1.52567  24.17361  0.01907     0.16917   7648.35734   6874.85094  1.45194         4812.96222     20.53955  0.19243  58006.28268   8.43539  2.87228    5472.81236  48.72928  18.04528  58018.83844    50.83038       43.95158   20.83868  55.56982   40.5    0.37225  -21.21245  0.99771 
  -12.38157  0.24011  0.86527     14.99353  1.90743  0.99822  11.05622  0.05882         0.5  17252.13414   5529.89773  3.35332          2399.4117     16.09882    1e-05  58017.46298  19.62996  2.65468    1366.18517  49.53948  18.05169  58024.23427    50.77833       44.18022   11.57705  23.15409   22.0    0.59048  -22.91928  0.99953 
  -21.85887  0.26293  1.43418     14.80294  1.75999  1.56889  11.10125  0.03858     0.49603  10187.82135   6356.04821  3.51204         2764.60637     19.52717   0.0187  58007.98568   6.87324  2.91883    8330.18836   48.2805  18.03482  58037.72384    50.84536       44.32953    9.26164  20.83868   54.0    0.39637  -20.82196  0.99358 
  -19.30714  0.27992  1.22182     14.66289  1.22268  1.20849   9.35352  0.02204     0.23567   4807.79043   6224.25689  3.45647         3920.58799     20.18129  0.08434  58010.53741   1.28971  2.61824    8005.23521  48.27877  18.29921  58024.23427    50.84389       44.11736   16.20786  34.73114   52.0    0.39322  -20.79804  0.99336 
  -37.06425  0.09254  3.69998     14.75108  1.89408  1.10815  25.32978  0.01891     0.49654   4664.10693   7621.97205  4.08539         5143.39733     16.28365    1e-05   57992.7803   3.28697  2.34402   75761.99403  46.53039  18.23256  58032.32801    50.79869       44.07739   13.89245  34.73114   62.5     0.2047  -20.78182  0.88088 
  -22.22798  0.34448  1.48458      14.7329   1.5299  1.21003  10.47365  0.05179     0.49994   8006.46821    6588.2195  4.29738          5095.4684     20.90886  0.45039  58007.61657   4.00504    3.608   10712.40682  48.08042  18.20691  58018.83844    50.89844       44.12351   15.44766  37.04655   39.0    0.34822  -21.65795  0.98609 
  -20.08511  0.25952  1.33851     14.73882  1.40472  1.05221  11.44686  0.04757     0.31691  10879.54765   6758.38495  2.21872         4590.97153     20.60347  0.22295  58009.75944    8.0823  2.97064    7780.55125  48.27218  18.42034  58029.84455    50.80727       43.97689   18.52327    50.939   36.5    0.40984  -21.29996  0.99125 
  -27.86612  0.45319  1.17949     14.93304  1.79964  1.46085   8.98851  0.09711     0.49996  15710.80342   4580.96547  2.93941         3095.73371     19.60988  0.02263  58001.97843  13.23462  4.07349    3164.57859  48.88033  18.05996  58032.32801    50.70326       44.03547    11.8246  25.22194   50.0    0.35321  -20.97486  0.99765 
  -26.82414  0.38829   1.1948     14.80709  1.28466  0.58069   7.67217  0.09832     0.46991  13162.41769   5374.78625  0.76808         4657.83704      19.4951  0.01737  58003.02041   7.92897  2.97902    4140.14406  48.60603  18.28278  58024.23427    50.72389       43.92053   18.52327  46.30818   39.5     0.3914  -21.05588  0.99004 
  -32.77938  0.26584  1.01928     14.76691  1.74936  1.54939   7.70128  0.09029      0.4999   6224.36642    9135.5594  4.21964         4272.48867     19.44061  0.01532  57997.06517   1.77984  2.04732     4936.9006  48.80169  17.90444  58021.53635      50.722       43.91908   16.20786  39.36195   62.5     0.2008  -20.41662  0.99861 
