 log(Bfield)      Mns     Pspin  cutoff_power  cutoff_wavelength  fnickel    kappa  kappagamma   mejecta  log(nhhost)  temperature  texplosion  thetaPB      vejecta      A_V        MJD_0   log(KE)      M_Ni  Peak_mag     Peak_MJD 
    13.48029  1.49692  12.64954       1.63769         4391.17734  0.30488  0.03436     0.07604   15.5983     17.87349   3989.37623   -31.90788  1.51837  18680.16693  0.00042  57997.93667  53.18248  22.29557  18.28744   58023.1827 
    13.03715  1.98744  10.83544       4.48489         5766.44178  0.45735  0.04935     0.08975  10.85412     19.53926   4331.09178   -30.43016  1.22826  15494.88439  0.01923  57999.41439  52.98778  31.04754  18.27207   58023.1827 
    14.99215  1.41192   29.7755       0.34298          2927.9624  0.10502  0.01197     0.11256  48.91785      17.3508   4343.15692   -37.68261   0.0175  17333.40315  0.00012  57992.16194  53.20599   9.41564  18.07025   58023.1827 
    14.90316  1.82771  11.63994       3.58334         5712.00794  0.28259  0.03943     0.14266  16.53495     18.84504    4713.5791    -35.1643  1.29959  16035.61969  0.00389  57994.68025  53.05487   20.9039  18.19777  58029.77944 
    14.87925  1.87655  15.52202       3.68987         5334.54981  0.09267  0.01189     0.22829  38.31053     16.24085   4462.85152   -27.82235  0.81159  13725.91238    1e-05   58002.0222  52.98584   7.98122  18.41179  58029.91855 
    13.44116  1.62989   15.4787       3.03709         5679.51384  0.43276   0.0417      0.4217   9.95368     18.66036   4325.50583   -30.70457  1.41973  15420.20878  0.00254  57999.13998   52.9755  28.83633  18.21692  58029.77944 
    12.83178  1.77694  17.01456       4.73488         5272.55579  0.11204  0.01167     0.35197  36.32047     16.39891   4675.23343    -24.3805  0.84559  16983.25107    1e-05  58005.46405  53.16689     9.563  18.21269  58026.48107 
    14.09338   1.4983  22.32093          1.24         5721.72413  0.46228  0.06164     0.16761  12.31035      16.0623   4352.80335   -37.45796  0.61733  21242.67069    1e-05  57992.38659  53.27332  32.22387   18.2815  58029.91855 
    13.01164  1.62384   29.3233       4.42481         5291.88056  0.13647  0.01928     0.46838  35.14685     18.61679   3280.74653   -33.56612  0.03894  15057.55984   0.0023  57996.27843  53.05993  11.58351  18.21698  58026.48107 
    13.03774  1.73995  20.31739       1.86505         4343.06314  0.28902  0.05439      0.1334  21.31851     17.68741    3901.4363   -36.86427   1.4938  23580.27221  0.00027  57992.98028  53.41085  22.44133  18.51741   58023.1827 
    13.28639  1.77802   5.41301       3.27526         5974.14982  0.24928   0.0441      0.1817  25.75042     17.61542   4054.90837   -40.57393  0.06824  20143.31569  0.00023  57989.27062  53.28903  20.03713  18.06328  58026.48107 
    14.83047  1.57068  13.26682       2.27436         5842.17978  0.30005  0.06015     0.19368  17.35275      16.6126   4126.01772   -41.54678  0.42327   16599.3876    2e-05  57988.29777  53.08896  22.40501  18.17175  58029.77944 
    13.82966  1.50157  24.78595       4.97471         5806.60226  0.37196  0.05357     0.14837  15.18101      18.9327   4197.05133   -36.57573  0.45915  21194.26316  0.00476  57993.26882  53.28982  27.05565  18.03204   58023.1827 
    12.24423  1.81376   5.99066       3.14978         3969.02001  0.18011  0.02701     0.09812  25.12902     18.48955    4969.2335   -28.53808   1.3996  18644.42649  0.00172  58001.30647  53.21996  14.41317  18.16594  58029.77944 
    13.95484  1.64953   15.8354       3.85636         2530.71979  0.20012  0.03887     0.02897  30.60905     16.40315   4302.55916   -25.55216  0.22044  20434.54005    1e-05  58004.29239   53.3148  16.58535  18.35847  58029.77944 
    12.90648  1.60612   16.8314       3.84156         5883.93034  0.32477  0.03047     0.08444  13.29601     20.23489   5077.79525   -22.60975  0.83178  16839.32885  0.09542   58007.2348  53.07843   23.0002  18.02526  58033.07782 
    13.70799  1.79121  29.24897       2.45594         4784.02756   0.3432  0.07614     0.30928  14.97859     16.77431     3904.442   -32.65707  0.87066  26471.21079    3e-05  57997.18748  53.48177  24.89696  18.27451  58029.91855 
    13.28623  1.60691  20.67759       3.02403         5758.70861  0.18631  0.04137     0.20202  30.82713     18.90877   4380.72503   -31.98899  1.36134  26757.35207   0.0045  57997.85556  53.54949  15.46042  18.07544  58016.58595 
    13.02796  1.58122  14.51529       4.70311         3302.53424  0.19651   0.0539     0.18694  36.25358     16.29609   3206.17688   -40.10543  1.19643  27190.48901    1e-05  57989.73912  53.57554  16.76791  18.18836  58026.48107 
    14.81096  1.94998  13.86951       2.26202          4776.5951  0.18946  0.03662     0.30026  19.25705     16.54758   4259.34311   -26.38452   0.8472  20211.54876    2e-05  58003.46003  53.26865  14.43255  18.27561  58026.48107 
    13.68477  1.65718  27.59031       4.40685         4247.20451  0.21401  0.02986     0.40288  23.85395      20.3776    3665.3244   -32.96787  0.13204  17357.56484  0.13254  57996.87668  53.15373  16.96524  18.24409  58026.48107 
    12.18461   1.8515   7.53383        4.7051          5268.2924  0.14897  0.02538     0.20244  32.97386     18.32064   4037.00275   -33.80358  0.47472  17521.04577  0.00116  57996.04097  53.18679   12.5064  18.25098  58019.88432 
    13.20706  1.58027  11.25355       3.63066         3127.53647  0.23217  0.01665     0.26357  17.59437     16.70138   4881.69913   -37.21115  1.14944  11682.08073    3e-05   57992.6334  52.78498  17.38254  17.97523  58033.07782 
    14.84618  1.82261  10.31154          2.08            5443.02  0.11548  0.01345     0.39966  27.08499     18.30396   4717.61512   -29.36018  0.58831  12043.26592  0.00112  58000.48437  52.84619   9.36635  18.09442   58023.1827 
    13.20293  1.67354   24.6368       0.36981         2994.03016  0.35623  0.06158     0.48107  17.36454     20.53851   3603.21211    -30.5769  1.43184  26996.79861  0.19197  57999.26765  53.51146  26.60389  17.91538  58016.58595 
    15.06186  1.88634  12.41473       3.90247         5325.40506  0.20126  0.01177     0.34461  15.76996     17.03237   5228.33025   -29.01755  0.50696  10747.93688    6e-05    58000.827  52.70331  14.75013  18.09313   58023.1827 
    15.02508  2.16792  17.89227       3.16942         4999.44745   0.1242  0.01455     0.06635  45.64864     20.84159   4029.68022   -36.12273  0.52203  21804.68697  0.38576  57993.72182  53.40045   11.0111  18.17732  58029.77944 
    14.49089  1.58596  16.68634       3.78729         2444.33507  0.20103  0.04314     0.07617  31.13257     18.99905   3079.35718   -51.43621  0.77309  22437.02726  0.00554  57978.40834  53.39728  16.71067  18.44859  58026.48107 
    13.77451   1.8067  10.59543       4.30609          3985.5833  0.15424  0.03349     0.03797  36.74629     17.68504   4256.35456   -37.59257  1.28091  24017.69396  0.00027  57992.25198  53.46877  13.19047  18.37632  58036.37619 
     13.2943  1.62347  22.41452       0.05334          4518.5198  0.18513    0.046     0.14952  32.05244     17.26516   3618.02358   -33.45119   1.4281  26465.50285   0.0001  57996.39336  53.54291  15.46663  18.27384  58013.28758 
    12.48636  1.64998   9.06331       4.21007         5479.01171   0.2635  0.04602     0.10061  20.46389     17.14042   3469.48967   -28.89771   0.3339  23495.07144    8e-05  58000.94684  53.40439  20.30415  17.95132  58026.48107 
    12.68677  1.88296  23.98844       4.64992         5787.86644  0.11615  0.01336     0.04064  42.09322     19.88677   4441.07913   -26.95688  1.35513  19435.08033  0.04281  58002.88767  53.29474  10.16112  18.06953  58026.48107 
    12.40655   1.5741  19.93705       2.18341         5990.08855   0.1379  0.01471     0.09903  30.20077      18.1096   4734.94611   -38.70931  1.28857   13823.8312  0.00072  57991.13524  52.97431   11.4018   18.0212  58029.91855 
    12.28438  2.03384  11.78016       4.78646          5771.3238  0.30196  0.02893     0.10404  14.58512     18.82893   4717.04391   -26.12657  1.31494  16559.14503  0.00375  58003.71798  53.07199  21.78911  18.35669   58023.1827 
    13.57723  1.60372   28.1449       2.81893         5548.84157  0.18793  0.02155     0.44724  25.68967     18.41857   3889.80847   -31.93707  0.20543  18420.96113  0.00146  57997.90748  53.21121  15.09925  18.12853  58029.77944 
    12.47091  1.55031  15.40368       2.11387         5600.43529  0.13951  0.02265     0.07921  32.85164     17.01923   4108.58965   -28.60684  1.32382  20352.82586    6e-05  58001.23771  53.31665  11.70536   18.0954  58026.48107 
    15.16454  1.36725  26.86731       2.88937         5924.97289  0.16122  0.01624     0.38647  25.17957     19.09358   4661.76411   -29.20518  0.53677  15871.30242  0.00689  58000.63937  53.08024  12.90626  18.19775  58029.91855 
    12.12092  1.30776  24.77801       1.14642          4447.6223  0.16622  0.02526     0.46163  26.99645     18.02347   4010.04175   -25.73621  1.07979  21780.42448  0.00059  58004.10834  53.36058  13.47429  18.04036  58026.48107 
    12.28337  1.73074   8.63478       0.58256          3071.6003   0.4381   0.0681     0.32197  12.60446     16.07939   4295.77196   -37.45522  1.33747  21392.27529    1e-05  57992.38933  53.28153  30.68747  18.24519  58029.77944 
    14.72791  1.87016  20.59198       0.71158         3213.47378  0.17442  0.03335     0.48622  26.34054     19.23114   3957.68728   -31.86778  1.40755  22665.79468  0.00946  57997.97677  53.39328  14.07716  18.17365  58019.88432 
    14.83741  1.88102   9.24084       2.80957         5783.21715  0.22803  0.01275     0.11882   8.72263     17.97952    6351.5527   -20.33795   0.8066   7175.48012  0.00053   58009.5066  52.29839  14.75899  18.25094  58026.48107 
    15.12657  1.58801  18.93683       4.68027         5827.37581  0.23168  0.04101     0.14247  22.62039     16.62151   3884.74215   -28.57893  0.99413  22645.92649    2e-05  58001.26562   53.3805    18.188  18.30233  58029.77944 
    12.73827   1.8832  19.44378       4.84088          5313.6575  0.38269  0.03114     0.07574  10.20036      18.5737   4572.92081   -26.17622  1.43089  14028.88481  0.00208  58003.66833  52.89566  25.63506  18.23393   58023.1827 
    13.48927  1.43037   8.88024        4.3858         5181.71907  0.20965  0.06919     0.23396  36.24429     16.62676   3395.97339   -40.30608  0.05569  28360.19705    2e-05  57989.53847  53.61211  17.88831  18.24983  58029.77944 
    14.61752  1.80552  20.56847       4.66058         5750.09662  0.21983  0.01583     0.34376  16.42015     16.52571   4724.64172   -20.37507  0.03359  12857.75561    2e-05  58009.46948  52.86244  16.23902  18.42693  58033.07782 
    13.52202  1.73931  24.79516       3.93115          3132.8851  0.09529  0.01696     0.07154  50.21871     18.37836   3547.91277   -34.60446  0.14798  15052.34342  0.00133  57995.24009  53.08527   8.57956  18.00374  58016.58595 
    15.08644  1.49539  14.06445       4.49747          5946.0265  0.23011  0.01856     0.29467  18.61677     17.59906   4909.67874   -29.52111  0.97651  10398.89927  0.00022  58000.32344  52.68863  17.41684  18.40813  58026.48107 
    13.97983  1.61087  19.83556       4.58693         5731.81631  0.15641  0.02562     0.06393  34.72457     18.41093   3956.88956   -28.57081  0.32801  23377.61204  0.00143  58001.27374  53.44113  13.24856  17.68535  58013.28758 
    15.02689  1.64527   11.8966       4.19265         4800.38816  0.15175  0.01944     0.06859  24.17173     18.91743   4861.72353   -26.11576  0.72455  13769.08113  0.00459  58003.72879  52.95361  12.05858  18.03553   58023.1827 
    14.74209  1.87534  14.99323       0.24853          3525.5587  0.15544   0.0263     0.40445  29.58602     18.41842   4167.00151   -29.86241  0.02359  21091.12782  0.00146  57999.98214  53.33969  12.80586  18.29167   58023.1827 
    14.56387  1.73113  26.88111       2.65593         4402.84298  0.35712  0.02944     0.06385  11.03034     16.70689   4099.06655   -21.78029  0.02751  15615.85828    3e-05  58008.06426  52.99602   24.3262   18.3282   58023.1827 
    15.07884  1.91988   6.18346        4.4692         3793.99064  0.37944  0.02511     0.16764   7.15593     19.46186   5198.01327    -22.4645  1.20798  10820.95199  0.01609  58007.38005  52.63557  23.47257  18.14221  58029.77944 
    15.14203  1.51853   6.84078        1.8759         4154.09739  0.14111  0.02494     0.39028  26.84564     16.77849   4642.01208   -25.94593  0.40719  17315.31266    3e-05  58003.89862  53.16087  11.42731  18.09092   58023.1827 
     14.5632  1.35568   7.86173       4.72273         3011.24204  0.28717  0.04833     0.22551  13.26335     16.34955   4947.08407   -34.33373   0.7538   18784.3813    1e-05  57995.51082  53.17316  20.32739  18.24002  58029.77944 
    15.04337  1.67163  14.67095       2.22317         2026.26643  0.28287  0.05972     0.15639  18.71917     17.07205   4134.72671   -35.53506  0.25225  21217.22318    7e-05  57994.30949  53.30849  21.43221  18.04472  58026.48107 
    14.91526  1.51532  18.09736        2.5643         3966.25397    0.233  0.04026     0.10853  21.66551     18.06475   3847.38102   -37.67209  0.90988  23433.07528  0.00064  57992.17246  53.40672  18.14641  18.37971   58023.1827 
    13.04825  1.99258  27.43465       4.48631         4128.39508  0.08144  0.01102      0.1433  60.29045     16.85688   4987.11976   -36.80575  1.30858  15462.60163    4e-05   57993.0388  53.12119   7.54824  18.21858  58033.07782 
    12.88452  1.84941  11.85261       4.61374         5539.06851  0.33562  0.06218     0.24634  15.87493     17.34153   3780.00877    -32.5245  0.28489  22578.28694  0.00012  57997.32005  53.34861   24.6294  17.89314   58023.1827 
    12.19431  1.53886   4.26308       4.39702         5528.51336  0.40131  0.02417     0.14635   8.91829     17.28673   5158.37117   -21.99952  1.38202  12625.27081  0.00011  58007.84503  52.79132  26.10318  18.18196  58016.58595 
    14.87527   1.5498   8.06323       1.86208         4066.77416  0.13138  0.01341     0.21446   22.5225     18.87261   5015.61779   -25.78999  0.55137  11001.52967  0.00414  58004.05456  52.75308   10.3054  17.73404  58013.28758 
    12.37633  1.31515   9.52492       1.39832         5735.21214  0.24587  0.05371     0.33794   25.1854     16.37775   3800.26075   -38.88981  0.88651  30120.76837    1e-05  57990.95474  53.63677  19.68357  18.24633   58023.1827 
    12.47715  1.70794  18.03447       4.44723         5573.00016  0.25439  0.03291     0.12099  17.97757     18.04563   4369.47407   -26.27116   1.4927   19520.0435  0.00062  58003.57339  53.23271  19.12555  18.42292  58026.48107 
    14.63895  1.84412  10.96509       3.80393         5495.15835  0.30218  0.04178      0.4796  13.09057     17.11532   4359.85314   -39.43162  0.95951  14023.06217    7e-05  57990.41293  52.91809  21.33254  18.14589  58019.88432 
    12.06829  2.10369  13.70898       4.45133         4705.03506  0.34878  0.04915     0.10421  18.59399     20.48997   4069.26193   -38.73887  1.33589  22774.53207  0.17167  57991.10568  53.36945  26.39197  18.65487  58036.37619 
    13.20307   1.2405  21.10472        0.3368         3834.73042  0.46291  0.04184     0.12439   8.01151     19.21601   4722.32253   -25.57043  1.07387  14345.71907  0.00914  58004.27412   52.8918  29.39217  18.31053  58026.48107 
     12.4547  1.41385  29.23597       4.23126         5364.73354   0.3088  0.06146     0.42954  19.17837     16.71627   4196.64579   -38.97464  1.22454  25371.38372    3e-05  57990.86991   53.4658  23.50496  18.01247   58023.1827 
    15.06135   2.0648   7.50339        4.8551         5542.51824  0.07845  0.01032     0.21682  51.55236     18.72272   5224.09348   -35.07512  0.97892  11472.54912  0.00293  57994.76943   52.8512   7.09342  18.13714  58026.48107 
    12.57702  1.79887   5.86044       4.06848          5213.8745  0.16904  0.04714     0.22288  39.70554     17.73737   3597.09832   -36.94205  0.79461  24822.35052   0.0003   57992.9025  53.50304  14.64558  17.74744  58013.28758 
    15.14358  1.66608  17.32383       2.93897         5558.23404  0.28118  0.02446     0.46148  12.82086     18.97309   4530.33078   -29.73732  0.48733   9907.09865  0.00522  58000.10723  52.61444  19.76496   18.3634   58023.1827 
    12.87321  1.64622  19.94656        4.2536         5290.81357  0.23149  0.03691      0.2189  22.60648     18.38205   4288.07905   -36.93289  1.25404  17425.31711  0.00134  57992.91166  53.15284    18.171   18.1607  58026.48107 
    12.91582  1.17137  11.76402       2.40013         4522.78844  0.31304  0.05913     0.27104  18.76424     17.78422   3826.30884   -29.70084  1.56696  26113.34015  0.00034  58000.14371  53.48903  23.72929  18.37633  58033.07782 
    12.38759  1.62521  16.56959       0.31811         2287.80366  0.15076  0.02197     0.29509  33.78579     19.68563    3503.8488   -39.95493  1.29357  19452.70139  0.02694  57989.88962  53.27945  12.70988  18.30067   58023.1827 
    14.78023  1.85357   8.64543       1.00945         4546.50331  0.08376  0.01308     0.32534  46.68074     20.25768   4584.72374   -31.74418  0.75999  15709.06957  0.10056  57998.10037  53.11723   7.45278  18.37528  58019.88432 
    12.77879  1.69964   6.16742        1.5523         4456.91723  0.25645  0.04246     0.13369  23.00687     19.58714   3630.61173   -38.74404  0.35305  24432.49265  0.02147  57991.10051  53.44781  20.19562  18.19484  58029.77944 
    14.82669  1.57099    8.5514       3.63467         5102.67174  0.07658   0.0104     0.44408  51.93733     18.34859   4457.50819   -32.18196  1.13804  13612.80601  0.00124  57997.66259  53.00029   6.93237  17.92214  58019.88432 
    12.90663   2.0771  11.53933       4.47876         5835.96106  0.31198  0.02882     0.10228  13.33244     17.78746   4203.09538     -22.262  0.91064  16360.98195  0.00034  58007.58255  53.05364  22.10643  18.20683  58019.88432 
    13.61364  1.54229  24.23136       4.53106         5008.67126  0.19276  0.02091     0.13876  22.70251     19.84652   4529.63992   -27.83833  0.42623  18147.15422  0.03902  58002.00622  53.18843  15.14294  18.36294  58026.48107 
    13.60694  1.76973  21.87706       3.64099         5750.74486    0.259  0.04673     0.32528  22.79295     19.22717   4377.05067   -35.06826  0.83155  19854.59665  0.00937  57994.77629  53.26685  20.36088  18.21543   58023.1827 
    12.87454   1.9602  21.03413        3.5493         4672.36539  0.09693  0.01288     0.44932  43.01221     16.25505   4963.23073   -26.90263  0.83562  18570.12505    1e-05  58002.94192  53.25674   8.50994  18.60809  58019.88432 
    15.10769  1.73882  26.99959       4.53842         3709.30703  0.34305  0.04843     0.08008  14.33678     16.01927   4394.52671   -36.37097  1.35241  19159.38198    1e-05  57993.47358  53.19718  24.66878  17.99304  58026.48107 
    15.08113  1.79388  12.47586       3.58826         2870.97339  0.15205  0.01757     0.01506  44.80345     17.06068   4461.75841    -26.5507  0.62793  20954.00984    6e-05  58003.29385  53.36456  13.43928  18.46933  58029.77944 
    14.90167  2.05703  15.00684       1.40715          5469.8225  0.16991  0.03401     0.23728  28.92431     16.72319   4282.07236   -35.92585  0.75185  22242.46187    3e-05   57993.9187  53.38412  13.94244  17.62395  58019.88432 
    14.90437  2.08245  12.27085        3.1965         5695.05076  0.14588  0.02154     0.20962  31.40586     17.93649   4220.40908   -39.59842  0.79316  15328.01261  0.00048  57990.24613  53.06699  12.14457  18.07988  58019.88432 
    13.00004  1.73497  25.34872       3.94642         5236.22515  0.17091  0.01127     0.06601  20.79611     17.30084   4874.85391   -27.23101  0.72206  12209.57516  0.00011  58002.61354  52.83714   13.2095  18.32084  58013.28758 
    13.53243  1.63692  29.15738       4.42687         5406.82308  0.23385  0.02965     0.40489   17.4589     18.24024   4190.32126    -24.3416  0.41693  17898.57547  0.00097  58005.50295  53.15493  17.48227  18.22302   58023.1827 
