 log(Bfield)      Mns     Pspin  cutoff_power  cutoff_wavelength  fnickel    kappa  kappagamma   mejecta  log(nhhost)  temperature  texplosion  thetaPB     vejecta      A_V        MJD_0   log(KE)      M_Ni  Peak_mag     Peak_MJD 
    12.03966  1.74387  23.52952       4.51665         3676.30589  0.18444  0.03154     0.03536  19.67072     17.72592   7812.33236   -19.03045  0.28701  2782.17678   0.0003  58862.47955  51.54797  14.10652  19.55225      58941.4 
     12.5456  1.83463  20.14907       3.30834         3401.41954  0.33769  0.05837     0.05201  11.66503     18.55015   9346.12506   -19.60167  0.07465  3150.56926  0.00197  58861.90833   51.6108  23.27605   19.5541      58941.4 
    12.46989  1.45475  13.82596       4.73555         3395.66199  0.25423   0.0425     0.23626  14.79502     16.86603   3290.98094   -22.67464  0.02759  2709.32702    4e-05  58858.83536  51.50088  18.39709  19.55469      58941.4 
    13.31057  1.65863  15.46726       4.10304         3683.68992  0.25545  0.04186      0.0924  14.21312     18.66144   5134.59757   -19.06895  0.47959  2715.74214  0.00255  58862.44105  51.49944  18.33725  19.54076  58942.56499 
     13.1261  1.97447  14.17478       4.40638         3401.95822   0.2665  0.04721     0.07755  14.46007     19.15065   5066.12727   -20.09037  0.90288  2910.86044  0.00786  58861.41963  51.56121  19.19672  19.58482      58941.4 
    14.97761  1.44551  24.30957       4.27699         3483.16226  0.27099  0.05337     0.01639  13.42739     16.72726   3781.79971    -23.3644  0.33526  2867.41948    3e-05   58858.1456  51.54164  19.22981   19.6061  58945.22353 
    12.46257  1.59424   11.0177       4.93766          3485.8546  0.24508  0.04141     0.01999   15.1303      18.3534   8028.82619   -19.27559  0.85397  2831.48123  0.00125  58862.23441  51.54112  17.81443  19.54792      58941.4 
    12.60668  1.64402  20.48994       4.32769         3180.37394  0.15399  0.02511     0.01098  25.24294     19.21858   3201.61037   -19.68881  0.83893  2918.34398  0.00919  58861.82119  51.60949  12.33288  19.60791  58942.56499 
    13.42735  1.74903  13.17764       3.83041         3388.04744  0.28124  0.04657      0.0113  13.23804     16.67084   5028.77896   -19.16474  0.74996  2884.19279    3e-05  58862.34526  51.54544  19.89954  19.58472  58942.11922 
    13.86303  1.56191    23.746       4.91678         3215.31069  0.23515   0.0391     0.03781  15.75862     17.67799   5219.78734   -16.81149  1.12785  3189.52939  0.00026  58864.69851  51.64805  17.23093  19.56465     58941.48 
    13.75114  1.94967  20.28785       4.55326         3473.14529  0.26242  0.04744     0.23867  14.16585     17.79731    7585.5154   -17.97442  0.86932  3019.97025  0.00035  58863.53558  51.59137  18.82482  19.56521  58942.56499 
    14.48334  1.55745  26.66596       4.92671         3515.00384   0.2975  0.05931     0.05727  12.25986     19.32436    4346.1726   -19.58457  1.52668  3041.84773  0.01172  58861.92543   51.5848   20.7199  19.56457      58941.4 
    13.81474  1.64674  19.49141       2.95351         3187.83262  0.29461  0.05124     0.01836  13.75452     16.61258   5294.33754   -22.74149  0.32904  3002.64064    2e-05  58858.76851  51.58379   21.0086  19.57019  58942.56499 
    13.44852  2.01454   29.0659        4.1004         3424.07667  0.24075   0.0412     0.15126  15.69971     18.07218   5660.31523   -17.41685  1.54248  3088.56317  0.00066  58864.09315  51.61979  17.62865   19.5672      58941.4 
    12.82758  1.73387  12.25956       2.00955         3687.62339  0.33304  0.05355     0.01966  12.63911     19.99329   6057.70906   -23.85055  1.11013  2838.62766   0.0547  58857.65945  51.52748  23.34215  19.59557      58941.4 
    12.85415  1.70741  28.80144       2.86921         3320.74398  0.32597  0.05179     0.13729  11.96797     17.90348   7145.66889    -21.4709  1.50757  2912.84656  0.00044   58860.0391  51.54498  22.58906  19.59139     58941.48 
    12.08021  1.60622  10.25451        3.2494         3581.11611  0.25724  0.04461     0.01594  14.92847     18.87313   4849.92188   -21.96786  0.68481  2687.12318  0.00415  58859.54214  51.49451  18.64875  19.56463     58943.42 
    13.32671  1.53454   26.0747       2.12043          3589.9218  0.24275  0.03486     0.07824  15.93206     16.68473    4922.0138   -20.67705  1.24138  2879.85543    3e-05  58860.83295  51.56028  17.82653  19.57719     58943.47 
    13.75631   1.6022  21.20285       3.72096         3349.36946  0.29821   0.0501     0.02002  12.92447     16.29637   8104.34179   -17.98605  0.32094  3084.71683    1e-05  58863.52395  51.60169  20.99676  19.55326      58941.4 
    12.21104  1.58569   21.0809       3.68622         3167.92073  0.18249  0.02819     0.48488  21.95017     17.08813   3803.34056   -22.11119  0.39369   2819.6474    7e-05  58859.39881   51.5685  14.24705  19.57083      58941.4 
    13.17519    1.823  24.37016       3.90601         3584.31904  0.28908  0.04763     0.13674  12.50159     18.03669   6124.90236   -14.97786  0.00814  3006.21172   0.0006  58866.53214  51.57632  20.21522  19.54713      58941.4 
    12.25836  1.43289  25.93412       3.19509         3461.36621  0.26443  0.04097     0.22495  14.57894     18.35583   5030.98534   -19.24253   1.4971  2877.46964  0.00126  58862.26747   51.5519  19.07911  19.57999  58942.56499 
    12.39889  1.59162  24.07925        3.0783         3320.86039  0.20507  0.03539     0.24007  19.62546     17.82113   4279.83587   -23.30767  1.43815  2912.43709  0.00037  58858.20233  51.58752  15.67779  19.59166  58942.56499 
    12.41061   1.7021  16.08652        4.2339         3487.55406  0.27695  0.04704     0.07594  13.50553     16.09926   5530.29299    -20.6615  1.13813  2895.94227    1e-05   58860.8485  51.55075  19.67601   19.5624      58941.4 
    12.49438  1.84967  29.33324       2.42987         3448.78772  0.36635  0.06431     0.11208  10.71788     18.08926   8894.77947   -19.87231  0.04518  3069.64041  0.00068  58861.63769  51.58041  24.80252  19.57062  58939.01491 
     13.2692  1.63882  18.43895       4.18983         3649.75776  0.17187   0.0305     0.06754    21.369     16.68322   5973.85373   -18.63306  0.58749  2765.53986    3e-05  58862.87694  51.54951  13.35144  19.58196     58943.42 
    12.52694  1.50906  28.18604       4.67384         3498.45469  0.30543  0.05146     0.02273  12.29191     17.94437   7252.26677   -19.48103  1.45935  2935.57224  0.00049  58862.02897  51.55415  21.28346  19.57336  58942.11922 
     12.7292  1.27143   23.2071        2.0888         3800.54347  0.31056  0.05144     0.41186  12.68391     19.18871   9044.73826   -22.11146  1.29297  2893.65602  0.00858  58859.39854  51.54448  21.78194  19.54854  58939.01491 
    12.05331  1.70793  27.60656       4.90677         3486.16558  0.25173  0.04573     0.15957  14.61711     17.17191   9374.64773    -17.8468  0.30716  3018.72562    8e-05   58863.6632  51.59375  18.17244  19.53928  58939.01491 
    12.75204  1.36174   11.7739       3.53754         3296.70388  0.28513  0.04511     0.13859  13.66879     17.08657   4264.93435   -19.45743  0.38336  2894.63457    7e-05  58862.05257  51.55142  20.30671   19.5738  58942.56499 
    13.72479  1.61596  27.21319       3.99677         3357.19061  0.23283  0.03541     0.03598  16.41442     16.41573   5810.52917   -20.55413  1.40014  2830.31086    1e-05  58860.95587  51.54775  17.19828  19.58164     58943.47 
    12.14207  1.56014  17.64851       4.24207         3617.86977  0.25914  0.04783     0.34185  14.69703     17.17285   7347.65493   -20.93531  1.53566  2824.73651    8e-05  58860.57469  51.53653  18.72794  19.54611  58939.01491 
    12.77874  1.79637  19.52339       4.46982         3736.93171  0.23272  0.03766     0.02815   15.3737     17.64036   5541.53442    -16.7921  0.18993  2652.87946  0.00024   58864.7179  51.48591  16.97007  19.55736  58942.56499 
    12.84728  1.81261  23.56517       4.75019          3645.8998  0.18046  0.02983     0.15393  19.63177     16.49973   8904.96648   -17.20058    1.259   2774.8396    2e-05  58864.30942  51.54551  13.79711  19.59289     58943.42 
    12.27214  1.57442   28.3678       4.38018         3675.39482  0.23676  0.04006     0.08143   15.6361     18.09964   4273.02307   -20.18218  0.45089  2714.63486   0.0007  58861.32782  51.50735  17.32248  19.56327      58941.4 
    13.55931  1.72802  27.08299       2.31754         3703.10257  0.18382  0.02794       0.083  21.04875     17.54708   6825.03169   -19.27297  0.24541  2895.44759   0.0002  58862.23703  51.58816  14.23918  19.57603      58941.4 
    12.72536  1.73296  24.76878       4.13948         3451.90753  0.19935   0.0302     0.10438  18.71907     16.13886   3265.70528   -18.34142  0.60259  2864.84959    1e-05  58863.16858  51.56931   15.1044  19.57432  58942.56499 
    13.51813  1.84114  28.36862        2.9516         3619.67127  0.12805  0.01761     0.48691  28.87516     16.45349   5295.35152   -18.74901  1.46232  2621.36129    2e-05  58862.76099  51.52668  10.50449  19.57026     58943.42 
    13.41945  1.72419  12.48702        4.2655         3521.30491  0.31292  0.05266     0.30316    11.976     18.00384   5531.26267   -20.67699  0.07144   2927.8613  0.00056  58860.83301  51.54951  21.68776   19.5825  58939.01491 
     13.2566  1.40163    26.854       4.32985         3651.24362  0.17744  0.02855     0.20044  20.67074     17.74791   9221.06066   -20.10881  0.25672  2630.90484  0.00031  58861.40119  51.50346  13.69826  19.57992  58942.11922 
    13.10615  1.54465   4.30331       4.32519         3607.44275   0.2243  0.03581     0.02258  16.65661      18.9945   4999.02361   -23.68095  0.03448  2483.10337  0.00549  58857.82905  51.43531  16.61617  19.57771     58941.48 
    13.92893  1.79898  22.57217       4.28794         3192.05594  0.22264  0.03693     0.02392  17.58345     18.67174   3964.77434   -23.12406  0.14896   2841.5752  0.00261  58858.38594  51.55701  16.66718  19.56032      58941.4 
     13.5749  1.79021   23.6644       3.99609         3337.95519  0.20873  0.03139     0.46042  17.94598     16.14793   3605.26216    -15.7993   1.1876  3123.21214    1e-05   58865.7107   51.6408   15.6873  19.56215  58939.01491 
    13.58331  1.69328  25.32324       4.53925         3423.90134  0.20345   0.0326      0.1557  18.72514     16.80415   5080.19956   -17.99516  0.69717  2975.15546    4e-05  58863.51484  51.60215  15.41555  19.55568  58942.56499 
    14.66218  1.21884  17.09018       3.91689         3125.43041  0.25524  0.04171     0.23976  14.32703     17.53698   4575.30949   -19.86668  0.61326  2824.48951  0.00019  58861.64332  51.53424   18.3515  19.58252     58941.48 
    13.77593  1.81915  28.00687        3.2801          3439.9421  0.23386  0.03898     0.02619  16.73982     18.77855   3285.78361   -21.73309  0.17007  2888.63864  0.00334  58859.77691  51.56713  17.34075  19.59158  58942.56499 
    12.76668  1.55392   8.41943       3.87234         3493.82437  0.25959  0.04296     0.44301  14.50509     17.23791   5896.17918   -19.43753  0.05651  2948.64624   0.0001  58862.07247  51.57268  18.71085  19.60509     58943.47 
    12.78511  1.93271  25.61721        3.0205         3686.30086  0.24174  0.03963     0.42803  15.53889     18.45064   5858.81245   -19.43022  0.77144  2732.99251  0.00157  58862.07978  51.51267  17.66521  19.58891  58939.01491 
    13.59837  1.41695  29.34294       4.92288         3442.82708  0.20074  0.03223     0.02516   18.4724     17.08601    8257.7171   -18.59887   0.4639  2792.16947    7e-05  58862.91113  51.54589  15.17088  19.57928  58942.11922 
    12.77365  1.67911  12.25373       4.64845         3481.82332   0.1787  0.03245     0.30482   21.0367     18.79608   6268.04153   -20.63284  0.92318  2919.80424  0.00347  58860.87716  51.59538  13.84112  19.52111  58939.01491 
     12.1763  1.57098  15.79809        4.9298          3631.8301  0.13961  0.02555     0.02834  27.01995     19.62594   4009.14781   -20.23522  0.46989  2731.00679  0.02348  58861.27478  51.55716  11.31907  19.55031  58942.56499 
    12.62348  1.87834  10.57066       4.52267         3442.08427  0.35006  0.06999     0.24848  11.04041      16.4552   4223.95596   -20.35653  1.23451  3125.84356    2e-05  58861.15347  51.59891  23.84989  19.55424      58941.4 
    12.34938  1.13152  27.30685       3.63331         3369.18237  0.30436  0.06248     0.04242  13.32673     18.06435   6485.85473   -27.99582  0.70524  2774.65437  0.00064  58853.51418  51.51241  21.56482  19.58113     58941.48 
    12.50522  1.69446  10.84076       3.23201         3525.52763  0.31541  0.05734     0.05908  12.18749     16.50736   5726.44837   -21.50264  1.53402  2983.64208    2e-05  58860.00736  51.56749  21.93999  19.56928  58942.56499 
    12.65531  1.57018  22.82037       4.68366         3489.94253  0.25613   0.0457     0.17736  14.70331      17.4642   6651.37053   -20.18947  0.52222  2783.15179  0.00016  58861.32053  51.52369  18.51204  19.58959     58943.42 
    12.77923  1.67579   6.05377       4.50611         3732.80838   0.2462  0.04037      0.2648  14.78577     18.34217   8328.47971    -21.8637  0.65666  2655.80547  0.00122   58859.6463  51.48349  17.81402  19.56162      58941.4 
    12.82149  1.64519  24.51949       4.96529         3532.27387   0.2227   0.0373     0.02241  16.57846     19.24672   3939.09555   -17.90116  0.01165  2849.49745  0.00981  58863.60884  51.55446  16.48198  19.58185  58945.22353 
    12.96433  1.59818  10.68757       3.52461         3110.56362  0.26114  0.03901     0.02381  14.80576      16.7005   4484.27034   -17.80918  1.36598  3039.94185    3e-05  58863.70082  51.60095  18.90037  19.58111  58942.56499 
    12.20046  1.75721  23.30147       3.34273         3186.32261   0.3012  0.04765     0.05955  13.01269     17.05695   8063.30559   -19.06219  0.63833  2944.18405    6e-05  58862.44781   51.5618  21.23715   19.5852  58942.11922 
    13.54819  1.45972  28.38766       3.34814         3334.73882   0.2145  0.03155     0.19647  17.78895     16.35972   5940.40073   -17.72435  0.45128  3008.78998    1e-05  58863.78565  51.60765  16.09407  19.57282     58943.47 
    13.50172  1.39064   23.5291       4.62752         3413.19023  0.27046  0.04584     0.06721  13.93386     17.89085   3445.79185   -16.19111  0.92962  3104.21395  0.00043  58865.31889  51.61382  19.33694   19.5659      58941.4 
    12.66132  1.89134   15.1249       4.64093         3358.02359  0.30479  0.04679     0.19699  12.45924     19.45455   5598.84304   -16.00381  1.25026  2968.20418  0.01582  58865.50619  51.56497  21.29834  19.54705      58941.4 
    12.28482  1.39986  18.56624       4.02362         3378.97577   0.2255  0.03753     0.29604  16.82969     16.40295   5990.67594   -18.70358  1.06721  2928.85694    1e-05  58862.80642  51.57959  16.73817  19.57122     58943.42 
    12.62925  1.81372   23.8935       3.78961         3493.55803  0.28072  0.04569     0.03036  13.27861     18.95839   6158.84409    -17.7916  1.30198  2841.00422  0.00505   58863.7184  51.53261  19.87551  19.56607  58942.56499 
    14.48059  1.36505  22.73743       3.95364         3355.31387  0.23411  0.04252      0.1394  15.67636     16.38413   6616.25699   -19.52993   0.7366  3062.58113    1e-05  58861.98007  51.61232  17.13696  19.57517     58943.47 
    12.15426  1.63057  29.54338       3.59262         3602.40015  0.27863  0.04444     0.05812  13.41327      19.1944   4692.49904   -17.01211  0.19045  2872.90468  0.00869  58864.49789   51.5432  19.76822  19.57324     58943.42 
    13.03012  1.89748  29.34575       3.85716         3260.22627  0.20889  0.03429     0.19322  18.55666     19.17473   4902.32807   -20.36025  1.35394  2868.18719  0.00831  58861.14975   51.5696  15.80055  19.53905      58941.4 
    12.51848   1.7269  12.48108       4.21377         3023.15429   0.2259  0.03881     0.04003  18.12607     17.18673   5364.39662   -22.18839  1.09121  3145.57187    9e-05  58859.32161  51.64783  17.01064  19.55716      58941.4 
    12.18201  1.92166  28.81454       4.75732         3323.07373  0.27552  0.04435     0.02856  13.91603     19.59046   6385.79171     -19.888  0.06346   2878.2441  0.02164    58861.622  51.54806  19.69387  19.59396      58941.4 
    12.06778   1.7342  26.10127       4.03372          3416.5353  0.27749  0.04687     0.32994  13.45325     17.74391   9244.99229   -17.73401  0.13451  3001.01444  0.00031  58863.77599  51.58136  19.69929  19.56183      58941.4 
    12.18068  2.00455   9.96815       2.18086         3602.52526  0.20708  0.03281     0.24661   18.4009     16.27436   6055.90096   -19.31535   1.5109   2906.9516    1e-05  58862.19465  51.58056  15.63843  19.56256  58939.01491 
    12.65272  1.66382  18.32134       2.23107         3837.17841  0.23535  0.03337     0.38958  15.99819     16.17766   6614.31157   -21.00197  1.14102  2680.83217    1e-05  58860.50803  51.49843  17.29708  19.54407      58941.4 
    12.52331  1.65475    9.4044       4.02025         3483.49344  0.31609  0.05799     0.12123  12.18248     16.94204   4327.79864   -20.13526  0.04174  2886.65988    5e-05  58861.37474  51.53875  21.98588  19.58757  58942.11922 
    13.53416  1.98679  13.29107       4.67583         3397.86785  0.23031  0.04384     0.18809  16.95552     17.75529   3902.08684   -22.79735  0.09752   2710.4653  0.00032  58858.71265  51.51291   17.1207  19.60647     58943.47 
    12.29496   1.8857  12.68667        2.4613         3781.02336  0.14584  0.02444     0.45792  26.52423     16.31001   7008.03443   -19.47905  0.80902  3012.77646    1e-05  58862.03095  51.64101  11.78511  19.53649     58941.48 
    12.99762  1.77132  28.85415       4.39895         3370.95233  0.24543  0.04205     0.04222  15.38444     19.04129   6796.13801   -19.86587  0.50872  2751.24887  0.00611  58861.64413  51.51759   17.8988  19.59728  58945.22353 
    12.58686  1.68868  14.15653       3.90675         3056.37303  0.20305  0.03275     0.25526   19.6785     16.25209   8992.93434    -20.7134  0.05307   2945.5888    1e-05   58860.7966  51.59758  15.53133   19.5578     58941.48 
    12.04076   1.9601  10.93766        3.1955         3532.68077  0.14925  0.02474     0.02245  25.15236      17.6456   3543.90334   -18.57752  0.13665  2982.28182  0.00025  58862.93248  51.62803  11.94547   19.5631      58941.4 
    13.85192  1.77457  22.04703       4.23913         3358.55231  0.32673  0.05285     0.02029  11.55038     18.17428   7641.45959   -17.55379  0.58185  3052.63402  0.00083  58863.95621  51.58247  22.47401  19.57954  58942.56499 
    12.04752   1.5431  29.73695        4.7623         3448.03543  0.13922  0.02449     0.03343  27.37966     17.86712   3320.01783   -22.22405  0.49786  2708.40802  0.00041  58859.28595  51.55097  11.31388  19.56451  58939.01491 
     14.4784  1.31731  24.74073         2.837         3489.78368  0.31903  0.05861     0.11163  12.09954     17.47397   6507.27787    -21.7849  0.01401   3025.3788  0.00017   58859.7251   51.5789  22.15854   19.5858     58943.47 
      14.536  1.63549  15.23348       3.81716         3604.49766  0.22838   0.0406     0.05502   15.9611     16.88674   4142.04445   -20.16468  0.09671  2904.61236    4e-05  58861.34532  51.56787  16.77726  19.57173     58943.47 
    12.72411  1.80658  22.28652       4.17221         3510.35286  0.20774  0.03003     0.09676  17.83869     16.36733   7950.99616   -21.04433  0.09025  2573.09471    1e-05  58860.46567  51.47201  15.59509  19.54038  58939.01491 
    12.33561  1.76612    9.6973       3.55846          3291.9931  0.23266  0.03965     0.01166  16.67394     16.27483   8761.80456   -19.42373   0.9015   3008.4876    1e-05  58862.08627  51.60211  17.23842  19.56524  58942.11922 
     12.4869  1.68519  28.21032       3.55221         3534.63729  0.28201   0.0526     0.02539  13.79626     17.06621   4117.64168   -24.02196  0.78704  2886.99398    6e-05  58857.48804  51.54994  20.12286  19.56345  58942.11922 
