 texplosion  fnickel    Pspin  log(Bfield)      Mns  thetaPB   mejecta    kappa  kappagamma      vejecta  temperature    alpha  cutoff_wavelength  log(nhhost)      A_V         MJD0   kenergy  mnickel            TSD   log(L0)  Peak_mag     Peak_MJD  log(E_rad)  log(Peak_lum)  Rise_Time    E_fold  tau_1  delta_m15     r_peak     frac 
  -15.27593  0.00748  0.94415     15.15582   1.8292  0.27752  17.07862    0.053     0.01087  12971.26377    7350.5755  2.24273         4705.12442     16.20024    1e-05  53417.02407  17.14133  0.12778      738.79649   49.7125  18.42549      53438.5    50.90236       44.43312    9.24494  27.73482   25.5    0.50017  -20.86372  0.99986 
  -13.38911  0.03583  3.28805     14.49033  1.68099  1.04458  13.05885  0.01757     0.03221   3836.10407     5942.961  4.63615         4971.96918      17.7356   0.0003  53418.91089   1.14634  0.46791   176440.39195  46.21394  18.52747  53442.23973    50.85356       44.24045   13.35819  29.16852   28.0    0.43559  -21.61418  0.97332 
  -14.88691  0.01377   3.1677      14.8241  1.75319  0.39692  13.88328  0.01579     0.01022    3358.8389   3105.57009  4.25795         5228.75688     17.59624  0.00022  53417.41309   0.93432   0.1912    36723.25873  46.94624  18.34946      53441.3    50.74087       44.27479   15.90855  22.44389   29.5    0.40241  -21.62932  0.99031 
     -8.343  0.00499  2.76214     14.53907  1.59997  1.30352   11.8059  0.02315      0.1379   6249.78316   4178.21656  4.76505         4853.55028     16.38837    1e-05    53423.957   2.75078  0.05897    94682.99098  46.61419  18.35014  53442.23973     50.7481       44.27623   12.21058  24.31421   22.0    0.60878  -22.00863  0.99757 
   -9.26056  0.02124  2.35644     14.62985  1.72343  0.94672   19.9711  0.01297     0.07297   5107.73486   6495.10765  3.66194         4784.73473     16.05065    1e-05  53423.03944   3.10803  0.42416    48868.72769  47.07169  18.52075      53438.5    50.85015       44.27882   11.09393  23.26505   25.0     0.5076  -21.86113  0.98932 
   -6.93249  0.42876  1.61058     15.15052  1.77235  0.38763   6.91837  0.07924      0.0107  11724.46627   4628.46601  4.20611         5418.44905     17.19037    9e-05  53425.36751   5.67306  2.96631     2134.50293  48.77413  18.34838      53441.3    50.91431       44.37682   12.57889  23.92456   22.5    0.57955  -22.88503   0.9863 
   -5.80528  0.02049  1.98878     14.77587  1.62225  0.66094   8.52545  0.02499     0.01522   4285.21646   3940.98662  4.35249         5164.67091     19.58879  0.02155  53426.49472   0.93388  0.17466     16724.8151  47.65843  18.42363  53442.23973    50.79765       44.27005   18.48988  25.68599   23.0    0.52998  -22.09015  0.99714 
   -9.28216   0.0634  2.33742      14.6295  1.42251  0.67286  11.70296  0.02739     0.41757   6486.62127   5497.00862  4.28541         4716.30664     16.39798    1e-05  53423.01784   2.93738  0.74201    39749.86163  47.08509  18.47354      53439.4    50.83546       44.34897   11.09822  25.88153   25.0    0.54173  -21.92413  0.97469 
  -12.64378  0.11548  2.16757     14.93791  1.55359  0.29916   6.71649  0.11783     0.01854  10413.46003   8320.81486  3.92647         5021.31551     16.81874    4e-05  53419.65622    4.3447  0.77564     9021.40504  47.83296  18.43192  53442.23973    50.87742       44.34731    14.7919  25.88583   28.5    0.41609  -21.63763  0.97976 
   -2.60696  0.00704  0.78696     15.03871  1.45884  0.38632  22.64295  0.03463      0.3832  13458.74459   9822.04361  4.85701         5074.26347     18.35659  0.00126  53429.69304  24.46636  0.15948      701.93869  49.79465  18.41657      53440.4    50.72861       44.31058   10.72991  21.58666   23.0    0.50593  -22.24194  0.99992 
   -10.7875  0.04266  2.23274     14.30535  1.26895  1.53961   7.57117  0.06025     0.09096    8072.1463   3675.16268  3.99157         4843.38567     17.81805  0.00037   53421.5125   2.94285  0.32296   143957.79682  46.51638  18.38885  53442.23973    50.77825       44.29739   12.94291  23.58188   26.0    0.47651  -21.73517  0.98742 
   -7.74096  0.03291  0.90385     14.66466  1.73016   1.5591   6.57549  0.04514     0.01002   4386.24549   6851.62978  4.48281         4885.16117     20.00411  0.05608  53424.55904   0.75464  0.21637     6148.58111  48.80597  18.43792  53442.23973    50.82387       44.31581    14.7919  22.18785   26.5    0.39442  -21.85463  0.99986 
   -5.62752  0.02544  0.72274     14.89905  2.03272   1.0411  35.62215  0.01052     0.17426   8739.63882   5143.85027  2.87321         4979.83869     17.55207   0.0002  53426.67248  16.23059  0.90637     1569.48872   49.6632  18.40596      53440.4     50.8198       44.32862    7.40024  24.03255   23.0     0.5667  -21.94193  0.99989 
  -12.78156  0.00614   2.4153     14.91398  1.82701   0.4476  14.32252  0.01691     0.15899   3791.97123   4523.46496  4.30623         5318.94597     18.74448  0.00308  53419.51844    1.2285  0.08795    14707.72283   47.5971   18.4457      53441.3    50.75807       44.26368   13.35819  23.62156   27.0    0.44486   -21.5641  0.99781 
  -15.28077  0.08202  3.94175     14.37399  1.59441  1.30977   8.08572  0.03342     0.32392   5354.67288   8031.37253   4.9365         5011.14731     17.98162  0.00053  53417.01923   1.38297  0.66321   410962.68202  45.66626  18.38992      53440.4    50.72881       44.30997    8.88092  22.55187   27.5    0.47826  -21.67165  0.94224 
   -5.64171  0.01912  0.93912     14.71969  1.72206  1.16927  15.99374  0.01558     0.08636    4543.4485   8313.43815  3.89383         5043.31746     18.39806  0.00139  53426.65829   1.96947  0.30574     5127.65894  48.84953  18.40767  53442.23973     50.7543       44.25441    14.7919  23.58188   24.0    0.46256  -22.01625  0.99978 
   -7.08858  0.00431  2.56526     14.56988  1.55429  0.98066   9.46508  0.02393     0.16273   4941.59381    8277.1779  4.40844         4914.15395     19.56567  0.02044  53425.21142   1.37875  0.04081    68840.13037  46.80427  18.39054      53441.3    50.73798       44.30571    8.88092  23.92456   23.0    0.56927  -22.02037  0.99849 
   -6.38009  0.01168  0.93442     14.74947  1.90598  1.38614  24.49143  0.02014     0.28373   8095.72068   7311.05168  3.91352          4995.3189     20.03871  0.06073  53425.91991    9.5753    0.286     4898.63402   48.9178  18.46209  53442.23973    50.74306       44.28862   12.94291  22.18785   26.0    0.42403  -21.78678  0.99985 
   -8.76183  0.18445  1.26326     15.14719  1.69451  0.33666    8.0212  0.04229     0.08175    5755.2182   8250.28288  4.73437         5228.47862     16.28341    1e-05  53423.53817   1.58486  1.47951     1274.86046  49.18944  18.53505  53442.23973    50.96264       44.44015   15.90855  24.31421   26.5     0.4347  -22.11655  0.99641 
  -12.33063  0.02326  2.24679      14.9053  1.58952  0.34956    5.1128  0.04745     0.02972   4821.72232   9220.59138   3.3319         4949.92824     18.98156  0.00532  53419.96937   0.70907  0.11894    11524.18765  47.70538  18.38241      53441.3    50.85018       44.34755    8.17955  24.62594   25.5    0.50583  -21.49372  0.99675 
      -9.74  0.01401  3.24314     15.06251   1.9422  0.33186   8.49918  0.03867     0.02164    7445.0006   9334.10754  3.32507         5001.18081     18.04745  0.00062     53422.56   2.81018  0.11907    14223.88274  47.38219  18.42119  53442.23973    50.72633       44.24849   12.21058  22.44389   23.5    0.57842  -21.92087  0.99472 
   -4.08383  0.01962  0.81453     14.72553  1.67127  1.15248  19.86463  0.02713     0.09656   9381.60498     3225.253  3.82846          4797.9732     16.20662    1e-05  53428.21617  10.42946   0.3897     3644.32135  49.10846  18.34121  53442.23973    50.90151       44.38915    9.66022  25.01559   24.0    0.52689   -22.0613  0.99984 
  -10.09305  0.00392   2.3138     14.66692  1.69739  0.83817  19.08946  0.01111     0.19693   3391.92262   4884.66298  4.94796         5054.78884     19.72381  0.02941  53422.20695   1.31012   0.0749    39120.79339  47.17757  18.46988      53437.5    50.70722       44.21159   11.09822  27.27556   26.0    0.44117    -21.826  0.99815 
   -8.97065  0.00336  1.41584     14.87006  1.90774  0.64566   4.19549  0.08681     0.01106   6915.75572   9309.63826  3.05568         5034.70039     19.74887  0.03116  53423.32935   1.19699  0.01411     6460.14585  48.43709  18.37738  53439.86711    50.75999       44.24473   18.48988  24.03684   23.5    0.46941   -22.3192  0.99995 
   -6.69035  0.00678  1.07266     14.74293  1.74428  1.03615   7.37407  0.12072     0.02987  12401.06031   8318.99024  4.89799         4789.69423     18.26874  0.00103  53425.60965   6.76475  0.04998     6088.40369  48.66503   18.5137      53441.3    50.81772       44.32912   12.57889  24.40086   26.0    0.48856  -21.94074  0.99994 
  -12.74608  0.00851  4.49303      14.6255  1.96869  0.82215   4.19218   0.0548     0.01495   5660.21707   9910.66712  3.87354         4886.06417     17.74555  0.00031  53419.55392   0.80119  0.03568   207049.34849  45.94187  18.40479      53440.4    50.80073       44.30008   16.27687  23.92456   24.5    0.58841  -21.72899  0.99689 
  -17.93078  0.06032  6.05273     14.26987  1.98612  1.11896   2.47713  0.08748     0.03623   8506.68367   5555.37378  4.40843         4689.38876      16.7294    3e-05  53414.36922   1.06929  0.14942  1949743.08109  44.71297  18.47626      53440.4    50.78098       44.27665    8.17955  24.62594   29.0    0.55079  -21.81343   0.9766 
    -8.7737  0.00396   1.5414     15.07517  1.77617  0.34866  10.17373  0.05001     0.01222   8416.91764   4989.81059  4.01036         4475.20025     19.29179  0.01088   53423.5263   4.29946  0.04029     2772.01644  48.69971  18.36316  53439.86711    50.74176       44.30018   10.02853  24.62594   26.0    0.42135  -21.85445  0.99975 
  -11.72653  0.05486  2.99532     14.30818  1.41612  1.50175   7.38294   0.0535     0.31003   8426.83323   6564.67008  4.21226         4537.04372     20.21188  0.09049  53420.57347   3.12741    0.405   285389.17372  46.01162  18.37579      53441.3    50.75486       44.29161   10.72991  23.92456   25.0    0.54869  -21.76963  0.97508 
   -9.36152  0.00907  3.58256     14.57775  1.80549  1.13072   7.24922  0.03087     0.01735   5420.75004   6179.59275  4.67249         5257.77129     16.17897    1e-05  53422.93848   1.27068  0.06572   150419.49841  46.23975  18.44292      53441.3     50.9301       44.52095    7.39595  22.18785   21.5    0.65207  -22.23294  0.99595 
  -11.96379  0.12309  4.42378     14.67345  1.97232  0.44151   4.44482  0.04246     0.12555   6628.77769   6194.36567  4.07461         4984.14748     20.92447  0.46687  53420.33621   1.16506  0.54711   161240.50533  46.06476  18.33549      53440.4    50.92023       44.47741   11.09822  22.18356   24.0    0.65217  -22.48907  0.95539 
   -8.18607  0.00311  2.09249     14.57003  1.78084  1.40702  20.53798   0.0216     0.02996    6476.1926   5803.23723  4.72653         4822.48005     19.48549  0.01699  53424.11393   5.13836  0.06395    52446.14075  47.15843  18.43383  53439.86711    50.79715       44.30428   13.72651  22.48145   26.5     0.4146  -22.02245  0.99889 
   -6.78909  0.00949   1.0469     14.66536  1.52622  0.91369  11.00571  0.02291     0.01453   3774.14292   8273.44242  4.85138         5171.01505     19.76374  0.03225  53425.51091   0.93515  0.10449      7253.0415  48.55213  18.46208  53442.23973    50.83561       44.32854   11.50921  25.01559   25.5    0.44059  -22.04035  0.99981 
   -7.93387  0.00752  0.82483     14.57708  1.51182  1.50579  16.05525  0.02038     0.03611   4746.62365   4676.55372  4.59794          4758.4782     18.54846  0.00196  53424.36613   2.15781  0.12066     6697.01591  48.78973  18.38437      53439.4    50.78544       44.30121   13.72651  23.25325   27.5    0.34693  -23.51441  0.99992 
  -12.41772  0.00359  3.07781     14.59901  1.69826  0.78128  18.29283   0.0157     0.03994   5079.83807   6958.52459  4.62275         5080.38063     20.21475  0.09109  53419.88228   2.81584  0.06575     94684.3398  46.54609   18.4261      53441.3    50.76371       44.24078   15.20718  25.01559   26.0    0.47598  -21.77928  0.99672 
   -5.99919  0.00213  1.42952     14.58085  1.62518  1.42603   4.19404  0.07628     0.03927   5478.22935    7236.1292  4.03538         5126.42347     17.20871    9e-05  53426.30081   0.75083  0.00893    21252.13798  47.84196  18.39046      53439.4    50.80445       44.27795    15.5755  25.10223   24.5    0.44692  -22.29375  0.99995 
  -15.28256  0.00961  5.11294     14.02141  1.65577  1.34498   2.37296  0.06498     0.02949   8799.52208   5192.62894  4.25711         5597.57811     16.44056    2e-05  53417.01744   1.09606  0.02281  3641991.42416  44.50916   18.4505  53439.86711    50.77863        44.3345    9.24494  23.26505   27.5    0.60697  -22.35994  0.99655 
   -9.73218  0.02664   1.4433     14.70619  1.79926  0.99076   8.87791  0.05807     0.09089   8636.19614   8894.05278  3.43448         4816.29336     16.96622    5e-05  53422.56782   3.94987   0.2365    13466.22658  48.07598  18.40365      53441.3    50.84813       44.26736   13.35819  25.47055   25.0    0.47937  -21.64498  0.99893 
   -8.47979  0.00864  0.88851     14.60687   1.6415  1.54633   13.2636  0.07791     0.02879  14096.21734   6771.34372  3.98888         5150.15037     17.86608  0.00041  53423.82021   15.7215  0.11453     7355.76231  48.72014  18.42928      53440.4    50.84563       44.39199    9.24494  25.88583   26.0    0.46756  -22.84284  0.99991 
  -10.67477  0.02461  2.35331     14.73896  1.70227  0.65244  16.05243  0.02161     0.22853   6426.17395   4867.91225  4.20158         4619.70739     18.86041  0.00403  53421.62523   3.95433  0.39512    29125.76816  47.29224  18.50783  53437.49449    50.84547       44.28877   11.09393  30.54452   25.5    0.50414  -21.65324  0.98975 
  -13.18497  0.02247  4.29699     14.42272  1.68163  0.99097   7.87124   0.0363     0.32011   7178.23877   4914.55508  4.15312         4969.52949     17.29012  0.00011  53419.11503   2.41939  0.17688   411570.68846   45.6138  18.32957      53440.4    50.80892       44.35865   12.57889  22.55187   24.5    0.58595  -21.88856  0.98231 
   -5.24765  0.00247  1.15542     14.69744  1.53547  0.96072   9.39885  0.01687     0.01579   3346.84228   7565.72926   4.5532         4783.85921     16.75534    3e-05  53427.05235   0.62802  0.02324     7667.62023  48.44495   18.4626  53439.86711    50.74479       44.23668   14.42788  24.40086   22.0    0.52871  -21.88633  0.99995 
   -7.86472  0.00329  1.71326     14.92963  1.85662  0.54233  11.83423  0.04003     0.30653   7936.36397   7946.77363  4.10072         5433.80009     17.91905  0.00046  53424.43528   4.44642  0.03889     6997.21239    48.225  18.56653      53441.3    50.88151       44.38085   14.05957  25.72989   25.0    0.53369  -22.21654   0.9997 
   -7.23557  0.00213  1.49469      14.6203  1.77519   1.5385  21.21588  0.02885     0.01901   8636.97256     6439.252  4.82843         4711.00952     19.80743  0.03566  53425.06443   9.44085  0.04512    21162.46938  47.84342  18.39323      53441.3    51.18841       44.76287   10.02853  22.47779   27.5    0.39107  -21.96693  0.99976 
   -6.84144  0.00839  0.77999     14.71398  1.73541  1.38508   4.35107  0.10556     0.20775    6773.0691   9955.94858  4.91367         4932.49713     16.30256    1e-05  53425.45856   1.19068   0.0365     3659.62752  49.16063  18.40449      53440.4    50.78929       44.28867   14.42788  25.79489   26.5     0.4933  -21.73072  0.99999 
   -6.53542   0.0035  0.95584     14.91061  1.82289  0.68111  24.26813  0.03687     0.05532  13296.33683    9594.0121  4.16505         4951.63472     16.84543    4e-05  53425.76458  25.59337    0.085     2334.16819  49.20071  18.35955      53440.4    50.94493       44.45659   11.09393  26.84655   24.5    0.41365   -22.3919  0.99994 
   -4.84248  0.00134  1.00233     15.11174  1.72629  0.37718   6.03348  0.06104     0.32244    6300.8304   8638.59374  4.82711         5039.09689     20.33642  0.12054  53427.45752   1.42886  0.00807      962.64864  49.52047  18.40257      53439.4    50.72101       44.25245    8.17955  26.95122   24.0    0.51757  -21.96731  0.99999 
  -12.92946  0.04512  4.10805     14.55969  1.89053  0.94672   6.73032  0.04519     0.06915   8035.54587   4996.31163  3.28876         4918.33358     16.74165    3e-05  53419.37054   2.59235   0.3037   225052.16043  45.96588  18.40239      53440.4    50.94444       44.53438    9.67414  22.75561   24.0    0.61902  -21.77246    0.977 
   -6.86735  0.02169  1.48234     14.62009  1.83752  1.30995  19.51616   0.0346     0.01332   9676.30942   6229.84624   4.6802         4736.23993     20.55053  0.19736  53425.43265  10.90036  0.42332    21565.57107  47.85742  18.40121  53442.23973    50.76871       44.31705     7.5336  23.56054   27.0    0.41055  -22.08516  0.99774 
   -7.08398  0.02399   1.1654     14.55056  1.44725  1.04447  23.38026  0.01822     0.46586     6236.525   5202.26607  4.70598         4955.95832     20.35581  0.12605  53425.21602   5.42453  0.56099    14460.96556  48.13624  18.46953      53441.3    50.81356       44.29741    14.7919  25.43087   27.0    0.37411  -22.25879  0.99788 
   -9.99069   0.0024  1.57062     14.53002  1.56541  1.19788   5.32994  0.06924     0.02823   5722.35131    6565.9737  4.04606         5020.47609     18.25746  0.00101  53422.30931   1.04111  0.01279    31228.61775  47.57678     18.46      53441.3    50.76086       44.28641   12.57889  24.40086   26.5    0.45407  -21.75219  0.99988 
    -8.6092  0.00523  2.53193     14.68101  1.74006  0.80629   21.0337  0.01312     0.22618   6158.44225   7768.21801   4.1262         5037.55379     20.30725  0.11271   53423.6908   4.75866     0.11    45005.19666  47.04924  18.33884  53442.23973    50.76898       44.34533   12.21058   21.0712   22.5    0.59852  -22.21715  0.99671 
   -6.09258  0.14393  2.76435     14.66993  2.10383  1.39053   5.77491  0.04884     0.22083   6446.60207   6012.56584  4.54712         5163.76705     20.68466  0.26878  53426.20742   1.43164  0.83119    68257.92968  46.87452  18.49797      53440.4    50.87294       44.48058    7.39595  22.18785   22.5    0.62285  -22.47004  0.97863 
   -8.60436  0.01602   2.4674     14.81053  1.63324  0.53065   9.79772  0.04365     0.04028   8267.38274   7984.95256  4.63336         4618.93302     18.79211  0.00344  53423.69564   3.99474  0.15696    22094.26844  47.35314  18.39181      53439.4    50.77567       44.32985    9.24494  24.03684   23.5    0.52006   -21.9824  0.99514 
    -7.8099  0.00507  2.33829     14.57706  1.65529  1.30279  21.53055  0.01484     0.02274   6015.58457   7711.48081  4.99071         4690.72307     16.47923    2e-05   53424.4901    4.6477  0.10913    58933.35625  46.97956  18.47455      53441.3    51.00852       44.50069   14.05957  24.31421   24.0    0.47553  -21.90644  0.99724 
   -6.15939  0.00255  1.93545     14.71731  2.02098  1.43618   7.78978  0.03117     0.11549   4497.68893   7498.67063  4.05469         4797.49658     16.90304    4e-05  53426.14061   0.94001  0.01986    25841.61624  47.58852  18.37424  53442.23973    50.78282        44.3362   11.50921  21.77257   24.5    0.54509   -21.9204  0.99982 
   -5.32597  0.00826  1.56979     14.69114  1.55289  0.70915   5.70996  0.05365     0.09353   6921.39583   9291.08686  4.14383         5167.88187     20.65689  0.25213  53426.97403   1.63173  0.04717    14735.14126  47.89995   18.4533      53440.4    50.88046       44.41312   11.09393  25.88583   21.5    0.60224  -22.39809  0.99955 
    -5.0932  0.15302  0.86941     14.96146  1.77302  0.67233   4.51619  0.09769     0.04823   7845.43776   7620.43465  4.58766         4870.74002     18.18013  0.00084   53427.2068   1.65819  0.69105     1486.13291  49.46705  18.37158  53439.86711    50.74634       44.30843   10.02853  23.25325   25.0    0.48265  -22.08832  0.99974 
