 texplosion  fnickel    Pspin  log(Bfield)      Mns  thetaPB   mejecta    kappa  kappagamma      vejecta  temperature    alpha  cutoff_wavelength  log(nhhost)      A_V         MJD0  kenergy  mnickel             TSD   log(L0)  Peak_mag     Peak_MJD  log(E_rad)  log(Peak_lum)  Rise_Time    E_fold  tau_1  delta_m15     r_peak     frac 
  -17.62256  0.02027  2.98707      13.7387   1.7431  0.98306  20.79124  0.03807     0.30178    5656.4138   8536.25243  2.75889         2857.08809     18.90419  0.00446  57337.53744  3.96817  0.42148   4810865.64028  44.87745    21.944  57438.80324    51.39458       44.39921   46.39085  69.58627   95.5    0.08853  -21.56468  0.97971 
  -21.04172  0.10383  3.13509     13.85758  1.83388  0.68064   7.57496  0.12824     0.24442   7737.56937   9345.49978  1.24209         3280.36999     19.04721  0.00619  57334.11828  2.70531  0.78651   3225031.71685  45.03118  22.04025  57441.62277    51.39098        44.3877   48.96812  72.16354   78.5    0.09487  -21.72053  0.96165 
   -23.0726  0.00629   2.8729      13.8474  1.81566  0.81968  14.92234  0.06938     0.12622   4991.88412   9177.11486  2.17392          3243.2477     19.07289  0.00657   57332.0874  2.21816  0.09386   2809872.91592  45.16255  22.04273  57433.16417     51.3405       44.35048   43.81358  72.16354   85.0    0.07924  -21.59077  0.99605 
  -20.19667  0.03094  2.22373     14.04581  1.43549  0.25766   6.91936  0.17192      0.0581   7591.28065   9465.92876  1.09173         3450.99979     20.14339  0.07729  57334.96333  2.37861  0.21412     533779.9313  46.00432  21.99145  57435.98371    51.36161       44.39582   45.10221  69.58627   69.5    0.08952  -21.93061  0.99223 
  -17.98723  0.05785   2.9128     13.79766  1.81873  0.98799   12.1177  0.08597     0.18826    5726.5157   9050.16226  2.23942         3027.02241     18.47203  0.00165  57337.17277  2.37044  0.70103    3638204.0805  45.03911  22.06381  57435.98371    51.40126       44.42001   47.67948  69.58627   82.5    0.08318  -21.64249  0.97054 
  -20.14608  0.01433  2.57314     13.56231  1.51296  1.43683   6.81928  0.18757     0.37172   8061.61081   9020.36972  1.44643         2947.76692     17.97646  0.00053  57335.01392  2.64368  0.09769   6981557.62348   44.7838  22.21557  57424.70558    51.33502       44.36912    37.3704  76.02944   74.0      0.096  -21.77161  0.99562 
  -22.55718   0.0118  2.92215     14.22569  1.52723  0.19779   10.0011  0.05813      0.3142   6113.50391   9170.19486  1.73127         3223.25795     17.25408   0.0001  57332.60282  2.22975  0.11797     428299.7565   45.8896  21.99526  57450.08137    51.42314       44.40883   55.41129  74.74081   99.5    0.09437  -21.46934   0.9931 
  -14.86729  0.07776  2.90059     13.97162  1.68743  0.50982   5.56652  0.14127     0.16483   6345.02161   9839.07214  1.95039         3300.53822     17.18493    9e-05  57340.29271  1.33683  0.43284   1502359.00208  45.39432   21.9452  57441.62277     51.4277       44.43725   50.25675  68.29763   75.0    0.10804  -21.69786  0.97949 
  -18.45299  0.08084  2.87835     13.64398  1.72031  1.35938   5.62089  0.23964     0.34747   9368.34941   8178.78587  1.86504         2709.26111     16.29577    1e-05  57336.70701  2.94278  0.45438    6819395.9098  44.75242   21.9982  57435.98371    51.38404       44.40986   46.39085    67.009   76.5    0.10687  -21.85088  0.97927 
  -16.54571  0.04403  2.24557     13.57365  1.37677  1.36958  21.49117  0.04384     0.16042   4638.05701   9500.71085  2.64389         3138.29216     19.99843  0.05536  57338.61429  2.75778  0.94621   4592255.95307  45.04303  22.07311  57435.98371    51.36361       44.40098   45.10221  68.29763   83.0    0.08287  -21.63813  0.96463 
  -20.15751  0.03826   2.5064     13.72791  1.41251  0.67611  16.39253  0.04073     0.27122   4526.21998   9197.53288  1.78253          3418.6364     16.49012    2e-05  57335.00249  2.00329  0.62726   2884597.35399  45.16065  21.96279   57444.4423     51.4257       44.38004   52.83402  79.89535   98.0    0.08374  -21.50414  0.97118 
  -19.10533  0.05094  3.08568     14.02269  1.79778   0.4837  21.01391  0.03447     0.11846   4972.81822   8719.50416  2.63622         2953.18255     17.29925  0.00011  57336.05467  3.09984  1.07039   1431769.81924  45.38901  22.06288  57441.62277    51.35582          44.36   48.96812  69.58627  100.5    0.08546   -21.5088  0.94922 
  -25.98007  0.00481   3.0059     13.94609  1.97535  0.69905  18.77297  0.06734     0.22578    5521.0708   8905.44904  1.44284         3293.56059     18.52062  0.00184  57329.17993  3.41355  0.09036   2124401.24472   45.2813  22.00816  57447.26184    51.40893       44.40512   50.25675  72.16354   83.5    0.07632  -21.59119  0.99633 
  -18.51818  0.17093  3.19076     13.80843  1.77114  0.83178   12.1129  0.05742       0.212   6451.72816   9395.65986  1.04798         3541.77336     17.61082  0.00023  57336.64182  3.00765   2.0705   4045674.19666  44.90232  21.94084  57438.80324    51.42854       44.44359   45.10221  68.29763   88.5    0.09481  -21.59179  0.89783 
  -18.60595  0.02905  2.93227     13.76416   1.7042  0.91323  22.18814  0.03955      0.1514   5476.73046    9015.5011  2.58668         3074.23095      17.8432  0.00039  57336.55405     3.97  0.64456   4031160.41097  44.96053  22.18978  57430.34464    51.37644       44.39885   46.39085  73.45217   87.5    0.08997  -21.59246  0.96952 
  -15.99643  0.13968  3.18547     13.76046  1.79936  0.76531   7.67825  0.08043     0.09022   6952.05294   8112.95293   2.6097         2789.25235     16.59732    2e-05  57339.16357  2.21368  1.07248   5109315.49979  44.80925   22.0591  57438.80324    51.39056       44.42957   45.10221    67.009  108.0    0.09157   -21.6057  0.94443 
   -17.8994  0.00591  2.93187     13.74833  1.77825  1.27338   9.66171  0.09994     0.22867   5975.14132   9946.82589  1.98023         3239.72226     18.00286  0.00056   57337.2606  2.05768  0.05712   4523171.15712  44.92911  22.07711  57435.98371    51.34527       44.33315   45.10221  78.60671   70.5    0.09452  -21.65013  0.99742 
  -19.90307  0.00499  3.14256      13.8151  1.87553  0.88084  11.13285  0.06458     0.16361   5023.67226   9054.42396  2.24282         3235.86957     18.92407  0.00466  57335.25693  1.67601  0.05554   4029952.20535   44.9421  22.02564  57438.80324    51.39225       44.40433   50.25675  69.58627   93.5    0.08958  -21.54842   0.9973 
  -20.84502  0.00409  3.22311      13.9117  2.00972  0.66518    9.0139  0.12842     0.26254   7988.43954   7917.29371  3.73059         2506.56835      19.7114  0.02858  57334.31498  3.43134  0.03689   2911363.71677  45.09133  21.95763  57441.62277    51.39765       44.41496   48.96812  68.29763   91.0    0.09445  -21.75585  0.99828 
  -21.13757  0.00625  2.66134     13.67109  1.67156  1.31203  11.31441   0.0878     0.32106   5123.84732   9111.24723  2.02356         3292.99594     17.79217  0.00034  57334.02243  1.77195  0.07076   4999836.64845  44.94281  21.98667   57444.4423    51.40771       44.42487   48.96812  68.29763   85.0    0.08463  -21.63343  0.99711 
  -20.32198  0.02452  2.42634     13.47726  1.39193  1.13313   7.33607  0.14169     0.25192   8376.96106   8123.54321   1.9116         2941.62989     19.34359  0.01226  57334.83802  3.07089  0.17986   8449377.03592  44.71573  21.97265  57438.80324    51.39361       44.42934   46.39085  65.72037   92.5    0.09836  -21.82036  0.99175 
  -19.08815  0.00281  3.19533     13.61823  1.87083  1.25048   4.42533  0.14769     0.30061   7777.19217   8007.69229  1.48513         3284.61962     18.40412  0.00141  57336.07185  1.59668  0.01242  10290250.41151  44.51942   21.8609  57438.80324    51.40813       44.43903   46.39085  65.72037  109.0    0.09569  -21.68106  0.99935 
  -19.73225  0.00974  3.08082     13.72572  1.83084  1.06846   8.81377  0.11008     0.13851   7611.97178   8947.61142   1.3624         3036.83025     17.45151  0.00016  57335.42775  3.04637  0.08589   5706292.60648  44.79781  21.98712  57438.80324    51.39456       44.38552   48.96812  72.16354   80.0    0.09613  -21.69238  0.99583 
  -22.92548    0.001  3.00429     13.91726  1.83245  0.68018  10.54718  0.09369     0.41693   5446.84344    9319.9632  1.93657         3205.03518     18.03525   0.0006  57332.23452  1.86661  0.01059   2248094.63201  45.22458  22.08871  57441.62277    51.38981       44.37954   54.12265  81.18398   82.0    0.08408   -21.5681  0.99952 
  -17.99954  0.01756  3.19488     13.89003  1.91182  0.66255    8.1688  0.09267      0.2953   6603.13684   8596.58092  4.78777          2537.5208     20.08974  0.06831  57337.16046  2.12464  0.14342   3006798.93685  45.06328  21.98081  57441.62277     51.3961       44.39749   48.96812   70.8749   96.5    0.09518  -21.64285  0.99296 
  -18.92212  0.03478  2.63864     13.81315  1.90538  0.84275  10.93365  0.12441      0.2695   7584.63176   8713.67225  2.35486          2707.1044     20.52217  0.18488  57336.23788  3.75199  0.38024   2912414.91462  45.24181  22.05834  57441.62277     51.4023       44.41572   47.67948  69.58627   80.0    0.08724  -21.95304  0.98754 
  -18.49953  0.03802  2.99018     13.71286  1.72203   1.0681  16.53866  0.04716     0.20105    5855.3367    8966.5235  2.00272         3227.64913     17.54207  0.00019  57336.66047  3.38245  0.62879    5364516.2543  44.82396  22.01269  57438.80324    51.64203       44.68939   43.81358   63.1431   89.0    0.09447  -21.61318  0.96943 
  -19.55048  0.01506  2.75291     14.30834  1.54703   0.1693   7.25961  0.15195      0.2025   9232.18476   8283.10676  2.01505         2642.86842     17.44467  0.00015  57335.60952  3.69104  0.10932     263159.1675  46.15854  22.06256  57438.80324    51.37428       44.38761   46.39085  68.29763   82.5    0.10748  -21.77366   0.9945 
  -19.63708  0.02025  3.14027     14.30304  1.76824  0.22907  15.53057  0.04983     0.16562   5765.48346     8606.932  2.52372           3048.373     16.92051    5e-05  57335.52292  3.07954  0.31454    401066.32919  45.91924   22.1208  57430.34464    51.36083       44.38655   45.10221  69.58627   95.5     0.0926  -21.54677  0.98345 
  -18.29879  0.01618  2.72584     13.49914  1.41348  1.48043  27.98681  0.01367     0.10152   4330.19775    9657.7801  1.75881         3638.89835     16.28859    1e-05  57336.86121  3.13037  0.45294   9790966.94151  44.55731  22.28488  57430.34464     51.3789       44.36275   45.10221  76.02944  108.0    0.08906  -21.40579  0.97489 
  -18.72324    0.011  2.51811     13.68754  1.51825  0.76417   6.10753   0.2272      0.4165   9652.73006   8003.68373  1.30775         2694.74856     16.37447    1e-05  57336.43676  3.39463  0.06721   3769078.87274   45.0718  22.03254  57430.34464    51.40739       44.43552   46.39085  69.58627   79.0    0.10465  -21.89695  0.99711 
  -18.43312  0.00934  3.03801     13.75346  2.09829  1.41423   5.59129  0.29901     0.30804   9830.47328   8248.20381  2.28394         2470.94468     19.71733  0.02898  57336.72688  3.22321  0.05224   5596760.34121  44.87759  22.08193  57438.80324    51.40408       44.41852   47.67948  69.58627   73.5    0.09701  -21.98472    0.998 
  -18.24625   0.0224  2.81998     13.67939  1.59519   0.8634   7.54464  0.12503     0.22742    8580.4946   9007.35474  1.08005         3116.08902     16.38688    1e-05  57336.91375  3.31353  0.16903    5156328.6986  44.85883  21.95682  57438.80324    51.39032       44.42525   45.10221    67.009   78.0    0.10714  -21.73775  0.99151 
  -21.50124  0.01286  2.37229     13.82798  1.59582  0.64416  11.89522  0.09558     0.14396   5925.92078   9780.33628  1.00336         5701.38694     16.71418    3e-05  57333.65876  2.49179    0.153    1841540.4081  45.45631  22.09193  57430.34464    51.46842       44.49019   43.81358  73.45217   74.0    0.09234  -22.05558   0.9947 
  -20.22313  0.03522  3.06638     13.83605  1.87087  1.00155  21.20078   0.0449     0.08866   5087.95752   8681.29564  2.19833         3060.42569     17.37829  0.00013  57334.93687   3.2739  0.74666   3475444.13434  45.02663   22.1107  57438.80324    51.38222       44.40849   47.67948  65.72037   88.5    0.08308  -21.52203  0.96686 
  -19.47414  0.01622  2.75235     13.80604  1.59841  0.64341   7.82482  0.14759     0.11011   8021.62205   8473.34162  2.17229         2834.11188     16.76391    3e-05  57335.68586  3.00349  0.12694   2746866.43667  45.15429  21.96597  57441.62277    51.42055         44.429   48.96812  68.29763   79.5    0.09694   -21.7581  0.99399 
  -16.01386  0.39901  2.54294     13.56349  1.28667  1.15556     11.14  0.08035     0.34302   5600.73825   8371.78702  2.96361         3039.14802     18.41079  0.00143  57339.14614   2.0845  4.44496   5767389.74168  44.80666  21.86769  57441.62277    51.38864         44.389   48.96812   70.8749   99.0    0.08285  -21.64549   0.8015 
  -21.08311  0.00358  2.42715      13.5621  1.41906  0.93406   6.92445  0.18307     0.15963   8081.42712   8217.89091  2.23404         2618.19436      18.5554    0.002  57334.07689  2.69767  0.02478   5831890.72173  44.88484  21.98231  57438.80324    51.41032       44.40895   50.25675  72.16354   86.5    0.08681  -21.77568   0.9989 
  -23.31758  0.00216  3.15884     13.82462  2.09883  1.25446  10.26025  0.12547     0.23879   6504.24288   9552.21349  1.10216         3754.23015     18.20823   0.0009  57331.84242  2.58928  0.02212   4361170.93022  44.95216  22.05971  57438.80324    51.39399       44.42124   46.39085  65.72037   72.0    0.08496  -21.73315  0.99909 
  -17.66847  0.00221  2.60991     13.60623  1.55895  1.15427  28.51143  0.02502     0.18372   4667.30059   8699.61979  2.74445         3008.83633     18.63399  0.00239  57337.49153  3.70491  0.06308   6045474.62625  44.84699  22.14611  57438.80324    51.38544       44.38908   48.96812  69.58627  102.5    0.08173  -21.55669  0.99722 
  -18.63452  0.08063  2.98252     13.66647  1.77826  1.23225    5.4669  0.21518     0.27654   9021.99891   8334.62398  1.26469         2918.29732     18.00683  0.00056  57336.52548  2.65445  0.44078   6823963.39624  44.73564  22.10442  57430.34464    51.35892       44.37879   41.23631  73.45217   80.5    0.10223  -21.80997  0.97935 
  -18.57658   0.0321  3.08305     14.09688  1.87255  0.42627  10.55456  0.08112     0.16184   5831.85409   9060.99999  2.20404          3184.3984       17.065    6e-05  57336.58342  2.14132  0.33884   1057922.66896  45.53886  21.99169  57435.98371    51.42617       44.41293   47.67948  74.74081   85.0    0.09282   -21.6549  0.98438 
  -18.22438  0.03243  3.04755     13.83435  1.84955  0.85246   12.2032  0.09545     0.19616   7150.61726   8805.40794  2.40741         2998.40572      18.2197  0.00092  57336.93562   3.7221  0.39577   3420396.20472  45.03393  22.16101  57430.34464    51.40642        44.3966   42.52494  76.02944   78.5    0.09313  -21.74297  0.98192 
  -17.96622  0.01072  2.84903     13.59734  1.69635  1.31463   6.66496  0.15514      0.2899   8128.77011   8097.96541  2.02404         3034.87958     19.61841  0.02307  57337.19378  2.62709  0.07147   8166765.08645  44.67692  22.07103  57435.98371    51.37459       44.44246   43.81358   63.1431   89.5    0.09906  -21.80693  0.99664 
  -21.17413  0.00957  2.91512     13.63655  1.73795  1.35069   6.97099  0.16992      0.2406   7883.32998   8836.34111  1.82842         2953.29464     18.19754  0.00088  57333.98587  2.58429  0.06674   7312643.20208  44.71549  21.97477  57441.62277    51.41038       44.40438   51.54538  72.16354   79.0    0.09371  -21.75094  0.99686 
   -17.1003  0.03627  2.98094     13.81747  1.73902  0.69803   6.47953  0.12431     0.24128    7572.0046   9924.50589  1.19795         3418.70904     16.34883    1e-05   57338.0597  2.21612  0.23501   3325740.14379  45.03856  22.07541  57438.80324    51.39688       44.40599   46.39085  69.58627   74.5    0.10389  -21.72461   0.9885 
  -18.97514  0.00744  2.74114     13.65225   1.6742  1.54665  28.26238  0.03155     0.04736   4993.20949    9105.6851  2.44534         3153.69798     17.69731  0.00028  57336.18486  4.20335  0.21015   5794073.97302   44.8538  22.01677  57441.62277    51.54575       44.58082   48.96812    67.009   88.5     0.0856  -21.60395  0.99093 
  -17.44457  0.01025  2.71287     13.86975  1.65827   0.5341  14.85508   0.0575     0.15241   6434.22475   8352.17077  2.01628         3118.74946     19.75277  0.03144  57337.71543  3.66855  0.15228   2064532.14995  45.30682  22.08816  57435.98371    51.39256       44.41998   46.39085  68.29763   96.5    0.08874  -21.73502  0.99335 
  -19.58412   0.0239  2.93682     13.72811   1.8021  1.11561   8.08486  0.14334      0.3718   7514.69614   9335.64208  2.14837         2839.25938     17.97633  0.00053  57335.57588  2.72347   0.1932   5048096.68148  44.88574  22.10395  57435.98371    51.42152        44.4127   48.96812  77.31808   73.5     0.0957  -21.75233  0.99138 
  -15.63676  0.24318  2.44741      13.8961  1.32526  0.44301    6.1356  0.18532     0.23249   7981.14873    9262.3969  1.28953         3355.58177     18.42518  0.00148  57339.52324  2.33139  1.49206   1189397.41348  45.53841  22.07751  57438.80324    51.59679        44.6591   45.10221  61.85446   70.0     0.1034  -21.77985  0.93152 
   -21.8089  0.00608  2.90177     13.83617  1.73561  0.78044  15.92158  0.05883     0.48047   5911.72794   9068.32133  1.58287         3244.25731     18.40524  0.00141   57333.3511  3.31927  0.09681   2885724.69065  45.12272  21.99457  57435.98371    51.38416       44.38835   45.10221   70.8749   81.0    0.09051  -21.59518  0.99554 
  -21.53425  0.06139  2.84985     13.59749  1.40116  1.27085  39.96289  0.01061     0.17919   3102.46199   9736.73321  2.61206         3305.71268     16.97706    5e-05  57333.62575  2.29455  2.45324   6744628.29374  44.67673  22.02655  57441.62277    51.37603        44.3895   48.96812  68.29763  112.5    0.08044  -21.25434  0.86813 
  -22.44196  0.00176   2.9847     13.68449  1.98891  1.03913   6.92109  0.15367      0.3769   7121.68754   7678.78284  3.06224         2756.66378     19.73741  0.03035  57332.71804  2.09396  0.01219   7034813.61102  44.77041  22.08555  57433.16417    51.35593       44.36739   45.10221  69.58627  109.5    0.07973   -21.8108   0.9995 
   -20.8348  0.00964  3.19257     13.60693  1.91888  1.17104   8.08668  0.06579     0.41884   5644.08127   7997.11339  4.14511          2576.6711      19.1006    0.007   57334.3252  1.53668  0.07798  11099099.69713  44.49832  22.02158  57441.62277    51.41523       44.40271   48.96812  74.74081  140.5    0.07246  -21.47729  0.99603 
  -19.67292  0.00881  3.44247       13.708   1.9214  1.17493  13.10756  0.03996     0.29947   5595.00081   8780.66258  2.18895         3106.57669     17.97608  0.00053  57335.48708  2.44765  0.11544   8112724.47783  44.56956  22.01431  57433.16417    51.39702       44.35912   43.81358  82.00928  109.0    0.09287  -21.45223  0.99338 
  -20.25499   0.0181  2.72492     13.76739   1.9742  1.11913   9.02387  0.15725     0.22037   7830.44218   8767.68551   1.6859         2711.49782     20.44285  0.15402  57334.90501   3.3006  0.16332   3973047.98452  45.09441  22.02478  57438.80324    51.37601       44.37546   50.25675  73.45217   74.0    0.08798  -21.92321  0.99456 
   -20.4882  0.01063  2.56489      13.7931  1.69573  0.78727  11.60118   0.1228      0.2495   7851.91079   9274.93927  1.42475         3195.13769     20.00272   0.0559   57334.6718  4.26658  0.12336   2686056.60538  45.25095  22.01929  57438.80324    51.36962       44.38454   50.25675  69.58627   68.0    0.09345  -21.90096  0.99542 
  -19.69191  0.11093  3.23848     13.73643  1.69851  1.33607  25.47711  0.02667     0.12906   4554.78282   9986.95559   2.7535         3152.52401     19.18127  0.00843  57335.46809  3.15292  2.82617   5568188.87468  44.73252  21.88025  57435.98371    51.43505       44.43633   43.81358  72.16354   89.5    0.08628  -21.45621  0.85599 
