 log(Bfield)      Mns    Pspin  cutoff_power  cutoff_wavelength  fnickel    kappa  kappagamma   mejecta  log(nhhost)  temperature  texplosion  thetaPB      vejecta      A_V        MJD_0   log(KE)      M_Ni  Peak_mag     Peak_MJD 
    13.06882  1.76846  2.35054        4.2003         2060.03948  0.29017  0.03864     0.01193  13.16845     18.71277     3205.406   -17.70969  0.96649  10055.89123  0.00287  59270.91746  52.62977  20.50969  17.30507  59328.60987 
    12.32829  1.99177  1.29709       0.31947         2424.06965  0.40629  0.02327     0.01067  26.79118     18.07898   9778.41618   -15.57121  0.79966  11614.86333  0.00067  59273.05594  52.81388  32.88971  17.26932  59323.58766 
    13.20486  2.05642  3.09915        1.4502         2736.10334  0.48115  0.04653     0.01668  12.52138     16.99355   7637.36727   -22.36824  1.22025  10084.33631    5e-05  59266.25891  52.62772  33.65735  17.24252   59326.5927 
    12.80056  1.69438  2.13872       0.82967         2696.00793  0.33699  0.03142     0.01168  20.31186     16.20297   3615.41837   -16.41099  1.35984  11209.64573    1e-05  59272.21616  52.76101  25.93068  17.32078   59326.5927 
    12.47325  1.69649  1.59508       0.46055         2965.51049  0.34479  0.02662     0.01072  27.06269     18.17127    7978.9331   -16.76782  1.12231  11599.77368  0.00082  59271.85933  52.81354  27.96187  17.29002  59327.60128 
    12.65767  1.64733  2.00066       0.22036         2070.44578  0.48165  0.03176     0.01145   19.1699     17.51679   8420.21578   -21.20549  1.51825   9991.19914  0.00018  59267.42166  52.65631  36.65916  17.33156   59326.5927 
    12.69041  1.92579  2.00851       1.03565         2034.95064  0.38741   0.0296     0.01162  22.06416     18.93084   6335.51714   -14.34182  1.25191  11514.17253  0.00474  59274.28533  52.79099  30.27372  17.32109   59326.5927 
    12.04874  1.75922   1.0125       0.22701         2500.11772  0.39968  0.02438     0.01014  26.54331     16.71627   4788.10124   -16.26918  0.98159   11086.9517    3e-05  59272.35797  52.77276  32.30146  17.25373  59327.60128 
    12.96328  1.86236  2.44605       0.38039         2120.37133  0.38438  0.03148     0.01099  16.93533     18.32903    9532.4028   -18.63248  1.37839    10534.503  0.00119  59269.99467  52.69195   28.5668  17.26795  59323.58766 
    12.09896  2.01355  1.01616        0.0243           2413.896   0.4541  0.02371     0.01153  23.49673     17.70993    9331.0083   -16.23771  0.86882  11689.19972  0.00028  59272.38944  52.80912  35.89871    17.278  59328.60987 
    13.44534  1.90066  2.13569       2.97492         2102.47258   0.4808  0.02738     0.01244  19.50463     18.63421   7365.06692   -13.83803  0.17403  11297.59413  0.00239  59274.78912  52.76447  36.71499  17.25085   59326.5927 
    12.81186  1.26458  1.93597       1.60929         2324.14119  0.30418  0.06144     0.02215   11.4025      16.0298   7312.56297   -16.95811  1.34812  11373.44098    1e-05  59271.66904  52.72372  20.86611  17.26089  59323.58766 
    12.16749  1.53108  1.20504       0.49896         2099.47007  0.48843  0.02695       0.011  21.55102     18.34706   4766.01256     -14.781   1.5667   11314.0748  0.00124  59273.84615  52.77387  38.00208  17.23617   59326.5927 
    12.52924  1.99893  1.55988       0.01159         3008.41779  0.46144  0.02432     0.01004   23.1305     18.83171   9138.72751   -16.59561  0.74121  10622.12604  0.00377  59272.03154  52.72473  36.37394   17.2653   59326.5927 
    12.32848    2.106  1.39543       0.03837         3490.35351  0.44634    0.024     0.01012  23.49491     16.69887   3175.51239   -14.90422  1.11886  11430.77498    3e-05  59273.72293   52.7897  35.28451  17.30262  59323.35409 
    12.71322  1.69537  2.12337       3.08827         2122.15682  0.44776  0.02941     0.01206  19.97135     17.69505   9280.63944   -14.69373  1.36991  11012.73054  0.00028  59273.93342  52.74423  34.34474  17.29414  59323.58766 
     12.6241  1.68623  1.78697       0.97874         2774.53978   0.4654  0.02478     0.01131  22.34391     18.08826   3198.48369   -18.17009  0.78666  10541.29348  0.00068  59270.45706  52.71533  36.45362  17.28356   59326.5927 
    12.17465   1.6032  1.17149       0.02253         3732.74871  0.38191  0.02026     0.01021  29.48098     18.77261   4939.36559   -16.78295  0.91717  11431.40363  0.00329   59271.8442  52.80741  31.44496  17.29944  59328.60987 
    13.15494  1.90752   2.5348       0.21678         2171.57685  0.45336  0.05515     0.02022  11.01311     19.93786   9876.82728   -16.02183  0.86814  11624.89287  0.04815  59272.60532  52.73952  30.87177  17.28544  59327.60128 
    12.45439  1.30099  1.32271       3.76604          2147.6319  0.48438  0.02577     0.01214  21.39305     17.99508   3779.22825    -17.6323  0.60054  10745.50523  0.00055  59270.99485  52.72849  37.63519  17.25998  59328.60987 
    12.31717  1.70828  0.81759       1.12181         2369.59288  0.42312  0.02754     0.01183   24.0329      17.4837   6317.56259   -15.78583  0.30924    11588.398  0.00017  59272.84132  52.80339  33.58741  17.26811  59328.60987 
    13.07785   1.9649  2.57755       0.80812         2053.86766  0.45858  0.03246     0.01221  17.33607     18.49022   4047.64129   -15.22835  0.86152   11215.2255  0.00172   59273.3988  52.74831  34.23612   17.2618  59328.60987 
     12.6611  1.66254  2.07728       0.02261         3911.03052  0.41394  0.02434     0.01114  23.24501      16.3594   6855.41934   -14.11423  1.38043  11383.10901    1e-05  59274.51292  52.78522  32.65931  17.27367  59328.60987 
    12.03724  1.67194  1.03099       0.05495         4992.19793  0.45646   0.0293     0.01107  21.81526      19.6865   4645.07953    -15.7049  1.45944  10931.20503  0.02699  59272.92225  52.74495  35.59544  17.27302  59327.60128 
    12.25906  1.51247  1.23333       0.25177         3326.81648  0.48076  0.02623     0.01043  21.65571     19.69992   3301.40789   -16.54783   1.0084   10385.8087  0.02784  59272.07932   52.6999  37.43861  17.28223  59328.60987 
    12.47834   1.4955  1.74729       3.78517         2087.01524  0.47387  0.02262     0.01266  21.44245     16.76686   3344.55627   -14.69804  1.04266  10589.64696    3e-05  59273.92911  52.71599  36.83437  17.32055  59328.60987 
    12.26885  1.73244  0.94445       0.29359         2519.50142  0.43325  0.02599     0.01166   25.0306     19.52387   6045.93141   -17.58819  0.42752  10777.66104  0.01856  59271.03896   52.7436  34.64661  17.28464   59326.5927 
    12.58505  1.61697  1.81396       0.12672         3080.49794  0.40606  0.02935      0.0112  22.38235     17.54837   8174.92071   -15.34398  1.53511  11708.92687   0.0002  59273.28317  52.80671  31.81578  17.29288  59328.60987 
    12.92294  1.72286  2.29255       0.49387         4131.19767  0.44477  0.03002      0.0114  17.81908     19.08638   3060.21031   -16.51325  0.88125  10384.72598  0.00678   59272.1139  52.68379  33.38172  17.29579  59322.61481 
    12.54572  2.10338  1.97517       0.05624         3123.01039  0.43977  0.01945     0.01037  26.29026     19.24029   8643.40182   -16.78439  1.16658  11024.29746  0.00966  59271.84276  52.76709  35.47995  17.26706  59327.60128 
    12.11193  1.33254  0.87382       0.68493         2039.71729  0.43716  0.02629     0.01108  23.72912     16.71351   9236.62292   -17.82485  0.58298  10888.64704    3e-05   59270.8023  52.74828  34.62209  17.28965  59327.57641 
    12.89713  1.50488  2.20301       0.17401          2872.1416  0.35741  0.02715     0.01098  22.53459     16.87585   5770.63125   -16.23284  0.89364  11325.03396    4e-05  59272.39431   52.7783  28.03886  17.26809  59328.60987 
    12.15635  1.44499  1.14539       0.03139         3733.43975   0.4942  0.02771     0.01156  21.28351     16.01744   6116.42063   -15.85923  1.04411   10864.4871    1e-05  59272.76792  52.73764  38.36146  17.29363   59326.5927 
    13.31144  2.01621  2.63299       0.02779         5642.43713  0.44701  0.03747      0.0138  16.14308     16.84589   3408.99803   -18.08951  0.46634  10784.82445    4e-05  59270.53764  52.70828  32.91154  17.29392    59331.375 
    12.39328  1.07114  1.50795       0.06753         3133.05912   0.4748   0.0243     0.01031  20.07045     17.74739   7633.14106   -15.96221  1.37296  10127.36028  0.00031  59272.66494  52.67184  36.45255  17.24623   59326.5927 
    13.52663  1.44612  2.20265       4.05892         2241.09522  0.40283  0.02726     0.01166  20.22709     18.93384   6978.14503    -13.1696  0.17761  11212.95091  0.00477  59275.45755  52.76092  30.97238  17.27779  59328.60987 
    12.82317  1.33659  1.86158       0.78607          2980.8169  0.49092  0.02782     0.01033  17.89629     18.82105    8343.7266   -15.92495  0.67811  10146.51206  0.00368   59272.7022    52.664  36.87621  17.24466   59326.5927 
    12.64112  1.63614  1.51783       1.71379         2205.97154   0.4594  0.02642     0.01165  21.56381     18.81986   3326.35216   -16.36937  0.51293   10522.4624  0.00367  59272.25778  52.71091  35.74739  17.26313  59321.59937 
    12.78818  1.44803  1.68584       0.32018         4130.66823  0.46375  0.03196     0.01242  18.78093     20.04975   8892.37233   -14.26716  0.58648  11009.09775   0.0623  59274.35999  52.73888  35.15946  17.30255  59328.60987 
    12.94496  2.02524  1.80495       0.36975         2079.29367  0.36372  0.02554     0.01025   26.0139     17.78555   6835.10209   -16.67605  0.41403  11424.13586  0.00034   59271.9511  52.79721  29.28913  17.25821   59326.5927 
    12.63768  1.33452  1.84625       0.40201         2036.62945  0.41524  0.02591       0.011  20.46875     18.35044   5027.40789    -13.7044  1.24484  11009.56367  0.00124  59274.92275  52.74599  31.99829  17.23372    59331.375 
    12.98191  1.55865  2.07676       0.05228         5739.79081  0.41719  0.03424     0.01297  13.99773     17.19592   3009.57753   -16.59841  0.78636  10895.73174    9e-05  59272.02874  52.70483   29.8555  17.25488  59323.58766 
    13.30897  1.95757   2.5515       0.04455         4754.66774  0.28954  0.03717     0.01224  17.07037     17.20504   8336.42971    -18.0803  0.54683  11209.20496    9e-05  59270.54685  52.74655  21.55152  17.28366   59326.5927 
    12.06898  1.87193  1.02987       0.45439         2097.23265  0.47654  0.02325     0.01111  23.36329     19.41846   8955.27979   -14.46918  0.87892  11029.40171  0.01456  59274.15797  52.75821  37.63343  17.24499  59327.57641 
    12.74166  1.92164  2.23852       0.17044         5885.64202  0.48557  0.02825     0.01102   18.1642     18.51803   5664.72362   -14.50305  1.44272   9983.16429  0.00183   59274.1241  52.65114  36.57921  17.30971  59332.60391 
    12.71757  1.67354  1.69937       0.42078         2163.22607  0.46909  0.03036      0.0102  19.22697     16.64727   3722.00879   -18.39848  0.72482  10246.04475    2e-05  59270.22867  52.67843  35.72297  17.28965  59327.57641 
    12.48971  1.38005  1.59849       1.86548         2152.76233  0.43138  0.03228     0.01126  20.02799     18.83806   7352.08183   -17.41323  1.35687  10675.38759  0.00383  59271.21392  52.71744  33.10596   17.2477   59326.5927 
    12.25988  1.62493   1.3187       0.33048         2131.65328  0.42566   0.0275     0.01069  23.53242     16.39948   3562.61256   -16.65231  1.29296  10984.21725    1e-05  59271.97484  52.75521  33.65942  17.32928  59327.57641 
    12.57164  1.80549  1.35653       0.09728         4098.80934  0.44854  0.03003     0.01079  21.59212     18.74069   6252.94978   -17.05165  0.52552  10342.20929  0.00306   59271.5755  52.69601  34.91042  17.24704    59331.375 
    12.77179  1.43436  1.92365       0.11953         4123.35986  0.42342  0.04771     0.01429   13.1275     18.96998   6227.88026   -17.24522  1.41264   10642.5001  0.00518  59271.38193  52.67874  29.90866  17.30369  59327.60128 
    12.54409  1.77331  1.74471       0.51258         2343.56651  0.43755  0.02863     0.01172  20.26121     16.46182    7304.7387   -14.14288  1.32272  11272.74135    2e-05  59274.48427  52.76568  33.65248  17.23545  59323.58766 
    12.40191  1.15967  1.41196       0.57049         3077.54156  0.29202  0.02741      0.0104  26.97116     19.66401   9881.38345   -15.72536  1.38378  11683.94379  0.02563  59272.90179  52.81955  23.66765  17.27112   59326.5927 
    13.08273  1.83916  2.80045       2.63613          2285.2492  0.46636  0.04685      0.0177  13.24738     18.03886   4244.14045   -17.60349  1.25867  10780.70414  0.00061  59271.02366  52.69075  33.00315   17.3121   59326.5927 
    12.80799  1.57562  2.05417       0.49204         2030.92891  0.38331  0.02952     0.01028  19.45918     16.81395    4672.3788   -16.99051  1.08887  10741.45708    4e-05  59271.63664  52.72044  29.25748  17.26456  59323.58766 
    13.50421  1.79063  3.23288       0.81243         2467.69873  0.35504  0.02337     0.01184  25.62091     17.06183   7985.84282   -21.40447  0.38092  10723.12071    6e-05  59267.22268  52.74102  28.51157   17.2889  59323.58766 
    13.23809  1.78457  2.44975       0.05276         2989.91725   0.3809  0.03453     0.01285  18.13777     16.69227   4675.98249   -16.86948  0.49085  11058.61542    3e-05  59271.75767  52.73989  28.68555  17.28417   59326.5927 
    12.59087  1.83824  1.82093       0.09299         3946.75363  0.45139   0.0332     0.01065  19.64484     17.81518   3198.97898   -19.01165  1.42626  10207.46244  0.00036   59269.6155  52.67693  34.51551  17.23142   59326.5927 
      12.843  1.57868  1.94238       1.18709         2197.80776  0.45358   0.0655     0.01646   8.36019     17.78028   7365.09302     -24.371  1.56279   9535.98465  0.00033  59264.25615  52.54128   29.0788  17.25631   59326.5927 
    12.36636   1.3653  1.45071       0.01463         4709.46944  0.48162  0.03121     0.01177  19.76486     18.10357    4351.7401   -19.68167  1.37102  10557.54838  0.00071  59268.94548  52.70672  36.86936  17.28905  59331.38281 
    12.84332  1.49834  2.25754       0.09313         2356.90733  0.40375  0.03337     0.01361  18.60053     19.77745   6501.37276   -19.77675  1.53243  10939.36758  0.03328   59268.8504  52.73257  30.55365  17.27191  59321.59937 
    12.96368  2.19344   2.4621       0.01189         4485.52064  0.40707  0.02848     0.01229   22.6097     18.14035   9360.76128   -15.22929  0.80433  11712.12324  0.00077  59273.39786  52.80776  31.95402   17.2453   59326.5927 
    12.47331  1.57605  1.33576       0.66804         2741.13278  0.45799   0.0236     0.01056   22.5616      18.9491   6059.10031   -15.46525  0.56141  10516.22221  0.00494   59273.1619  52.71403  35.93729  17.29089  59327.57641 
    12.79687  1.63358   1.9423       0.04218         2710.93639  0.37114  0.03376     0.01014  17.15496     16.75958    7515.5121   -17.82854  1.11241  10439.55529    3e-05  59270.79861  52.68518  27.65157   17.2527  59328.60987 
    12.51222  1.72996  1.47917        1.2513          2060.7643  0.47653  0.02873     0.01073  21.07041     19.61543   3609.07375   -18.31022  0.76555  10207.08982  0.02292  59270.31693  52.68261  36.92037   17.2833    59331.375 
    13.01846  1.94248  2.67447       0.07976         4500.97848  0.39026  0.03016      0.0119  18.25212     18.60938   4594.20805   -17.37891  1.25278  10978.57114  0.00226  59271.24824   52.7341  29.42632  17.24423   59326.5927 
    12.74273  1.79163  2.19428       0.73966         2128.98821  0.48388  0.02392     0.01043  21.45603     18.81976   4596.61189    -16.9278  1.11805  10814.52871  0.00367  59271.69935  52.73429  37.61693  17.27143  59328.60987 
    12.75389  1.54938  2.00142       0.40281         2221.84225  0.47423  0.04289       0.014  14.96009     19.41031   4840.82034   -16.30177  1.38189  10875.48599  0.01429  59272.32538  52.70901  34.39365  17.27594  59328.60987 
    12.76887  1.54609  2.13957       0.14652         4884.04831  0.48457  0.03643     0.01414  16.79259     18.03036   7223.55168   -14.96471  1.27966  11229.65511   0.0006  59273.66244  52.74674  35.95332  17.26113  59328.60987 
    13.12152  1.63678   2.5767       1.12209          2063.9549  0.29798  0.03703     0.01365  14.65721     19.47047   4103.16781   -19.74195  1.09372  10605.59057  0.01641   59268.8852  52.68541  21.52331  17.20478  59323.58766 
    13.38485  1.80182  2.21747       0.00694         3498.11326  0.34965  0.03429     0.01045  18.42531     16.14088   8971.15919   -19.52807   0.3024  10524.61325    1e-05  59269.09908  52.69821  26.41165  17.21794  59321.59937 
    12.73045  1.48204  1.89777       0.73565          3910.9463  0.33249   0.0303     0.01074   21.6235     17.35821   3762.90513   -17.29292  1.01486  10513.49015  0.00013  59271.33423   52.7104  25.88501  17.29294  59327.60128 
    12.96305  1.80931  2.26266       0.03499         4995.21896  0.39248  0.03968      0.0138  16.54766     17.38059   5719.33364   -16.38242   0.9201   11441.8842  0.00013  59272.24473  52.76176  29.03731  17.30454   59326.5927 
    12.83271   1.6899  2.52482       0.16569         2955.81033  0.38381  0.02615     0.01212   23.4712     16.59077   8426.73754   -16.01241  1.50173  10933.91211    2e-05  59272.61474  52.75102  30.33605   17.2368  59323.58766 
    12.04123  1.85567  0.70174       0.44342         2356.50827  0.47633  0.02718     0.01003  21.99908     18.30444   3237.80292   -17.48745  0.43439  10041.30518  0.00112   59271.1397  52.67187  37.20227  17.27222  59327.60128 
    13.10907   1.9687  2.31236       0.22433         2105.27623  0.47549    0.036     0.01062  14.85374     18.41537   5302.15131   -20.36828  0.66288   9861.80425  0.00145  59268.25887  52.62341  34.43572  17.28789  59328.60987 
    13.21592  1.92736  3.04372       1.49977          2634.7419  0.23523  0.02676      0.0113  21.29641     17.10781   7493.44459   -17.25368  1.12598  11118.86616    7e-05  59271.37347  52.75779  18.26176  17.30194  59327.60128 
    12.41923  1.85977  1.68238       3.05101         2358.22448   0.4664  0.02739     0.01382  20.71055      19.3313   3150.70888   -11.31825   1.3279  11328.47491  0.01191   59277.3089  52.77175  36.01946  17.23939  59323.58766 
    13.28419  1.87316  2.78719        0.2508         4024.04268  0.47229  0.04721     0.01814  13.93879     19.57108   4294.54752   -15.93131  0.61598  11570.10069  0.02069  59272.69584  52.75662  33.77006  17.23824  59328.60987 
    12.96385  1.90898  2.35122       0.14268         2170.90776  0.43699  0.03827     0.01221  14.53153     18.16289   9570.54372   -17.28165  1.15735  10883.75823  0.00081   59271.3455  52.70715  31.50929   17.2743  59327.57641 
     12.8228  1.56842   2.0596        0.2742          2084.4968  0.43396  0.03322     0.01039  16.18919     18.00161   7609.41634   -18.34516  1.27524  10414.62519  0.00056  59270.28199  52.67819  31.96836  17.28203  59328.60987 
    12.56279  1.80889  1.63148       0.06262         3229.94075  0.43607  0.03045      0.0108  21.23639     17.88414   9428.60457   -17.29966  0.94144  10841.73454  0.00043  59271.32749  52.73564  33.83533  17.28177   59326.5927 
    12.34629  1.62968  1.45875       0.03024         2194.57786  0.38854   0.0244     0.01051  25.32475     17.92931   4372.49973   -13.61679  1.24145  11514.69531  0.00047  59275.01036  52.80197  31.13722  17.31958  59319.61119 
    12.28164  1.56915  1.17524       0.21761         2299.87599  0.47065  0.03109     0.01096  20.02291     16.75432   9552.17562   -16.78498  0.89961  10703.88286    3e-05  59271.84217  52.71974  36.11804  17.29115   59326.5927 
    12.75883  2.10085  2.21692       0.71423         2126.50571  0.44105  0.02755     0.01096  20.96553     17.82326   4191.13767   -14.68109   1.1079  10545.12895  0.00037  59273.94606  52.71051  34.13966  17.22592  59327.60128 
    12.01464  1.85947  1.11169       0.07113         2484.66459  0.46319  0.02443     0.01153  24.34975     16.97398   9259.27631   -18.12616  1.39125  10511.76837    5e-05  59270.50099  52.71973  36.85579  17.26262   59326.5927 
