 texplosion  fnickel    Pspin  log(Bfield)      Mns  thetaPB   mejecta    kappa  kappagamma     vejecta  temperature    alpha  cutoff_wavelength  log(nhhost)      A_V         MJD0   kenergy  mnickel            TSD   log(L0)  Peak_mag     Peak_MJD  log(E_rad)  log(Peak_lum)  Rise_Time    E_fold  tau_1  delta_m15     r_peak     frac 
  -13.82248   0.0043  0.76767     14.19475  1.46139  1.40933  29.93129   0.0714     0.17004  7959.52028   6068.68221  2.38943         2597.99185     17.03298    6e-05  59420.66939  11.31166   0.1288     32615.7125  48.14984  18.44004  59471.46755    51.10029       44.31684   20.72704  54.40847   48.5    0.13052  -21.24807  0.99969 
  -20.14453  0.00588  1.24644     14.16145  1.40563  0.88525  14.29283  0.11696     0.02766  6799.39424   6139.39642   1.7989         2462.79139     19.59091  0.02166  59414.34735   3.94172  0.08401    96412.29454  47.24124  18.46296  59471.46755     51.1131       44.33685   23.20629  51.92921   52.5    0.12224  -21.11865   0.9991 
  -20.58638  0.00367  0.93613     14.37028  1.68871  0.80709  26.36779  0.08635     0.45831  7976.57691   6034.02528  0.68115         3018.54695     19.24599  0.00979  59413.90549  10.00769  0.09669    24974.01359  48.15624   18.4616  59468.48723    51.11392       44.33477   28.49967  49.22671   50.0    0.12797  -21.05319  0.99965 
  -17.40448  0.00162   1.1887     14.35198  1.78724  1.02788  44.57424   0.0396     0.07052  6602.92827   6399.03598  1.13008         3794.95152     18.60826  0.00225  59417.08739  11.59269  0.07206    46365.03211  47.70469  18.46314  59471.46755    51.08849       44.28866   25.90879  51.81759   50.0    0.13002  -21.22165  0.99957 
   -25.6562  0.01604  0.81878     14.34049  1.75652  0.80423  14.58621  0.11311     0.02837   6227.3162   6171.07169  0.48858         3452.78021     20.29313  0.10911  59408.83567    3.3742  0.23402    22794.78226  48.32932  18.46267  59471.46755    51.19539       44.40698   28.49967  52.51336   53.5    0.11945  -20.86655  0.99941 
  -13.24459  0.00124  1.22028     14.29583  1.46749  0.75834  14.28326  0.13198     0.15331  7150.10865   6201.60657  3.63287         2796.95695     20.17088  0.08234  59421.24729   4.35592  0.01772    51957.69137  47.54685  18.44759  59471.46755    51.10469       44.31893   23.31791  51.81759   52.0     0.1169  -21.29201  0.99984 
  -17.58754  0.05708  1.36049     14.37145   1.9797  1.30606  30.79094  0.04799     0.03494  6730.67142   4500.52259  2.97739         2366.35332     18.31835  0.00116  59416.90434   8.32083  1.75752    61503.56787  47.50916  18.42602  59471.46755    51.08476       44.28224   28.49967  51.81759   55.5    0.11694  -21.20576  0.98817 
  -12.76565  0.01093   0.9574     14.36861  1.85882  1.39138  29.22148  0.07326     0.03448  7760.28016    6168.8446  2.51421         2847.60472     17.07971    7e-05  59421.72622  10.49746   0.3193    28975.35211  48.11386  18.48915  59468.48723    51.20219       44.42333   26.71812  47.55125   51.5    0.12648  -21.24417  0.99917 
  -28.62061  0.00518  1.42413     14.08068  1.78569  1.33531    9.3365  0.14431     0.02198  6546.02726    6160.8563  0.13834         2998.09076     20.48305  0.16896  59405.87126   2.38653  0.04833   231931.16449  46.84819  18.49186  59469.60405     51.1474       44.34955   23.31791  53.34274   52.0      0.131  -21.16724  0.99951 
  -20.77573  0.01134  1.63665     14.28893  1.72312   0.8197   7.64837  0.22387      0.0322  7286.64119   6162.59117  2.30791         2085.93894     19.22775  0.00939  59413.71614   2.42243  0.08675   113287.51223  47.02307  18.49156  59469.60405    51.25193       44.47913   20.72704  51.11707   49.5    0.12442  -21.16624  0.99879 
  -18.17167  0.01038  1.95589     14.00998  1.43016   1.4316  24.52804   0.0482     0.06104  6154.48358   4360.49847  3.53132         2355.27985     18.90681  0.00448   59416.3202   5.54209  0.25469   485205.38867  46.15562  18.45752  59471.46755     51.1505       44.37232   25.90879  49.76122   55.5    0.12748  -21.17484  0.99322 
  -14.50936   0.0114  0.78175     14.41096  1.87441  1.20297  17.33793  0.12883     0.11141  7447.48011   6014.45219  2.12443         3024.24331     18.89817  0.00439  59419.98252   5.73645  0.19758    16028.85414  48.55067  18.41682  59471.46755    51.21086       44.42152   23.31791  53.70795   51.0    0.09731  -21.41503  0.99976 
  -31.54185  0.00588  2.77284     13.95253   1.8749   1.3133   6.47757  0.11668      0.0152  6105.07902   4750.71436  0.11139         2999.79705     20.07109  0.06544  59402.95002    1.4402   0.0381  1665675.27563  45.43438  18.47244  59471.46755    51.08815       44.30958   23.31791  51.81759   56.0    0.14522  -21.22936  0.99861 
  -16.97213  0.01928  0.70153     14.44301  1.96152  1.15569  16.27257  0.13457     0.07671  7381.80869   6044.59371  1.00836         3583.52312     18.19869  0.00088  59417.51975   5.28943   0.3137    11654.13749  48.80286  18.46054  59469.60405    51.12165       44.31171   23.31791  56.99935   50.5    0.13894  -21.16779  0.99976 
  -16.55087  0.01713  1.47068     14.12147  1.48708   1.3658   8.46053  0.22475     0.46967  7497.15936   5818.18777  2.35886         2811.06177     19.81879   0.0366    59417.941   2.83673   0.1449   170705.42281  46.87389  18.44211  59471.46755    51.20917       44.43552   23.31791  50.75186   51.5    0.12804  -21.27439    0.998 
  -20.34694  0.00826   0.8444     14.22788  1.53212  1.10814  14.35539  0.16043     0.19882  7922.46491   6450.52935  1.53273         2449.25957     16.69532    3e-05  59414.14494   5.37481  0.11864    35518.40707  48.05058  18.47167   59471.4974    51.29709        44.5146   27.74792  47.48527   50.0    0.12443  -21.01263  0.99962 
  -17.78361  0.00577  1.16745     14.40709  1.51325  0.46393  26.58854  0.05479     0.01044  6907.99951   6543.48545  1.62606         2451.67411     20.46698  0.16282  59416.70827   7.56879  0.15348    29377.83943  47.84626  18.44731  59471.46755    51.11311       44.32462   25.90879  52.40568   49.5    0.11719  -21.39709  0.99872 
  -21.22508  0.05833   2.4888     14.30934  1.87576  0.87599  12.52961  0.15485     0.01427   7456.7142   6022.07529  1.46929         3398.01108     18.93487  0.00478  59413.26679   4.15585  0.73084   259597.85759  46.33574  18.45837  59469.60405    51.27324       44.49884   23.31791  49.22671   49.0    0.12082  -21.22353  0.97931 
  -22.60137  0.01837  0.76654     14.30406  1.79486  1.21158  25.96663  0.06431     0.28905  6520.29324   6329.03629  0.56286         3300.39603     18.95788  0.00504   59411.8905   6.58532  0.47699    24143.00634  48.37102  18.46127  59468.48723    51.13276       44.34355   31.09055  47.14172   52.0    0.12807  -20.84187  0.99921 
  -15.54299   0.0045  2.20745     14.34868  1.61027  0.68118   7.48618  0.22357     0.03334   6751.7239   6110.58083   2.0503         3696.28217     19.01603  0.00576  59418.94889   2.03572  0.03368   146266.01018  46.62282  18.50029  59469.60405    51.23506       44.44342   26.91493  51.64355   50.5     0.1191  -21.24421  0.99904 
  -16.44417   0.0028   1.0493     14.28288  1.68316   1.2861  40.99732  0.05112     0.02908  7587.92995   6223.09148  1.63995         3006.60373     18.20599  0.00089   59418.0477  14.08086   0.1148    46772.33311  47.78318  18.44779  59469.60405    51.16267       44.36363   28.49967  51.81759   49.5    0.13331  -21.20419  0.99947 
   -17.8598  0.00125  0.78826     14.34408  1.83553  1.26815   28.5841  0.08976     0.31648  8546.38849   6118.38292  1.94449          2319.7713     18.59182  0.00217  59416.63207  12.45423  0.03586    21714.96891   48.4025  18.46913  59471.46755    51.03962        44.2369   23.31791  54.90673   47.0    0.10522  -21.26681  0.99994 
   -19.1189  0.00356  1.22623     14.31155  1.92767  1.13432  38.62665  0.04702     0.36818  7223.56528   6167.99989  1.98986         2381.92199      20.2394  0.09641  59415.37297  12.02313  0.13738    64104.60877  47.56985  18.47718  59468.48723    51.01017       44.20257   28.49967  55.60365   50.5    0.11971  -21.24177  0.99918 
  -12.38419  0.00326  0.73892     14.28456  1.45843  0.80372  26.18668  0.06625     0.01896  7008.30056    6398.7043  3.27343         2542.34105     20.46319  0.16141  59422.10769   7.67243  0.08535    19942.52834  48.39575  18.44661  59471.46755    51.13239       44.33516   28.38805  52.51731   50.0    0.09774  -21.33838  0.99979 
  -16.74591  0.00307   1.1181     14.24541  1.65899  1.30762  46.70733   0.0428     0.01076  7238.79257    6202.1242  1.56568         3013.71663     19.15446  0.00793  59417.74596  14.59972  0.14345    62199.79909  47.59794  18.47014  59468.38835    51.06075        44.2654   32.43149  50.47665   51.0    0.11395  -21.23425  0.99916 
  -16.63188  0.00793  1.04799     14.46756  1.71725  0.69636  12.93879   0.1265     0.04479   5966.6865   6328.70443  1.12794         4228.20657     18.55211  0.00198     59417.86   2.74781  0.10255    20335.13557  48.15471  18.49586  59469.60405    51.09466       44.28677   23.31791  54.40847   51.0     0.1412  -21.24047  0.99954 
  -20.56854  0.00323  1.22959     14.32887  1.72124  0.92803  13.22387   0.1409     0.05918  6718.20547   6128.47853   1.2645         3185.42263     17.83995  0.00038  59413.92334   3.56035   0.0427     53140.9774  47.59974  18.48158  59468.48723    51.15796       44.37974   20.72704  51.11707   51.5    0.11626  -21.00759   0.9997 
  -13.04815  0.01264  0.71888     14.31973  1.71861   1.3173  49.89558  0.04055     0.01626  7752.60159   6948.20284  2.81875         2545.00634     20.21202  0.09052  59421.44372  17.88892  0.63058    18916.74916  48.51386  18.43503  59471.46755    51.24418       44.48111   26.71812   45.8265   51.5    0.12899  -21.42085  0.99922 
  -10.34656  0.00165  0.87109     14.56908  2.10584  1.01017  24.33654  0.08233     0.40115  6609.25747   6691.24588  2.02953          4013.7078     19.30958  0.01133  59424.14532   6.34149  0.04018    10794.51238  48.67894  18.44663  59469.60405    51.06379       44.28473   23.31791  51.81759   51.0    0.10175   -21.1971  0.99995 
  -13.66172  0.00404  1.36547      14.3952  2.01354  1.26894  27.57543  0.07963      0.0586  7781.77899   5940.98111  2.12325         3253.02824     19.73197  0.02997  59420.83015    9.9611  0.11139    56486.18041   47.5503   18.4874  59471.46755    51.18609        44.3915   25.90879  53.34274   52.5    0.12045  -21.30585  0.99927 
  -17.64794  0.00281  1.10142     14.27213  1.72907  1.28813  30.20498  0.05715     0.08325  6437.50364   6255.32568  2.07158         2848.91546     18.45661  0.00159  59416.84393   7.46691  0.08488    55625.44212  47.67748  18.48985  59469.60405    51.12609       44.33018   21.53636  54.18723   52.0    0.09654  -21.20384  0.99956 
  -13.06929  0.00126  1.45378     14.39943  1.85295  0.97201  18.61976  0.10684     0.42761  7162.43902   6044.57814  3.96979         2845.69324     19.62418  0.02338  59421.42258   5.69801   0.0234    57785.92944  47.44989   18.4663  59469.60405     51.1055       44.31969   25.90879  51.81759   52.5    0.10351  -21.22516  0.99979 
  -18.86034  0.01853  0.88179     14.21548  1.45044  0.95809  38.81037  0.02363     0.07777  4294.90504   5890.86127  0.91096         5098.61536     17.12198    7e-05  59415.63153   4.27053  0.71915    38823.13241  47.95052  18.45797  59469.60405    51.03771       44.25744   23.31791  52.31585   53.5    0.12743  -21.14164  0.99701 
  -27.82487  0.00554  1.67248     14.02393  1.51949  1.28014  22.42476  0.05848     0.49101  6192.94063     4139.949  1.07325         2155.51021     18.11428  0.00072    59406.667   5.13037  0.12415   353494.49615  46.45544  18.46985  59471.46755    51.13022       44.35141   21.54443  53.59107   56.5    0.12234  -20.99212  0.99779 
  -14.64401  0.01218  1.24427     14.39948  1.77995  0.90649  24.76734   0.0796     0.11204  7313.64566   5836.54096  2.30088          2899.2113      18.9088   0.0045  59419.84787   7.90268  0.30173    40653.04148  47.72033  18.45581  59471.46755    51.17022       44.37965   23.31791  54.31331   51.5    0.10539  -21.22404  0.99802 
  -25.41159  0.00546  1.33423     14.10159  1.53959  1.32558  30.31465  0.06157     0.01027  7272.21021   6309.15206   0.5289         2599.05353     18.87248  0.00414  59409.08029   9.56341  0.16561   159405.26137  47.00329  18.43018   59471.4974    51.17165       44.38123     29.309  51.00826   50.0    0.12542  -20.98019  0.99822 
  -19.82803  0.00289  2.79505     14.28194  1.78213  0.79161  16.40602  0.07627      0.0594  5987.78195   4260.30617  1.74724         3575.37447     19.28203  0.01064  59414.66385   3.50883  0.04744   352906.00559  46.07935  18.48098  59469.60405    51.04924       44.23825   25.90879  53.83423   54.0    0.12963  -21.20031  0.99813 
  -18.17023  0.02434   1.2065     14.30437  1.82657   1.2793  23.15634  0.08162     0.01163  7249.50091   5939.09735  1.62487         2666.43803     17.06207    6e-05  59416.32164   7.25961   0.5636    60780.51656  47.58366  18.43459  59469.60405    51.17374       44.40865   30.97893  46.74746   51.0    0.12661  -21.22758  0.99664 
  -31.10618  0.00254   1.2868     13.96819   1.2326  0.92964   17.3063   0.0942     0.01145  6553.39579   6123.00949  0.13508         2623.11876     16.37644    1e-05   59403.3857   4.43368  0.04394   219425.28701  46.79936  18.42515  59471.46755    50.99919       44.19606   28.49967  54.40847   52.0    0.12234  -20.94106  0.99937 
  -15.46398  0.00126  1.60902     14.44739    1.811   0.7725   9.35526  0.18193     0.17075   6167.1858   5862.07212  1.98196         3806.89673     18.63918  0.00242   59419.0279   2.12255  0.01175    55473.18282  47.36956  18.47377  59469.60405    51.12579       44.32674   24.13531  54.17916   53.5    0.11141   -21.2125  0.99986 
  -15.73439  0.03188  1.65709     14.28114   1.5853  0.84887  11.38541   0.1353     0.02763  6894.29962    6402.0553  4.03557          2406.4169     17.62831  0.00024  59418.75749   3.22817  0.36295   110747.51943  46.98593  18.45486  59471.46755    51.06692       44.27302   20.72704  54.90673   52.5    0.12478  -21.19055  0.99419 
  -17.49006  0.01269   1.4788     14.25586    1.737   1.2934   10.4191  0.19297      0.0286  7567.85957   6405.87176  1.30858         3202.97261     18.40608  0.00142  59417.00181   3.55962  0.13226   108569.84626  47.13311  18.44987  59471.46755      51.125       44.33419   23.31791  54.40847   48.5    0.11821  -21.24531  0.99858 
  -21.63984  0.00992   2.4181     14.11577  1.61787  1.08229  13.06422  0.10422      0.0113  6176.55353   6214.36698  1.11501         4001.45936     18.73662  0.00303  59412.85203   2.97306  0.12955   515437.15305  45.99866  18.46697  59471.46755     51.0968       44.31956   23.31791  51.81759   50.0     0.1323  -21.20216  0.99559 
  -14.79487  0.01709  1.74771     14.36857  1.97741   1.0874   8.29582  0.21076     0.04253  6977.24146   6304.67284  2.27724         3067.59149     20.05016  0.06236    59419.697    2.4091  0.14177   102731.50277   47.0683  18.44551  59468.48723    51.05888       44.22216   33.68143  51.35138   52.0    0.12394  -21.26015  0.99822 
   -13.7117  0.00282  0.95758      14.4468  1.99063  0.84712   16.6466  0.12305     0.30224  7473.10607     6705.145  1.77233         3563.13393     20.76167  0.32092  59420.78018   5.54568  0.04688    21654.87787  48.26993  18.47416  59469.60405    51.19006       44.40389   31.09055  49.92248   52.5    0.13154  -21.58133  0.99987 
  -29.91498  0.00373   1.5555     13.96123  1.34658  1.20446  10.88774  0.15455     0.01633  6321.90004   6099.64004  0.42437         3607.69626     19.02176  0.00584   59404.5769   2.59573  0.04056   361691.91824    46.456   18.4656  59469.60405    51.01609       44.20182   26.48999  55.02246   51.5    0.11978   -20.9548  0.99925 
  -17.89571  0.00571    1.191     14.54486  1.92346  0.64599   9.85699  0.21598     0.06827  7405.17457   6189.25119  1.10977         3418.09732     19.51792  0.01831  59416.59617   3.22435  0.05629    20606.61458   48.0871  18.47898  59471.46755    51.17401       44.37364   28.49967  49.22671   51.5    0.12013  -21.25499  0.99971 
  -18.16705  0.00321  1.25548     14.38442  1.89417  1.05293  21.27785  0.09416     0.07843   6875.1717   6158.09525  1.21519         3822.80887     18.17875  0.00084  59416.32483    5.9996  0.06829    47207.12895  47.67463  18.47712  59469.60405    51.05812       44.27217   23.31791  54.40847   50.5     0.1212  -21.24897  0.99959 
  -15.40528  0.00111  1.04239     14.34011  1.71936  1.10096  36.07931  0.06404     0.01322  7822.13818     6451.111    1.614         3409.38709     18.91728  0.00459   59419.0866   13.1685  0.04008    36226.56203  47.90912  18.46631   59471.4974    51.24198        44.4531   21.72507  53.41043   50.0    0.13882   -21.2454  0.99983 
  -32.59969  0.00534  2.58414     14.06098   1.7427  0.85392   8.55466  0.12246     0.01139  6012.87628   5473.72691  0.11906         3299.82374     18.89417  0.00435  59401.89218   1.84499  0.04566   816042.03613  45.77372  18.45994  59469.60405    51.11592       44.31223   24.13531  56.18195   51.5    0.13511  -21.13514  0.99839 
  -21.20716  0.00257  1.19821     14.30662  1.61996  0.79866  23.99339  0.07112     0.03637  6640.23897   6197.55961  1.05934         3314.24892     19.82849  0.03743  59413.28471   6.31083  0.06176    52620.09602  47.60013   18.4711  59471.46755     51.0973       44.30661   28.49967  51.81759   51.5    0.12483  -21.07162  0.99953 
  -15.19955  0.00156  1.96272     14.46868  1.74936  0.60759  21.39336  0.08125     0.39997  6967.27193   6151.38676  2.74223         3086.39892     17.99475  0.00055  59419.29233   6.19486  0.03345    72287.37825  47.06695  18.45537   59471.4974     51.1593       44.37224   25.90879  51.81759   53.0    0.12126  -21.22049  0.99935 
  -12.04379  0.02704  1.29365     14.30027  1.70865  1.26727  11.62395  0.15042     0.05804  6890.83389   6192.89004  3.77262         2775.18035     18.64808  0.00247  59422.44809   3.29249   0.3143    66614.34737  47.45429  18.45492  59469.60405    51.04774       44.23879   25.90879  52.31585   52.0    0.11312  -21.20685  0.99757 
  -14.06096  0.00441  1.24085     14.40126  1.50614  0.58363  30.72743  0.05528     0.11161   7071.0744   5929.41704  2.98762         2592.78851     19.79147  0.03437  59420.43091   9.16482  0.13557    33931.01239  47.72868  18.42914  59468.38835    51.04573       44.26734   22.06798  54.26271   51.5     0.1221  -21.26077  0.99875 
  -27.18186  0.01872  2.68665     14.12448  1.65953  0.88329  12.99808  0.10323     0.01343  6380.53472   4561.64457  1.78944         2795.45331     16.29663    1e-05  59407.31001   3.15661  0.24337    626992.4332  45.83314  18.47214  59471.46755    51.26821       44.47211   23.31791  54.40847   54.0    0.12106  -21.11015  0.99017 
   -13.6803  0.02485  0.70501     14.26179  1.41268  1.00894  10.95212  0.19088     0.11016  7331.48834    6315.3193  2.06631         3181.84107      19.0461  0.00618  59420.81157   3.51164  0.27218    19527.96601  48.43185  18.43463  59468.38835    50.98579       44.17023   24.65886  54.26271   53.0    0.12487  -21.28169   0.9995 
  -16.98077  0.03778  1.61877     14.27377  1.57089  0.87186   14.8815  0.11371     0.01883  7067.00229   6175.39886  1.68203          3146.0632     17.11337    7e-05  59417.51111   4.43348  0.56219   108341.08699  47.01183  18.47582  59469.60405    51.19592       44.41517   20.72704  51.81759   52.0    0.13064  -21.23869  0.99136 
  -21.54787  0.02097  0.94091     14.33639  1.87745  0.98631    12.668   0.1294     0.02501  6266.83824   6394.04477  0.76458         3919.31221     20.46181  0.16089  59412.94401   2.96778  0.26569    32785.87978  48.07963   18.4529  59469.60405    51.19966       44.43281   20.72704   49.8148   52.5    0.12021  -21.07792  0.99917 
