 log(Bfield)      Mns    Pspin  cutoff_power  cutoff_wavelength  fnickel    kappa  kappagamma   mejecta  log(nhhost)  temperature  texplosion  thetaPB      vejecta      A_V        MJD_0   log(KE)      M_Ni  Peak_mag     Peak_MJD 
    13.27575  1.74426  0.75698       4.04415         3515.35815  0.28933  0.15253     0.02613  68.21426     18.88025   8330.48182   -11.27895  1.28832   5127.33859  0.00422  56930.22105   52.1707  27.33288   17.5874   57088.7893 
    13.94267    1.762  0.72034       3.76164          3535.6421  0.00577  0.20124     0.04178  79.73105     18.54632   9284.37297   -13.61725  0.19505      7225.53  0.00195  56927.88275   52.4789    0.5579  17.67347  57091.91631 
    13.50709  1.58801  0.79578        4.2498         3337.11348  0.18277  0.10368     0.22809  99.64115     19.75801   4368.63799    -18.4555   0.4786   5412.95231  0.03182   56923.0445  52.24227  18.26723  17.13655  57104.42431 
    14.00816  1.88982  0.74467       4.05393         3606.29922  0.01229  0.10536      0.0835  67.95863      20.5912   9815.17907   -14.09505  0.09431   7544.13717  0.21673  56927.40495  52.50588   1.16034  17.93703   57088.7893 
    13.11778  1.76881  0.72177        4.5938         3351.96262  0.01809  0.12945      0.0224  89.94458     20.17123   8258.29748   -20.76051   1.2394   5344.86636  0.08241  56920.73949  52.22479   1.78122  18.02878   57073.1543 
    13.47734  1.59546  0.76143       3.98021         3532.48848  0.00319   0.1723     0.01432  54.48793     17.23778   7369.77861   -14.86307   0.5961   5075.90325   0.0001  56926.63693  52.14674   0.29079  17.45005   57085.6623 
    13.19512  1.64631  0.71367       3.67581          3968.0442  0.19768  0.13503     0.01139  77.30301     18.35663   7119.34863   -15.33258  1.55803   4899.35949  0.00126  56926.16742  52.13943    19.032   18.4802  56998.10626 
    12.80407  1.87609  1.13123       2.70106         3727.16845    0.036  0.01566     0.15557  66.01849     18.82912   5102.87977   -18.49775  0.94837    6824.7753  0.00375  56923.00225  52.41691   3.38398  17.68511  57107.55131 
    13.28562  1.74674  0.74643       4.74918         3391.33704  0.00158  0.11237     0.01364  80.81313     19.71727   8485.48305   -15.33399  0.89319   4244.84567  0.02897  56926.16601  52.01776   0.15333   17.4986  57095.04331 
     13.3751  1.76446   0.7671       3.63434         3425.13985  0.00726  0.22756     0.01567  55.16165     18.03109   3454.50806   -14.30958  0.77617   6015.82573   0.0006  56927.19042  52.29515   0.66333  17.59099  57091.91631 
    12.59513  1.63398  1.17724       1.51095         3730.15845  0.09157  0.01014     0.01397  97.62122     17.73804   8306.85168   -26.88176  1.43301  15835.29788   0.0003  56914.61824  53.17336    9.1247  17.55201   57085.6623 
    12.81156  1.69256  0.89649       1.96731         3421.57216  0.08565  0.02218     0.27759  58.26826     19.36758   6781.62582   -23.00382  0.43269  14654.09442  0.01295  56918.49618  53.07222   7.89635  17.44403  57091.91631 
    12.37066  1.37644  0.72891       3.21503         2962.90245  0.00197  0.03004     0.26785  40.26432     18.61845    8438.7726   -28.85982  0.97525   8687.73387  0.00231  56912.64018  52.59218   0.17105  17.09212  57060.64629 
    13.34874  1.38521  0.70484       4.18192         4051.89525  0.20361  0.06009     0.02321  93.38445     19.09192   9882.85165   -13.09355  0.47842   4037.56072  0.00687  56928.40645  51.98354  20.15898  17.12701   57085.6623 
    13.09096  1.54594  0.73591        3.5506         3115.13981  0.28336  0.15673     0.03407  98.28616     16.23676   7688.53126   -22.65208  1.47653   6275.50212    1e-05  56918.84792  52.36984  28.26538    18.606  56991.85226 
    13.08138  1.65943  0.78085       3.78714         3704.18793  0.37307  0.23166     0.06395  39.74037     19.17364   5043.96526   -15.62763  1.38988   5854.30391  0.00829  56925.87237  52.24837  32.32786  17.79866   57079.4083 
    13.15692  1.82289  0.81592       3.46206          3573.8849   0.0656  0.21856     0.02112  55.20909     19.93727   3705.44137   -16.43247  1.30749   7482.63283  0.04808  56925.06753  52.48472   5.99624  17.52648  57129.44032 
    13.22172  1.89925  0.74816       3.79783         3496.23547  0.15877  0.17448     0.04977  90.69423     17.13193   5983.44578   -13.33914  1.49605    6716.0205    8e-05  56928.16086  52.42367  15.65276  17.66948  57107.55131 
    13.26063  1.80673  0.72725       3.64358         3478.88919  0.08633  0.17816     0.06799  71.38331     20.11841    6573.9509   -13.83329  1.45049   5523.61625  0.07297  56927.66671  52.23837   8.21227   17.2168  57057.51929 
    13.08468  1.72057  0.81327       2.76645         3594.84151  0.04544  0.13814     0.40078  89.43638     17.50273   8832.45124   -22.64755  1.56401   7292.91425  0.00018  56918.85245  52.49436   4.47024  17.90675   57082.5353 
    13.16433  1.82923  0.73774       3.41132         4453.42592  0.36208  0.14045      0.0161  64.63881     19.63392   3287.77046   -12.36356  1.37741   6673.90632  0.02391  56929.13644  52.39608  33.92296    17.836   57088.7893 
     14.2938    2.119   0.7325       3.43701         3851.07949  0.01277  0.20645     0.08786  68.74612     19.41813   6133.23279   -11.36297   0.1296   5123.06429  0.01455  56930.13703  52.17049   1.20821  18.46439  57001.23326 
    13.41607  1.36355  1.39055       1.05193         4367.96387  0.30808  0.03909     0.31641  78.75353     19.57088   9049.03786   -15.36573  0.32861  24824.39598  0.02068  56926.13427  53.55012  29.74367   17.5739  57113.80532 
    13.60273  1.82948  0.72416        2.6394         3126.36262  0.43674  0.21912     0.02457   83.0273     19.78273   4660.19723   -16.93937  0.61036   6525.99439  0.03369  56924.56063  52.39308  42.49943   17.7275   57085.6623 
    13.32077  1.88145  0.72539       3.58467         3471.63921   0.1431  0.19721     0.01048  95.53673     17.46188   8108.10605   -13.93176  1.35813   6515.43555  0.00016  56927.56824  52.40064  14.21539  17.91379   57070.0273 
    13.18134  1.88243  1.58979       2.51023         3673.53309  0.31551  0.06299     0.33949  28.67998     18.06047   9427.91799    -14.1051  0.78319  19909.33793  0.00064   56927.3949  53.28722  25.85242  17.60764   57079.4083 
    14.38134  1.91339  0.72711       4.95969         3139.97388  0.03289  0.26661     0.15046  53.15639     19.57212    8526.6424   -16.72391  0.07369   4378.42558  0.02074  56924.77609  52.01664   2.98806  17.80024   57082.5353 
    14.19639   1.7922  0.72416       3.97995         3671.44212  0.01036   0.1682     0.07342  58.57018      19.7135   4512.51358   -11.79884  0.15566   3832.13987  0.02872  56929.70116  51.90754     0.956  17.50463  56988.72526 
    13.80097  1.81335  1.32057       4.01134         3201.21726  0.02714  0.04087     0.04321  73.87524     18.24259   6941.83503   -22.57332  0.24685   4058.02541  0.00097  56918.92668  51.97281    2.5955   18.4835  56988.72526 
     13.3264  1.87305  0.73804       3.22567         3427.59077  0.00344  0.24969     0.49437  73.96513     18.65669   8043.07826   -20.24104  0.91471   5611.38881  0.00252  56921.25896   52.2544   0.32905  17.31079  57098.17031 
    13.64255   1.8262  0.90285        3.3417         3207.55612  0.00447  0.24802     0.24045  57.97996     19.94744   7415.00696   -20.67949   0.3795   9219.21575  0.04922  56920.82051  52.66936    0.4117  17.07654  57095.04331 
    15.02386   1.5009  2.68357       0.51712         4057.34195   0.1818  0.01114     0.04397  84.14491     17.76758   8975.15562   -20.62266  0.01493  25332.50075  0.00033  56920.87734    53.572  17.72564  18.07254   57085.6623 
    13.27393  1.67723   0.7341        3.8144         3627.45562  0.00263  0.12316      0.0148  85.60749     16.57769   6629.61052   -14.68472  1.14241   5047.01918    2e-05  56926.81528  52.17183   0.25692  17.81395   57088.7893 
     13.1608   1.3567  0.71476       3.62914         3767.59128  0.14299  0.08244      0.0385  96.83001     19.74141   6026.15612   -13.65747  1.48168   4350.19654  0.03063  56927.84253  52.05062  14.23273  17.95386   57088.7893 
    14.22214  1.82956   0.7336        3.2815         3719.85299  0.17624    0.159     0.12646  98.48433     19.93926   6088.08999   -14.33527  0.07557   9184.60503   0.0483  56927.16473  52.70079  17.58504  17.48453   57085.6623 
     13.3117  1.99034  0.70714       3.90118         3465.35738  0.01746  0.23419     0.01005  66.25537     19.51548    7644.3342   -14.59773  0.96954   5249.44845  0.01821  56926.90227   52.1892    1.6419  18.23611  56976.21725 
    13.38225  1.93178  0.71272       3.08969         3513.53008   0.0013  0.27849     0.01306  63.82788     19.43385   6702.26021   -15.28652  1.10179   5211.52355  0.01509  56926.21348   52.1804   0.12136  17.08041  57101.29731 
    13.19629  1.52093  0.75255       3.32178         3648.89164  0.00602  0.15259     0.07275  57.11306     19.08292    8110.7945   -15.94832  1.45304   3965.52818  0.00672  56925.55168  51.93554   0.55367  17.50092   57085.6623 
    13.22601  1.80313  0.72136       3.89731         4770.37272  0.04332  0.08173     0.13315  93.95586     16.56023   5375.66103   -11.00668  1.43147   5415.80315    2e-05  56930.49332  52.23902   4.29249  17.75726  57036.52366 
    13.30578  1.62374  0.70852        4.1838         3417.41137  0.44775  0.13469     0.04695  73.05185     20.28101   9075.06109   -13.45139  1.11267   4738.39623  0.10611  56928.04861  52.10671  42.74208  17.79565  57091.91631 
    13.26652  1.97602  0.70423       4.90185         3032.48569  0.00157  0.21936     0.10887  86.43268     18.68171   8217.24254   -26.56549   0.9054   4805.49437  0.00267  56914.93451  52.12985   0.15409   18.7256  56991.85226 
     13.2607  1.80669  1.54139       2.63753         3979.42561   0.0659  0.01775     0.17217  56.72139     18.65821   9720.28085   -13.82118  0.57221  13408.94986  0.00253  56927.67882  52.99326   6.04936  18.64203  57035.63028 
    14.18075  1.96229  0.74813       3.27803         3673.04115  0.18868  0.29683     0.21178  53.71421     19.67157    3444.7898   -17.30327  0.08012   8174.74703  0.02608  56924.19673  52.55967  17.17172  18.28902  57026.24928 
    13.40576  1.88895  0.76906       4.54546         3333.53951  0.01105  0.09573     0.10995   86.6703     19.06299    8374.5483   -11.71911  1.55301   3189.66572  0.00642  56929.78089  51.77404   1.08243  17.39414  57101.29731 
    14.15095  1.87234  0.72769       4.65482          3162.3129  0.10749  0.13666     0.13286  80.84998     20.14369   3811.34185   -11.42117  0.16078   4820.01199  0.07734  56930.07883  52.12816  10.41843  17.66899   57076.2813 
    12.83148  1.57831  0.77606       2.45795         5620.49696  0.23567  0.27573     0.34486   9.62819     18.79388   9793.21107   -12.56799  0.65251   21918.9166  0.00346  56928.93201  53.27781  15.59022  18.07617  57007.48727 
    13.05705  1.51844  0.74856       3.94213         3583.16739  0.08617  0.14196     0.11099  62.52671      18.3103   7656.76992   -16.75888  1.52235   5576.71558  0.00114  56924.74112  52.23784   8.03163  17.78834   57088.7893 
    13.41233  1.84422  0.79229       3.46533         3231.36924  0.00755  0.20407     0.12799  76.25918     20.07959   6694.72589   -15.14882  0.81213   6767.15417  0.06673  56926.35118  52.41907   0.72535  17.83319   57082.5353 
    13.30987  1.77951  0.70199       4.02039         3611.65829  0.04804   0.1325     0.08173  94.38718     18.35886   8299.47303   -12.32266  0.77173   6081.92829  0.00127  56929.17734  52.34007   4.76348  18.76016  56976.21725 
    13.48592  1.84735  0.70798       4.75553         3417.81052  0.48857  0.15827     0.01205  80.14906     19.32312   7383.03218   -12.18016  0.74518   3998.35869  0.01169  56929.31984  51.96527  47.29345  17.49615  57091.91631 
    13.09246  1.63564  0.71041       4.31263         3598.58591  0.00119  0.09304     0.02728  91.96281     18.24138   9956.00664    -16.5453  1.18208   4255.70648  0.00097   56924.9547  52.02828   0.11737  17.89901  57095.04331 
    13.08744  1.69896  0.75588       3.81082         3381.34185  0.01818  0.17427     0.21242  62.94115     18.03545   5846.12394   -27.61112  1.11955   4284.83476   0.0006  56913.88888   52.0094   1.69581  18.68835  57016.86827 
    13.17063  2.02521  0.93569       3.68863          3710.0342  0.00124  0.12338     0.01582  56.41892     16.65492   4215.61926    -18.5784  1.40755   5021.78504    3e-05   56922.9216  52.13982   0.11395  17.52272  57129.44032 
    12.82163  1.99881  1.14807       1.36154         4701.56982   0.1836  0.03613     0.11591  98.01967     17.08269   8297.88432   -14.78138  1.53634  25370.05644    7e-05  56926.71862  53.58301  18.30719  17.69901  57095.04331 
    13.71702  1.82407  0.81493       3.81144         3665.18874  0.00249  0.15596     0.05958  60.47621     19.21599   8541.42861   -15.23231  0.29958   5568.70139  0.00914  56926.26769  52.23434   0.23054  16.55508   57079.4083 
    13.95385  1.63531  1.66707       3.84246         3619.50578  0.02044  0.01189     0.23511  44.46806     18.37328   4186.17267   -16.77724  0.12922   5336.31142  0.00131  56924.72276  52.17597   1.80413  18.52963  57029.37628 
    14.04823  2.12676  0.70826       3.70292         3960.87403  0.15108  0.17654     0.15074  65.56512      20.1517   5404.81308    -9.50756  0.22147   4957.31734  0.07878  56931.99244  52.13876  14.18606  17.49061  57095.04331 
    13.09722  1.90737  1.53552       3.20643          3251.7388   0.0748  0.02235     0.06684  44.02501      17.7596   9465.54804   -15.82589  0.77625  13883.37407  0.00032  56925.67411  53.00577   6.59275  17.38928  57098.17031 
    13.35038  1.86172  0.70798        3.6428         3481.89098  0.31446  0.25853     0.02786  67.58825     19.17485   8636.60943   -12.60694  1.51153   5903.42318  0.00831  56928.89306  52.29251  29.66418  17.82685   57076.2813 
    13.00273  1.43047  0.80797       4.02751         3615.47579   0.0339  0.05661     0.02612   88.0114     16.63118   8439.65814   -19.31473  1.42832   4004.09015    2e-05  56922.18527  51.97254   3.32703   18.8069  56985.59826 
    14.23167  1.84126  0.87933       3.29468         3725.30495  0.01817  0.16857     0.39999  56.34112     16.56214   4204.83507   -13.67295  0.10218   6859.43152    2e-05  56927.82705  52.41058    1.6661  17.68839  57016.86827 
    13.10754  1.92573  0.87061       3.83778         3388.48292   0.0109  0.18352     0.01319  46.03157     19.78658   4017.60797   -18.62213  1.26706   6076.85559  0.03399  56922.87787   52.2913   0.96787  17.65004  57113.80532 
    13.42684  2.11196  0.71562       3.09343         3641.51064  0.00993  0.21958     0.04447  72.37991     16.73746   4075.37974   -15.11195  0.75962   4950.17185    3e-05  56926.38805  52.14408   0.94686  17.91312  57107.55131 
    12.66513  1.39849  0.93883       1.90049         4589.58439  0.35327  0.03041     0.24855  61.20817     16.95626   9882.71143   -14.41848  0.73743  18558.06935    5e-05  56927.08152  53.28071  32.81934   17.7592  57095.04331 
    13.73398  1.67955  0.91899       2.73864         3314.80727  0.43662  0.13226     0.04962  79.69499     18.32437    7395.6392   -19.06665  0.18504  10083.01214  0.00117  56922.43335  52.76831  42.22839  17.82434  57039.52813 
    12.86837  1.87277   1.0677       3.58529         3377.90238   0.0973  0.02363     0.01012  84.48894     17.54446   7506.80031   -18.62481  1.15129   5544.67432  0.00019  56922.87519  52.25266   9.49265  18.74222  57010.61427 
    13.31756  2.06505  0.71049       3.61946         3493.68988  0.30375  0.19028      0.0349  91.00845     18.21763   3202.18479   -16.74009  1.48557   5139.67221  0.00092  56924.75991  52.19154  29.96091  17.50251   57085.6623 
    13.55834  2.12145  0.93066       3.66377         3494.14579  0.03443  0.23237     0.01861  48.23181     19.52285   6097.43615   -19.30004  0.61901   4788.29624  0.01852  56922.19996  52.08759   3.07975  18.75475  56966.83625 
    12.79469  1.68267  1.03131       4.49648         3815.80381  0.02942  0.01134     0.01644   84.8941     17.46598   7850.23189   -14.73343  1.33235   4316.36509  0.00016  56926.76657  52.03545    2.8719  17.53624   57076.2813 
    12.56012  1.85868  0.75594       3.84043         3506.49788  0.16625  0.10985     0.08648  26.77535     16.85803   7066.29693   -21.66696  1.24941   7268.05955    4e-05  56919.83304  52.40665  13.45685  18.10709  57007.48727 
    12.89487  1.58061   0.7139       3.18109         3269.77117  0.00667  0.22908     0.10074  58.50817     16.32885   7525.80263   -28.26241  1.14364   7611.65678    1e-05  56913.23759  52.50354   0.61537  17.82374   57088.7893 
    13.24112  1.73854   0.7741       1.95091          3738.7802  0.00228  0.26798     0.03471  61.61101     20.21495   4664.67564   -23.90013  0.88132   7352.82029  0.09113  56917.59987    52.477   0.21182  17.65399  57036.52366 
    14.30197  1.60912  0.70108        4.0271          3336.2012   0.2493  0.15031     0.03653  90.91765     19.31356   5763.05602    -12.1446   0.0951   6128.82781  0.01144   56929.3554  52.34436  24.58676  17.67436  57107.55131 
    13.26263  1.59724  0.83085        4.4909         3588.79661  0.00226  0.07312     0.06219   93.9705     16.39933   5603.18219   -14.86544   0.8913   4789.08061    1e-05  56926.63456  52.13221   0.22412  18.91094  56991.85226 
    13.60951  1.98062  0.74666       2.97263         3428.49338  0.09517  0.23443     0.05546  59.08537     20.51003   6691.81622   -19.53195  0.24132  10544.97167  0.17979  56921.96805  52.78734   8.79273  17.14128  57098.17031 
    12.90642  1.76903  1.44256       3.02324         2924.64023   0.1032  0.01973     0.25514  32.89128      16.6277   9200.67598   -20.54813  0.78372  12449.70432    2e-05  56920.95187   52.8898   8.66065  17.55061   57076.2813 
    13.06029  1.88672  0.73365       3.68375         4263.93222  0.47007  0.17785     0.10625  66.40344     18.43515   8448.37807    -11.8929  1.22232  10497.48741  0.00151   56929.6071  52.79129  44.22412  16.86146   57073.1543 
    13.47808  1.78132  0.88659       4.30833          3594.8273   0.3878  0.06566      0.0175  99.17067     19.35132   4914.93562   -11.35173  1.22875   3527.69057  0.01248  56930.14827  51.87008  38.73289  17.66399   57088.7893 
    13.50996  1.99324   0.7564       4.45677         3431.21571  0.00119  0.18077     0.02131  73.62545     17.62198    8395.8819   -12.22652  0.85217   4930.63425  0.00023  56929.27348  52.14176   0.11412  17.96215  57001.23326 
    13.00404  1.05804  0.81408       1.26095         3035.39015  0.17018  0.08079     0.34981  24.08253     17.11361   8251.32805   -20.97649  0.23505  21519.63076    7e-05  56920.52351  53.34118  13.51435  17.97605  57098.17031 
    13.53801  1.99858  0.72937       4.47178         3280.51269  0.00129  0.28544     0.04456  51.24339     16.24539   5747.84194   -15.64843  0.51326   4978.96129    1e-05  56925.85157  52.12574   0.11614  17.77961  57095.04331 
     14.1723  2.03479  0.96347       4.12349         3148.18953  0.07651  0.30344     0.04398  40.90153     19.85313    8550.7046   -18.83803  0.12743   7309.45731  0.03962  56922.66197  52.44327   6.66148  18.05738  57001.23326 
    13.81283  1.92571  0.73201       2.53146         3403.07127  0.09749  0.26182     0.01561  71.95273     19.43878   5131.44251    -9.03414  0.44254   8733.95581  0.01526  56932.46586  52.63687   9.28521   17.8205  57116.93232 
    13.29281  1.59358  0.94981       3.72032         3470.82719  0.49798  0.07898     0.05736  85.21994     16.33004   5528.51678    -15.6303  1.01426   5386.13604    1e-05   56925.8697  52.22802  48.64589   17.9933   57079.4083 
    13.38574  1.42789  0.71798        4.2582         3441.28382   0.0469  0.11705     0.16641  62.79158     19.47072   3991.70231   -15.07547  0.61793   3983.81731  0.01642  56926.42453  51.94597   4.37442  18.08353  57066.90029 
