 texplosion  fnickel     Pspin  log(Bfield)      Mns  thetaPB  mejecta    kappa  kappagamma     vejecta  temperature    alpha  cutoff_wavelength  log(nhhost)      A_V         MJD0  kenergy  mnickel                 TSD   log(L0)  Peak_mag     Peak_MJD  log(E_rad)  log(Peak_lum)  Rise_Time    E_fold  tau_1  delta_m15     r_peak     frac 
   -2.74147  0.26245  19.20289     12.65463    1.458  0.03753  3.00785  0.01022     0.01051  5826.19144   9960.66111  4.95386         3845.84939     18.41135  0.00143  59340.55807  0.60905  0.78942   24493505869.65036  39.47682  17.71849  59352.99416    49.91603       43.40507   10.36111   23.7705   33.5    0.84812  -19.53492      0.0 
   -2.87651  0.26049  29.01734     12.26857  1.26656  1.37604  3.19029  0.01003     0.01454  5627.58506   9954.22353   4.7632         3800.25117     18.39871  0.00139  59340.42303   0.6027  0.83103  287480491497.65454  37.98755  17.69653  59352.99416    49.91189       43.40754   10.36111   23.7705   39.0    0.79069   -19.5211    8e-05 
   -2.67396  0.25227  16.26513     12.27164  1.78837  0.16159  3.02896  0.01007     0.01393  5879.51589   9943.82309   4.9891         3955.90616     16.85524    4e-05  59340.62558   0.6246  0.76411  125750862350.93877  38.99928  17.75372  59352.99416    49.95086       43.38981   11.32452  26.20847   33.5    0.88233  -19.56542    2e-05 
   -2.66912  0.27382  25.25765     12.08224  1.98493  0.41481  2.96242  0.01005     0.02171   5715.0827   9980.88762  4.85447         3804.93145     18.29823   0.0011  59340.63042  0.57719  0.81117   805142915016.2828  37.85593  17.71654  59352.99416    49.93561       43.39749   10.36111  26.20847   39.0    0.82612   -19.5292    1e-05 
   -2.64031  0.26117  15.29916     12.28785   1.8943  0.04842  3.03048  0.01008       0.011  5767.58238   9938.39061  4.83593         3891.17048      17.8394  0.00038  59340.65923  0.60135  0.79148  109371065268.86221  39.13806  17.73041  59352.99416    49.95735        43.4001   11.28096  26.20847   34.0    0.84125  -19.54538      0.0 
   -2.79453  0.24883  19.25632      12.8098  1.84073  0.00206  3.18464  0.01004     0.01132  5623.95652   9967.70937  4.91361         3891.69076      16.4352    2e-05  59340.50501  0.60086  0.79244    15217960870.0089  39.78233   17.7175  59352.99416    49.91737       43.38531   10.36111  26.20847   35.5    0.81924  -19.53312      0.0 
   -2.59121  0.27831  22.69155     12.74779  1.60892  0.85454   2.9084  0.01084     0.01421  6096.97276   9823.21399  4.91395         3834.21108     18.71248  0.00287  59340.70833  0.64493  0.80945   24575327297.60182  39.37315  17.68996  59352.99416    49.95219        43.4049   10.36111   23.7705   35.0    0.85112  -19.56535  0.00121 
   -2.82268  0.27118   8.10977     12.12734   1.7975  0.23071  2.95571  0.01081      0.0122  5843.07942   9972.87372    4.962         3879.70943     16.92259    5e-05  59340.47686  0.60197  0.80153   61070113959.14955  39.91967  17.69209  59352.99416    49.91667       43.41741   10.36111   23.7705   34.5    0.84546  -19.56059   0.0004 
   -2.93705  0.26698  20.18945     12.45545  1.56565  0.42846  3.02701  0.01065     0.01454  5755.08347   9982.62406  4.87433          3847.4728      17.3246  0.00012  59340.36249  0.59806  0.80815   72753983175.07835  38.99143   17.7505  59352.99416     49.9776       43.40573   10.36111  26.20847   37.0    0.82553  -19.53682  0.00015 
   -2.66248  0.26151  16.20316     13.72016  1.72903  0.41479  2.93747  0.01024     0.01132  5565.52564   9915.99197  4.70829         3944.95182     18.15737   0.0008  59340.63706  0.54277  0.76817     152931667.67097  41.90295  17.71615  59352.99416    49.92172       43.39439   10.36111  26.20847   36.5    0.81634   -19.5268  0.09877 
   -2.83061  0.25958  10.36541     12.69926  1.56009  0.49903  3.10177  0.01024     0.01142  5871.96548   9980.00428  4.84384         3861.77227     16.44401    2e-05  59340.46893  0.63798  0.80516    6217460324.50936  40.63721  17.72326  59352.99416     49.9316       43.40034   10.36111  26.20847   34.5    0.83919  -19.55002  0.00893 
    -2.9513  0.25421  15.54611     12.76606  1.77241  0.20815  3.11899  0.01057     0.01058  5572.75859   9971.20322  4.99091         3854.99975     17.27933  0.00011  59340.34824  0.57781  0.79288   11681439095.86702  40.06667  17.72906  59352.99416    49.97156       43.39654   10.36111  26.20847   35.0    0.83324  -19.51321  0.00046 
   -2.97485  0.23314  27.99259     12.19667  1.28184  0.61299  3.32503  0.01016     0.01202  5564.96447   9906.42667  4.98969         3915.00771     17.36706  0.00013  59340.32469  0.61425  0.77521  377055475950.03937  37.90619  17.73709  59352.99416    49.93468       43.41253   10.36111  26.20847   36.5    0.83908  -19.51461    3e-05 
   -1.18957  0.21214  15.12017     15.10421  1.49872  1.54126  3.40744  0.01191     0.01224  5491.22451    9929.9657  4.81605         3077.83977     17.06775    6e-05  59342.10997  0.61291  0.72287        196891.33341  44.79123  17.71385  59352.99416    49.94089       43.40876   11.28096  26.20847   28.5    0.90666  -19.54392   0.4873 
   -1.29084  0.19685  16.33357     15.06855  1.46977  1.27956   3.4961  0.01045     0.01292  5436.37513   9995.32065  4.60338         3149.63593     17.42577  0.00015   59342.0087  0.61635  0.68819        265535.37756  44.58581  17.72688  59352.99416     49.9186        43.3854   10.36111  26.20847   27.5    0.91647  -19.56587  0.44998 
   -2.74291  0.27501  16.40476     12.93108   1.8451  1.34311  2.90814  0.01038     0.01149  5898.79013   9938.32115  4.94794         3856.93591      18.6553  0.00251  59340.55663  0.60363  0.79976    6333193654.27924   40.3033  17.72893  59352.99416    49.93798       43.40487   10.36111  26.20847   33.5    0.86074  -19.56226  0.01691 
   -3.25265  0.23925  23.95259     12.48977   1.4493  1.49542  3.32399  0.01074     0.01032   5682.0927   9916.74906  4.97027         3911.27212     18.19552  0.00087  59340.04689  0.64018  0.79525   80936257796.96622  38.76316  17.72824  59352.99416    49.93472       43.38696   10.36111  26.20847   35.0    0.81195  -19.53282  0.00053 
   -2.60117  0.27397   6.20283       12.167  1.82054   0.4719  2.98297  0.01022     0.01292  5887.99593   9940.59905  4.65524         3827.59604     17.93736  0.00048  59340.69837   0.6169  0.81725   30143438398.83245  40.46467   17.7164  59352.99416     49.9298       43.40067   10.36111  26.20847   36.0    0.82354  -19.53861  0.00538 
   -3.13663  0.24263  25.04717     12.40882  1.68439  0.43102  3.30704  0.01011     0.01637  5504.26943   9929.09598  4.89958         3870.95811      17.0294    6e-05  59340.16291  0.59768   0.8024  149326192212.68793  38.52363  17.72842  59352.99416    49.96225       43.40349   10.36111  26.20847   39.5    0.79946  -19.51553    5e-05 
   -2.89364  0.24823  26.48784     12.88289  1.53992  0.36356  3.21956  0.01002     0.01185  5742.60768   9929.02441  4.87831         3871.25166     17.48184  0.00017   59340.4059  0.63335  0.79919   17203881468.75745  39.37463  17.73481  59352.99416    49.94143       43.39179   11.28096  26.20847   36.0    0.82818  -19.53675  0.00027 
   -2.76516  0.25751  23.20144     12.43313  1.50547  0.44444  3.10689  0.01032     0.01026  5741.52472   9978.75258  4.95364         3869.86235     16.40263    1e-05  59340.53438  0.61095  0.80004  102387905824.53308  38.70524  17.70545  59352.99416    49.91977       43.38521   10.36111  26.20847   34.0    0.82667  -19.54436    9e-05 
    -2.8629  0.26237  28.49288     12.41781  1.64478  0.82521  3.05512   0.0108     0.01027  6014.48534   9997.07504  4.87331         3825.69449     16.70683    3e-05  59340.43664  0.65925  0.80157  181037722017.81003  38.31771  17.74731  59354.14844    49.93588       43.37265   11.32452  28.64644   33.0    0.83411  -19.53368   0.0001 
   -2.50082  0.26787  20.79848     13.35841  1.52601  0.52183   2.9361  0.01045     0.01024  5875.67772   9979.21823  4.99765         3914.67533     18.84842  0.00392  59340.79872  0.60466  0.78648    1176587156.45673  40.74572   17.7064  59352.99416    49.92586       43.39512   10.36111  26.20847   32.5    0.85696  -19.57349   0.0124 
    -2.7969   0.2536  10.24659      13.0973  1.86691  0.58854  3.13785  0.01011     0.01006   5772.3396   9986.18046  4.95895         3809.33041     17.34497  0.00012  59340.50264  0.62368  0.79575    1162772576.11208  41.45331  17.69711  59352.99416    49.94314        43.4049   10.36111  26.20847   35.0    0.81349   -19.5202  0.07255 
   -2.79243  0.25554  15.77244     13.07295  1.91765  0.09806  3.08678   0.0102     0.01575  5746.45011    9995.9559  4.90713          3929.9728     17.78418  0.00034  59340.50711  0.60804  0.78878    3165800038.55673  40.65533  17.68209  59352.99416    50.06261       43.65137    8.81277  14.69795   36.0    0.84745  -19.55997   0.0004 
   -2.69416  0.25459  12.02556     12.02847  1.70991   0.2047  3.11337  0.01034     0.01273  5696.57559   9952.26678  4.98955         3915.16017      16.1827    1e-05  59340.60538  0.60268  0.79264  201394733758.46927  39.03756  17.68163  59352.99416    50.07115       43.64704    8.81277  14.69795   35.0    0.85573  -19.55608    4e-05 
   -2.76121  0.25726  26.44863     13.18355  1.73669  1.01715  3.07555     0.01     0.01112   5715.7637   9999.05115  4.90833          3865.0367      16.2515    1e-05  59340.53833  0.59938  0.79121    4844503887.84724  39.97851  17.72888  59352.99416    49.93534        43.3967   10.36111  26.20847   34.5    0.83715   -19.5343  0.00623 
   -2.89948  0.23846  21.41152     12.64343   1.9437  0.15569  3.33795  0.01028     0.01048  5767.33535     9881.788  4.90694         3879.94827     17.03952    6e-05  59340.40006   0.6623  0.79597   42744742048.72334   39.2653  17.72478  59352.99416    49.96309       43.39389   10.36111  26.20847   35.0    0.83757  -19.52926    4e-05 
   -2.75221  0.26787  13.38059     13.16324  1.78747   0.9327  2.96896  0.01037     0.01406  5833.90731   9979.10428  4.78689         3836.19325     18.45932   0.0016  59340.54733  0.60277  0.79528    1401259675.57574  41.12162   17.7315  59352.99416    49.93177       43.39732   10.36111  26.20847   37.0    0.82583  -19.52843  0.06939 
    -3.1572  0.25152  20.23823      12.6265  1.91903  0.08416    3.247  0.01079     0.01361  5708.39076   9984.37875  4.99942         3813.66411     17.10421    7e-05  59340.14234  0.63116   0.8167   40760807002.01238  39.32934  17.69729  59352.99416    49.90972       43.40763   10.36111   23.7705   37.5    0.79599  -19.52036    1e-05 
   -2.76451  0.28626  29.13425     13.71718  1.94877  0.09198  2.88326  0.01011      0.0106  5957.74592   9944.45445  4.91633         3722.88032     18.09232  0.00069  59340.53503  0.61049  0.82537     564957883.88858  40.87778  17.74044  59354.14844    49.92583       43.36306   11.32452  28.64644   34.0    0.81956  -19.53265  0.00056 
   -2.96323  0.24931  26.71904     12.96512  1.60761  0.55359  3.23755  0.01075     0.01004  5614.03933   9931.40256  4.76759         3878.71205     16.00036    1e-05  59340.33631  0.60869  0.80715   12514119870.38106  39.52398  17.71481  59352.99416    49.95631       43.39693   10.36111  26.20847   36.0    0.80786  -19.51485  0.00084 
   -2.77547  0.24631  12.83252     12.01974  1.69102  0.23989   3.2032  0.01001     0.01481  5710.24505   9887.42102  4.81515           3897.455     18.22147  0.00093  59340.52407  0.62305  0.78897   236107375076.1623  38.90726  17.70194  59352.99416    49.92386       43.41682   10.36111   23.7705   37.5    0.82315  -19.52898    4e-05 
   -2.89431  0.27315  19.42015     13.18616  1.62552  0.16092  2.98761  0.01128     0.01031  6003.63327   9985.32091  4.96342         3799.12921     17.89695  0.00044  59340.40523  0.64236  0.81607    2415392639.45938  40.52035  17.72244  59352.99416     49.9162       43.38471   10.36111  26.20847   33.5    0.82564  -19.54021  0.00076 
   -2.61967  0.25832   7.95734     12.34199  1.91073  0.91574   3.0339  0.01045     0.01139  5740.92455   9985.79322  4.93133         3930.46029     17.11125    7e-05  59340.67987  0.59647  0.78371    23258189032.3769  40.38193  17.72858  59352.99416    49.96766       43.40453   11.32452  26.20847   34.0    0.86223   -19.5551  0.01395 
   -2.88164  0.25634  18.75567     13.49593  1.63844  0.30249  3.15585   0.0103     0.01105  5777.70649   9973.59829   4.8698         3845.34492     18.67755  0.00264   59340.4179  0.62843  0.80898     545312362.09561  41.20037  17.72254  59352.99416    49.91057       43.40034   10.36111   23.7705   35.5     0.8193  -19.53732  0.01235 
    -2.7215  0.26037  23.63533      12.1907  1.42522  0.40243  3.00814  0.01027     0.01246  5658.50556   9995.19775  4.90452         3938.01004     18.86312  0.00405  59340.57804  0.57455  0.78322   307196507335.5889  38.18819   17.7372  59352.99416    49.95526       43.38636   10.36111  26.20847   35.0    0.84354  -19.55388    2e-05 
   -2.87865   0.2718  27.23421     12.09745  1.95532  0.08312  2.99966  0.01132     0.01044   5906.8802   9986.39722  4.97524         3851.61806     19.25949   0.0101  59340.42089  0.62433  0.81531   859730407855.2777  37.75547  17.72757  59352.99416    49.92712       43.39012   10.36111  26.20847   33.0    0.82391  -19.55713      0.0 
     -1.466  0.19601  16.63164     15.06518  1.47465   1.3908  3.46893  0.01113     0.02162  5527.89951    9962.0423   3.7384         3393.57631     17.17874    8e-05  59341.83354  0.63233  0.67995        280548.72932  44.54766  17.70842  59352.99416    49.92907       43.40476   10.36111  26.20847   27.0    0.93541  -19.57718  0.44523 
   -2.95516  0.24186  25.79627     12.18798  1.90592  0.21267  3.26873  0.01025     0.01005  5559.83431   9869.69133  4.95708         3907.36595     16.11181    1e-05  59340.34438  0.60274  0.79056   495539023799.5907  38.03076  17.72649  59352.99416    49.93781       43.41223   10.36111  26.20847   35.0    0.83516  -19.52824      0.0 
   -3.06758  0.23779  23.10851     12.64174  1.75856  0.83301  3.35099  0.01091     0.01188  5910.88005   9954.03939  4.96403         3869.17144     17.79352  0.00035  59340.23196   0.6984  0.79682   45397192038.02065  39.12943  17.71273  59352.99416    49.93563       43.40561   10.36111  26.20847   35.5    0.83074  -19.52837  0.00068 
    -2.8378  0.26731  20.72783     12.69722  1.78566  0.32818  2.99896  0.01116     0.01037   5860.3545   9852.67571  4.90583         3897.84943     18.69765  0.00277  59340.46174  0.61439  0.80165    28726333280.8692  39.42926  17.69687  59352.99416    50.02663       43.57412    8.81277   17.0658   33.5     0.8303    -19.556  0.00026 
   -3.08977  0.24852  29.24069     12.10171  1.64177  0.74012  3.28194  0.01054     0.01055  5562.76724   9968.21879  4.90048         3821.18175     18.83808  0.00383  59340.20977  0.60581  0.81563   815992601387.6167   37.6405  17.69907  59352.99416    50.02671       43.62058    8.81277  14.69795   37.0    0.80465  -19.50575    2e-05 
   -2.52714  0.27018   9.63631     12.89796  1.84994  0.86029  2.93436  0.01029     0.01031  5969.79089    9995.1772  4.96983         3831.84678     16.73347    3e-05   59340.7724  0.62382   0.7928    2551904198.97825  41.16132  17.68393  59352.99416    50.00204       43.56656    8.81277   17.0658   33.0    0.84615  -19.55329  0.06983 
   -3.16174  0.23395  11.50821     12.06869  1.90511   0.2684  3.39027  0.01005     0.01193  5632.80616   9968.03629  4.80478         3933.57384     17.57768  0.00021   59340.1378  0.64167  0.79315   170751090296.1702  39.19439  17.66841  59352.99416    50.03748       43.60432    8.81277  15.54903   36.5    0.81677  -19.53256   0.0001 
    -2.7375  0.27732  23.68214      12.2544  1.54731  1.18409  2.95912  0.01124     0.01485  6130.30659   9924.42032  4.96213         3756.81079     16.97825    5e-05  59340.56204  0.66337  0.82061  249713923664.15607  38.31214   17.6842  59352.99416    49.92531       43.42073   10.36111   23.7705   36.0    0.82513  -19.53712  0.00016 
   -2.84667  0.24394  21.48977     12.05042  1.31912  0.97745   3.2601  0.01008     0.01052  5590.73536   9972.05104  4.74201         3943.67163      16.5216    2e-05  59340.45287  0.60785  0.79526  448465144293.62665  38.07294  17.73146  59352.99416    49.92813        43.3807   11.28096  26.20847   35.0     0.8351  -19.53875    8e-05 
   -2.86858  0.24953  29.26847     12.35493  1.61818  0.71898  3.24351  0.01008     0.01151   5824.9218   9973.92481    4.986         3793.20379      16.1773    1e-05  59340.43096  0.65648  0.80935   251062985939.6834  38.14529  17.68836  59352.99416    50.04073       43.59358    8.81277  15.56737   36.0    0.81804  -19.52352    5e-05 
   -2.96444  0.25088   18.6252     13.48256  2.01287  0.11147  3.19685  0.01017     0.01039  5523.18027   9976.07507  4.86334         3877.11408      18.7581  0.00318   59340.3351  0.58174  0.80202     702620468.57253  41.18574  17.70424  59352.99416    50.10178       43.63684    8.81277  15.54903   35.5    0.80318  -19.52241  0.00173 
   -2.65621  0.27807  21.13977     12.36278  1.87647  1.11812  3.03904  0.01032     0.01026  5881.91651   9946.84832  4.76157         3737.89753     16.17551    1e-05  59340.64333  0.62719  0.84506  146488625036.24927  38.72618  17.72876  59352.99416    49.93958       43.38676   11.32452  26.20847   34.5    0.79809  -19.53058  0.00037 
   -2.92757  0.25668  18.75372     12.84587  1.63642  1.30275  3.11938  0.01045     0.01145  5663.76442   9950.96772  4.95651         3855.12334     17.38461  0.00013  59340.37197  0.59691  0.80068   10867830500.20375  39.90042  17.69473  59352.99416    49.94512       43.41506   10.36111  26.20847   36.0    0.81664  -19.52969  0.00666 
   -2.92121  0.24215  16.09828     13.51598  1.75714  0.10434  3.27015  0.01045     0.01279  5694.64975   9957.89746  4.99313         3905.51023     19.06524  0.00646  59340.37833   0.6326  0.79186     392844162.58521  41.50587  17.69165  59352.99416    50.07618       43.62104    8.81277  15.56737   36.0    0.84203  -19.53893   0.0032 
    -2.7556  0.25654  18.58735     13.00052  2.01822  0.05976  3.07998  0.01045     0.01045  5733.29155   9845.47553  4.91999         3947.42166      17.7492  0.00031  59340.54394  0.60393  0.79013    6459127553.44714   40.2252  17.67049  59352.99416    50.09025       43.65055    8.81277  14.62783   34.0      0.839  -19.56562    6e-05 
   -1.54138  0.20936  21.39437     15.14496  1.64779  1.40861  3.39295  0.01029     0.02668  5474.76107    9948.5323  4.64124         3251.89473     16.89428    4e-05  59341.75816  0.60665  0.71034        359243.50227  44.26976  17.73715  59352.99416    49.94928       43.41249   10.36111  26.20847   29.5    0.91384  -19.55358  0.35259 
   -3.00559  0.24266  26.74266     12.32412  1.70742  1.32684   3.2321  0.01008     0.01134  5620.97822   9891.88883  4.87553         3924.48908     17.78569  0.00034  59340.29395  0.60917   0.7843  254868905588.92773  38.24046   17.7339  59352.99416    49.94136       43.41438   10.36111  26.20847   35.5    0.82932  -19.53237  0.00015 
   -2.53243  0.27233   9.20159     12.95596   1.3026  0.65763  2.92413  0.01036     0.01676  5851.41974   9947.62781  4.97775         3814.83311     16.82026    4e-05  59340.76711  0.59724  0.79633    1254389031.61768   41.3575  17.73481  59352.99416    49.92882       43.40955   10.36111  26.20847   38.0    0.82807  -19.54016  0.06995 
   -2.85324  0.24336  22.50828     13.02848  1.77048  1.18516  3.24798  0.01007     0.01333   5617.5158   9862.13244  4.92562         3933.38462     18.25192  0.00099   59340.4463   0.6114  0.79041    7305138887.25934  39.94862  17.72794  59352.99416    49.96893       43.40887   10.36111  26.20847   36.5    0.82122  -19.54805  0.00693 
   -2.78959  0.27573  12.70698     12.79171  1.35758  1.44322  3.09984  0.01042     0.01039  5850.79894   9870.78787  4.78708         3704.99777     18.57913  0.00211  59340.50995  0.63299  0.85472     5311784974.7627  40.46828  17.73044  59352.99416    49.95175       43.39145   11.28096  26.20847   36.0    0.80561  -19.52126  0.02363 
