 texplosion  fnickel    Pspin  log(Bfield)      Mns  thetaPB   mejecta    kappa  kappagamma      vejecta  temperature    alpha  cutoff_wavelength  log(nhhost)      A_V         MJD0   kenergy  mnickel           TSD   log(L0)  Peak_mag     Peak_MJD  log(E_rad)  log(Peak_lum)  Rise_Time    E_fold  tau_1  delta_m15     r_peak     frac 
   -2.91057  0.00311  0.98112     14.05459  1.56542  1.37918  16.43509   0.1172     0.36018  11379.90371   7354.71925  2.14699         3305.89443     21.01933  0.58084  57033.12943  12.69628  0.05112  108822.14664  47.44332  20.57045  57078.59826    51.40204       44.69268   21.50174  43.00347   43.5    0.17359   -22.2375  0.99972 
   -2.84796  0.00641  0.91072      14.1987  1.91546   1.0812  19.00379  0.10094     0.12867   9996.15783    6139.8998   2.1377         3204.61596     21.09017  0.68376  57033.19204  11.32749  0.12172    59080.8277   47.8609   20.4624  57089.23666    51.61163       44.94273   23.15572  38.04153   47.5    0.14034  -22.24632   0.9996 
   -4.94805  0.04374  1.77351     14.34874  1.85367  1.02275   4.27168  0.23185     0.24888   6884.78482   6954.07336  1.08591         5638.97472     19.66279  0.02556  57031.09195   1.20783  0.18683  108649.60663  47.00318  20.61015  57078.59826    51.55905       44.95254   18.23664  33.03673   41.0    0.20008  -21.64811  0.99732 
   -5.74479  0.00236  2.05209     14.23336  1.74241  1.12414   9.43404  0.15418     0.07068   8417.21045   6216.69436  1.34475         4344.21745     19.57324   0.0208  57030.29521   3.98714  0.02224  232613.27075  46.51897    20.609  57083.91746     51.3419       44.63706   19.84776  43.00347   44.0    0.18555  -21.57676  0.99952 
   -3.79395  0.00262  0.92782     14.10921  1.29682  1.03466  14.96907  0.06925     0.02904   5331.71166   8089.90519  1.32556         5916.48449     18.21019   0.0009  57032.24605   2.53837  0.03924   62691.37515  47.64959  20.73703  57083.91746      51.156       44.38061   23.15572  49.61939   45.5    0.15713   -21.7423  0.99976 
   -2.89514  0.00128  1.08076     14.29188  1.83467  0.99922  22.23573  0.03944     0.12851   4781.72615   6343.32377  1.77751         4169.18489     20.63287  0.23856  57033.14486   3.03283  0.02845   51890.05288  47.74986  20.66109  57086.57706     51.1932       44.44546   21.50174  47.96541   49.0    0.15555  -21.71547  0.99986 
   -3.35305  0.01033  1.02341     14.42908  2.06326  1.18877  22.56726  0.02595     0.02124   2970.41521   8802.16991  1.79283         5661.66605     19.12741  0.00745  57032.68695   1.18779  0.23309   27816.77781  48.11899  20.70354  57086.57706    51.18694       44.45536   19.84776  47.96541   48.5    0.14017  -21.58634  0.99936 
   -3.02981  0.00189  0.91923     14.21174  1.70024   1.4112  24.81223  0.02506     0.16326   3621.10425   6823.81067  1.69348         4672.17538     20.43781  0.15224  57033.01019   1.94077  0.04701   50315.21177   47.8708  20.64496  57081.25786    51.12623       44.38613    24.8097  44.65745   46.5      0.129   -21.6332  0.99983 
    -4.6945  0.00222  0.74914     14.09764  1.82045  1.27761    7.6251  0.19443     0.13998   9591.24957   7389.26483  1.10477         3830.81099     21.10482  0.70722   57031.3455    4.1843   0.0169   60512.41548  47.99805  20.68271  57086.57706    51.21029       44.48526   19.84776  46.31143   44.5    0.18347  -22.35289  0.99996 
   -4.12402  0.01367  0.85706     14.25802  1.70018  1.46175   8.97521  0.18516     0.11062   7047.65505   6822.96211  1.26041         5170.90821     19.61274  0.02278  57031.91598   2.65926  0.12265   35343.16498  48.08501  20.58845  57081.25786    51.41987       44.73248   23.15572  39.69551   46.0    0.14888  -21.71091  0.99968 
   -7.14253   0.0533  0.79115     14.16554  1.79316  0.72244  10.45369  0.11714     0.02379   8020.28985   6276.15905  1.00654         4048.39036     21.13463  0.75746  57028.89747   4.01122  0.55716   48626.75428  48.03908  20.51279  57083.91746    51.68499       45.03857   18.23664  37.99866   48.0     0.1564  -22.24624  0.99838 
   -2.93768  0.00219    0.739     14.46234  1.61165  0.58518  27.98005  0.05418     0.10852   6468.70677   7024.67021   1.3032         5854.87575     19.88921  0.04305  57033.10232    6.9841  0.06125    9720.57394  48.75113  20.72393  57083.91746    51.18319       44.47337   19.84776  43.00347   46.0    0.14369  -21.95384  0.99988 
   -4.59736  0.00177  1.29753       14.277  1.89015  1.34013   6.17127  0.22362     0.39308   7018.59925   6377.08227  1.36351         4378.55869     20.29507   0.1096  57031.44264   1.81344  0.01093   82516.44402  47.40257  20.61043  57083.91746    51.48249       44.77921   21.50174  43.00347   46.5    0.14915  -21.67176  0.99992 
   -3.63214  0.00107    1.513     14.37289   1.9957  0.80717   7.00172  0.26974      0.4011   9974.11178   6019.20013  2.03547         3365.28509     20.81477  0.36266  57032.40786   4.15509  0.00746   76175.59189  47.32745   20.5457  57083.91746    51.32632       44.62379   21.50174  43.00347   46.0    0.15649  -21.92287  0.99993 
   -4.02336  0.01864  0.97472     14.24964  1.92372  1.16826  13.68915  0.09524     0.01677   6557.75533   6726.60321  1.40489         4654.13504     20.73167   0.2995  57032.01664   3.51167  0.25516   53756.05914   47.8448   20.6669  57083.91746    51.10825       44.36043   26.46367  44.65745   46.5    0.15109  -22.00571  0.99908 
    -3.8117  0.00255  1.21369     14.19534  1.60529   1.5054  32.35431  0.02899     0.35142   5082.10492   7550.84321  1.56584         5164.22459     19.81756   0.0365   57032.2283   4.98479  0.08237   89311.64492  47.35527  20.62461  57086.57706    51.44766        44.7683   19.84776  41.34949   46.5     0.1597     -21.64  0.99936 
   -4.66042  0.01505  1.44096     14.25131  1.81439  1.50612  17.08797  0.05931     0.01388   5432.41054   6433.87824  1.29672         5256.89027     19.12349  0.00738  57031.37958   3.00817  0.25714   109956.6785  47.16905  20.78992  57083.91746    51.16673       44.46119   19.84776  43.00347   47.0    0.14503  -21.59657  0.99756 
   -4.13055  0.00111  1.07322     14.28423  1.81176   1.2424  12.28486  0.05171     0.05715   3694.72111   7428.84554  1.39127         5557.62482     18.21892  0.00092  57031.90945   1.00037  0.01369   52340.45075  47.74673  20.54482  57081.25786    51.53283       44.83407   23.15572  41.34949   46.0    0.15466  -21.59214  0.99994 
   -5.82983  0.00155  0.77587     14.19764  1.58388  1.02963  28.26833  0.04807     0.48416   6880.78532   7127.40803  0.98572         5563.44707     20.56833  0.20562  57030.21017   7.98368  0.04383   35632.23801  48.13715  20.56246  57083.91746    51.49923       44.79718   19.84776  43.00347   45.5    0.16476  -21.72468  0.99988 
   -3.01759  0.01849  0.83349     14.26516  1.74851  1.46794   6.94736  0.15627     0.20274   5709.22353   7760.61098  1.26991         5703.79575     20.23252   0.0949  57033.02241   1.35083  0.12845   33262.79415  48.14775  20.64625  57083.91746    51.59723       44.89692   19.84776  43.00347   45.5    0.19078  -21.84101  0.99971 
   -4.97819  0.00139  1.02021     14.39822  1.81728  0.51137   5.89878  0.32705     0.09101    9572.6785   6309.82183  1.21144         4129.56481     20.98094   0.5317  57031.06181   3.22445  0.00818   28065.58402  48.06271  20.63189  57086.57706    51.48052       44.80071   19.84776  41.34949   47.0    0.15465  -22.21419  0.99996 
   -5.18791  0.00335  1.07496     14.25713  1.57497   0.8903  19.70983  0.05678     0.42759   6191.99111   6978.28258  1.23355         5066.83964     20.41194  0.14344  57030.85209   4.50786  0.06599   51714.36395  47.68972  20.62945  57078.59826     51.4024       44.74337   23.15572  36.38755   45.0    0.16264  -21.66294  0.99959 
   -5.17356   0.0026  1.56073      14.1435  1.52475  1.48327   6.87999  0.11005     0.17319   5130.19725    7115.7778   1.3826         4868.98422     18.25975  0.00101  57030.86644   1.08015  0.01788  178104.39965  46.81471  20.68725  57086.57706    51.16153       44.41715   21.50174  46.31143   44.5    0.16978  -21.45356  0.99973 
   -4.26444  0.00579  0.95073     14.16559  1.69206   1.5156  31.73618  0.04108     0.13073   7529.26771     6377.279  1.02994         5120.14407     20.63669  0.24067  57031.77556  10.73216  0.18386   66246.96915  47.71998  20.68432  57086.57706    51.26445       44.54691   19.84776  44.65745   43.0    0.16721  -21.92108  0.99924 
   -3.80057  0.00389  0.78221     14.20818  1.86803  1.22829  12.27055  0.09225     0.12952   6332.00001   6445.63101  1.45099         4109.14083     20.89868  0.43995  57032.23943   2.93476  0.04779   40690.51851  48.14409  20.54499  57083.91746     51.3793       44.67749   19.84776  44.65745   46.5    0.15828  -21.97324   0.9999 
   -5.87831  0.00159  0.85576     14.46948  1.90624  0.56718  19.07145  0.09092     0.30539   9804.50776   6826.31329  0.81543         4080.37679     20.83934  0.38377  57030.16169   10.9361  0.03036   14919.21614  48.51057  20.64244  57083.91746    51.18168        44.4555   21.50174  44.65745   43.0    0.17263  -21.88967  0.99992 
   -4.09312  0.00919  0.86022     14.23461  1.80529  1.51479  15.08394  0.06641     0.02309   5451.64578   7983.81451  1.25162         5518.71293     20.53424   0.1901  57031.94688   2.67422  0.13861   42107.25609  48.03182  20.60005  57083.91746    51.37941       44.64867   21.50174  46.31143   46.0    0.14322  -21.88308  0.99964 
   -4.82068  0.00681   1.3646     14.15297  1.45929  0.99887   17.5516   0.0562     0.02364   5702.16425   6057.75107  1.69463         4042.63514     20.24641  0.09798  57031.21932   3.40426  0.11959  124748.36082  47.06694  20.56254  57083.91746    51.37308       44.63698   21.50174  46.31143   48.5    0.15897  -21.53711  0.99854 
   -3.92415  0.00221  0.93441     14.16794  1.77087  1.53629  32.26683  0.04045     0.02618    7023.0988   6018.04639  1.40882         4142.46213      20.7614  0.32072  57032.11585   9.49382  0.07136   66251.75777  47.75476  20.57905  57081.25786    51.46772       44.81874   23.15572  36.38755   46.5    0.16009  -21.92851  0.99973 
   -3.01706  0.01902  0.81126     14.37909  1.91117  0.85024  13.59783   0.0618     0.09532    4340.8038   6219.42702  1.64423         4317.97559     20.69355  0.27433  57033.02294    1.5284   0.2587    20382.2136  48.42257  20.66478  57083.91746    51.51605       44.81108   19.84776  43.00347   51.0    0.15249  -21.73664  0.99948 
   -7.34246  0.00241  1.73175     14.05902  1.67531  1.52186  17.17966  0.03672     0.01058   5861.87808   7209.72996  1.12229         5984.11522     20.72268  0.29336  57028.69754    3.5214  0.04139  355498.44581  46.46513  20.63526  57086.57706    51.42118       44.72512   19.84776  43.00347   43.0    0.21282  -21.91797  0.99932 
   -3.09638  0.01338  0.70091     14.45385  1.64446  0.61336  26.83894  0.02491     0.08148   3805.93189   7240.10634   1.5427         5158.72922     20.30005  0.11086  57032.94362   2.31907   0.3592    9278.03021  48.82609  20.54292  57081.25786    51.47226       44.81759   21.50174  36.38755   46.5    0.14644  -21.71397  0.99944 
   -5.10554  0.00497  0.99712     14.30173  1.68975  0.69059  10.15323   0.1899     0.34501  10317.92171   6077.57373   0.9791         4191.70362      20.8552  0.39804  57030.93446   6.44786  0.05045   38874.38722  47.90951   20.6492  57083.91746    51.43239       44.74876   21.50174  39.69551   44.0    0.16955   -22.0389  0.99975 
   -5.12427   0.0116  0.91638     14.17438  1.70194  1.08461   8.71975  0.10257     0.39104   6232.61286   7136.28609  1.19143         4753.60451     20.89471  0.43595  57030.91573   2.02056  0.10112   59447.82827  47.80151  20.66937  57086.57706    51.18632       44.43997   21.50174  47.96541   44.0     0.1935  -21.93192   0.9996 
    -3.9165  0.00491  0.78757     14.30318  1.71377  0.82056  24.99507  0.12183     0.39349  12796.76463   5791.23584  1.02213         3905.48176      20.7693  0.32661   57032.1235  24.41642  0.12264   24432.97334  48.32225   20.5558  57083.91746    51.39676       44.69863   19.84776  41.34949   44.0    0.16492  -22.12566   0.9997 
   -2.96518  0.00121  1.05526     14.31848  1.84735  1.20888  13.96324  0.04791     0.02303   3591.73346   6941.95418  1.75864         5168.18941     19.90719  0.04487  57033.07482   1.07454  0.01692   44068.99279  47.84454   20.5545  57086.57706    51.32437       44.60355   21.50174  44.65745   48.0    0.14968    -21.678  0.99993 
   -3.50425  0.00117  1.37051     14.24371  1.73783  1.44117  49.25132  0.02103      0.2383   6124.06701   7843.87754  1.24866         5675.16006     17.48327  0.00017  57032.53575  11.01856  0.05763   98664.95203  47.24093  20.53277  57078.59826    51.45014       44.78398   19.84776  38.04153   43.5    0.16845  -21.72994  0.99948 
   -6.35358  0.00118   2.1723     14.40483   2.1127  0.79708   7.84642  0.17424     0.03342    7545.5293   6605.74252  1.14153          5887.0462     19.81194  0.03603  57029.68642   2.66488  0.00923  143495.41677  46.76301  20.53687  57081.25786    51.44096       44.77552   21.50174  38.04153   45.0     0.1639  -21.83454  0.99983 
   -4.07912  0.01314  0.73832      14.0881  1.71237  1.14848  12.82372  0.08706      0.2478   8374.81079   6496.82577  1.14953         3825.45296     21.07813  0.66505  57031.96088   5.36527  0.16851   57769.21513  48.00426   20.7148  57081.25786    51.09665       44.38893   21.50174  41.34949   42.5    0.18151  -22.28399  0.99958 
   -5.83436  0.01125   1.5761     14.15465  1.77324  0.81066    4.8787  0.29245     0.26016  14718.20063   6361.85297  1.72514          2271.4517     21.05149  0.62548  57030.20564   6.30436  0.05486  200650.35035  46.82001  20.72691  57083.91746    51.17875       44.48028   19.84776  41.34949   39.0    0.23277  -22.30686  0.99931 
   -5.05532    0.002  1.19223     14.04419  1.77094  1.10973   5.01409     0.18     0.08434   9129.79242   7189.58219  1.45136         3299.64675     21.16903   0.8199  57030.98468   2.49311  0.01001  190700.50088  47.08398  20.60986  57086.57706     51.3406       44.64559   19.84776  41.34949   43.5      0.214  -22.33304  0.99993 
   -4.60215    0.025  0.92534     14.33242  1.91612  1.53532  12.57096  0.08515     0.05526   5026.22993   6710.57242  1.30132         5060.04526     19.53472  0.01903  57031.43785   1.89444  0.31428     32960.713  48.10066  20.58413  57083.91746    51.27564       44.55827   19.84776  44.65745   49.0    0.14006  -21.53461  0.99922 
   -5.13085  0.00212  1.47087     14.06538   1.6207  1.51475  18.52736  0.06064       0.369   8270.93548   6083.09281  1.53285         3839.63648     20.89832  0.43959  57030.90915   7.56049  0.03937    240937.779   46.7615  20.55407  57086.57706    51.37079       44.65169   21.50174  44.65745   43.5    0.19162  -21.93147  0.99951 
    -5.3108  0.00843  0.94897     14.28565  1.75036  0.80348   15.9093  0.09505     0.28967   8369.17355    6373.9346  1.10258         4256.89719     20.83712  0.38181   57030.7292   6.64727  0.13406   39278.09809  47.96331  20.48459  57083.91746    51.36797       44.66071   21.50174  43.00347   45.0     0.1562  -21.91374  0.99946 
   -4.47479  0.00205  1.06154     14.13036  1.67843  1.37197  37.44754  0.04316     0.18351   8303.02717   6322.10558  1.54643         3841.33777     20.82648  0.37257  57031.56521  15.40009   0.0766    96356.0999    47.458   20.5462  57083.91746     51.4974       44.82676   23.15572  38.04153   47.0    0.15043  -21.93763  0.99956 
   -3.58176  0.00431  1.13393     14.17183  1.58894  1.48582  17.27617  0.07794     0.16114   6446.24704   6679.91168  1.59894         4557.25817     20.26822  0.10303  57032.45824   4.28241   0.0745   85987.61291  47.42635  20.55505  57086.57706    51.47719       44.76731   19.84776  43.00347   48.0    0.13161  -21.68157  0.99949 
    -5.3151  0.00274  1.96674     14.50588  2.11107  0.72723  21.64451  0.03216     0.01102   5332.07203   7670.61537  1.09753         5640.52911     19.31285  0.01142   57030.7249   3.67085  0.05938   73800.49361  47.13779  20.50763  57083.91746    51.50887       44.83215   19.84776  39.69551   42.5    0.18902  -21.56603  0.99913 
   -2.87376  0.00216  0.82836     14.19946   1.5421  1.32708  13.94671  0.09017     0.25729   5610.78599   6775.04652  1.45624          5154.9203     19.36317  0.01282  57033.16624   2.61907  0.03012   39214.32647  48.02708  20.55599  57086.57706    51.56643       44.88065   19.84776  41.34949   48.5    0.15427  -21.62573  0.99991 
   -2.98419  0.06247  0.83258     14.42381  2.08242  1.15342   6.52807  0.19136     0.17971   6926.90772   7402.92095  1.16911         5097.59788     20.48981  0.17161  57033.05581   1.86849  0.40778   19037.25155  48.46696  20.56155  57083.91746    51.52524       44.87063   18.23664  37.99866   42.5    0.19158  -21.87941  0.99941 
   -7.11992  0.00122   0.7791     13.98296  1.42088  0.82978   20.0711  0.08386     0.04898  13433.67234   7290.31727  0.58483         3329.89412     21.16012  0.80325  57028.92008  21.60667  0.02451   86622.88755  47.70058  20.58849  57083.91746    51.18496       44.50092   23.15572  39.69551   39.5     0.2071  -22.39764   0.9999 
   -5.16731  0.00124  1.60586     14.20894  1.86922  0.97527  17.47455  0.05978     0.02265   7331.11921   6308.99936  1.90136         3701.79563     20.93256  0.47565  57030.87269   5.60239  0.02166  171002.82912  46.89609  20.57201  57083.91746    51.14303       44.38476    24.8097  47.96541   46.5     0.1766  -21.97876  0.99974 
   -5.30004  0.01338  1.04285     14.40089  1.75716  0.64676   8.90912  0.15985     0.07541   7168.30303   6291.72512  1.17005         4464.62027     20.62931  0.23661  57030.73996   2.73083   0.1192    28009.1022  48.02991  20.59044  57081.25786    51.55818        44.9515   18.19378  33.07959   47.5    0.15691  -21.71761  0.99942 
   -3.10364  0.00532  0.79384      14.2492  1.82117  1.42435  17.45038  0.09183     0.37572   7381.91921   6262.32136  1.32677         4481.50097     20.59572    0.219  57032.93636   5.67245  0.09286   33824.47386   48.2005   20.6318  57081.25786    51.58403       44.91285   21.50174  38.04153   47.5    0.14937  -21.86271  0.99981 
   -3.60444  0.00112  0.90533     14.31369   1.5192  0.74249  22.07824  0.02889     0.01665   3193.84644   6879.79425  1.67563         5174.18274     19.87029  0.04121  57032.43556   1.34344  0.02466   27268.84805  48.10118  20.69071  57083.91746    51.22801       44.49765   21.50174  46.31143   49.5    0.14976  -21.56591   0.9999 
   -4.88912  0.00222  1.18654     14.19952  1.62217  1.39757  11.36593  0.09105     0.05797   5502.38165   8135.03785  1.31289         5799.73452     18.76728  0.00325  57031.15088   2.05274  0.02524   84611.06877  47.40295  20.58885  57086.57706    51.29925       44.56635   21.50174  46.31143   44.5    0.16695  -21.68527  0.99982 
   -2.45624  0.01017  1.24279      14.1222  1.61911  1.22346  20.28965  0.08703     0.11883   8956.77949   6308.54755  2.75573          3333.6966     20.87561   0.4172  57033.58376   9.70969  0.20625  132279.67894  47.16783  20.60366  57081.25786    51.11356       44.37684    24.8097  44.65745   49.0    0.14004  -21.94997  0.99823 
   -6.02411  0.00206  0.81314     14.32284  1.66792  0.58211  25.46098  0.07727     0.40442  11579.72277   6529.52119  0.71471         4423.91937     21.00172  0.55776  57030.01589  20.36566  0.05248   23154.82671  48.30605  20.72341  57083.91746    51.20828       44.50719   19.84776  43.00347   42.0    0.18191  -22.15833  0.99983 
   -4.61527  0.00178  0.73104     14.23512  1.90214  0.93931   16.2625  0.07273     0.03656   7606.99172   7322.91414  1.15949         4257.55485      21.0334  0.59996  57031.42473   5.61359  0.02889    31966.6894   48.3155  20.60701  57086.57706    51.27197       44.55369   19.84776  44.65745   45.0     0.1733  -22.22982  0.99995 
