 log(Bfield)      Mns    Pspin  cutoff_power  cutoff_wavelength  fnickel    kappa  kappagamma   mejecta  log(nhhost)  temperature  texplosion  thetaPB     vejecta      A_V        MJD_0   log(KE)      M_Ni  Peak_mag     Peak_MJD 
     14.1769  1.44905  1.29061       0.98261           5996.518  0.02624  0.01325     0.02844  30.27356     17.45305   6398.45811    -3.86621  0.99457  3068.78929  0.00016  57032.17379  51.66717   2.17025  20.72082  57083.74401 
    14.25531   1.8724   1.1924       2.55486         3091.44674  0.12988  0.06213     0.04638  13.97653     20.80098   6016.51853    -1.62155  1.49495  4774.52922  0.35133  57034.41845  51.98805   9.29193  20.51169     57078.04 
    14.38914  2.01353  1.25803       1.10563         5634.55342  0.19261  0.10355     0.04742   8.56649      17.3321    5337.4415    -3.96821  1.47355  3985.62525  0.00012  57032.07179  51.78593  12.41606  20.65305  57080.50316 
    14.06028  1.60472  2.92635       2.46576         3446.32329  0.00977  0.15319     0.09414   4.82577     16.53188   3752.32268    -6.91056  1.08636  4807.83837    2e-05  57029.12944  51.88898   0.54877  20.89722  57077.26231 
    14.15753  1.81876  1.94444        2.5685         3450.74055  0.05015  0.03546     0.05185  15.64129     20.91113   8924.02245    -4.12081  1.22386  4161.09637  0.45275  57031.91919  51.87837   3.66956  20.69316  57080.50316 
    14.35508  1.68205  1.76387         1.076         5837.20895  0.00121  0.01425     0.06912  22.84116     17.80163   5948.01016    -5.16284  0.63769  2756.13523  0.00035  57030.87716   51.5519   0.09528   20.6285  57080.50316 
    14.00277  1.49392  1.41587       2.39089         3556.04108   0.0296  0.04359     0.02893  16.90874     20.83568   6577.17327    -3.90246  1.51067  4221.31951  0.38055  57032.13754  51.89749   2.19889  20.61246  57080.50316 
    14.23728  1.57979  1.75287       1.31849         5669.52014  0.01461  0.01974     0.01445  19.96267     17.89335   6256.45249    -5.21844  0.85766   2701.3978  0.00043  57030.82156  51.52358   1.12092  20.72211     57078.01 
     13.9245   1.2032  1.33845       2.91329         3414.81383  0.00273  0.02426     0.01541  17.63476      21.0231     7254.849    -3.91708  0.87872  3481.80213   0.5859  57032.12292  51.73374   0.20447  20.69047  57080.50316 
    13.94632  1.42818  1.71887       2.83103         3464.50611   0.0117  0.02852     0.02252  15.90588     20.93712   6538.42299    -4.75676  1.29854  3564.34479  0.48067  57031.28324  51.74535   0.85858  20.45015  57080.50316 
    14.20791  1.53976   2.2476        2.5891         3890.02924  0.00539  0.02312     0.01097  20.58322     19.27542   7283.03479    -5.31215  0.87991  2729.58413  0.01047  57030.72785   51.5351   0.41541  20.54698  57083.74401 
    14.28005   1.8032  1.90017       2.18779         3874.45205  0.08922  0.06843     0.09777  10.12483     20.43764   8956.95021    -5.73769  1.04098  3641.34229  0.15218  57030.30231  51.72344   5.96666  20.40015  57077.26231 
    13.83786  1.00982  1.40371       2.01939         4031.88389  0.01943  0.02492     0.01093  16.63908     20.23653   7596.85801    -4.92086  1.39681  2805.00621  0.09578  57031.11914   51.5411    1.4388  20.62922  57083.74401 
    13.80228  1.05148  2.38463       1.69679         4065.54939  0.00409  0.01201     0.04955  27.66056        18.57   6048.40767    -6.73175  1.27295  4093.69492  0.00206  57029.30825  51.91056   0.33292  20.68859  57086.98486 
    13.87771  1.27892  1.56862        2.2089         3377.89378  0.00816  0.03065     0.04226  14.83972     20.88915   6652.93144    -5.08136  1.28632  3978.27484  0.43041  57030.95864  51.83481   0.59102  20.57476  57077.26231 
    14.01253  1.51133  1.79208       0.89176          5368.3174  0.00213  0.09253     0.10757   8.70945     18.70645   6758.08295    -7.77742  1.51489   4228.1553  0.00283  57028.26258  51.83884   0.13754  20.62012     57078.04 
    13.98539  1.36932  1.50523       1.08027         5993.88194  0.00151  0.02059     0.01652  19.17589     19.44318   7347.97402    -5.70027  1.53524  2892.35387  0.01541  57030.33973   51.5796   0.11489   20.7987     57078.04 
    14.13695   1.6689  1.62141       2.14315         3512.94691  0.00137  0.03834     0.02898  16.32372     20.77502   7832.23695    -4.58538   0.9842  3675.14195  0.33094  57031.45462  51.77415   0.10117  20.52319  57080.50316 
     14.3245  1.72144  1.22346       1.24184         5975.32619  0.04005  0.02465     0.01647  20.40504      18.2215   6154.58357    -4.09894  0.92854  2789.83404  0.00093  57031.94106  51.55336   3.08404  20.67662  57083.74401 
    14.15105   1.7305    2.402       2.51442         3379.14342  0.00159   0.0273     0.06069   14.0547     20.42136   8981.42267    -4.56955   1.1631  3401.14869  0.14658  57031.47045  51.69393   0.11414  20.61845  57083.74401 
    14.29908  1.33996  1.33243       0.92626         5896.81187  0.00682  0.01087     0.01541  30.79832     16.99397   5547.12162    -4.59062  0.49727  3110.74365    5e-05  57031.44938  51.68027   0.56593   20.7022  57080.50316 
    14.28447  1.52978   1.0698       2.55066         3601.45963  0.04648   0.0175     0.07688  25.00964     19.04682   7436.60918    -2.08104  1.40604   2326.0243  0.00619  57033.95896  51.41171    3.7161  20.62894  57080.50316 
    13.98888  1.48434  1.70401       2.40855         3123.20245  0.00535  0.01433     0.04105  23.78627     21.02959   7561.79961    -5.26321  0.98705  3940.28513  0.59473  57030.77679  51.86558   0.42378  20.58411     57078.04 
    14.12529  1.89746  2.69943       3.26236         3343.22856  0.00144  0.07297     0.05671   8.51105      20.6385   4078.30758    -6.29715  1.46788  4002.70522  0.24167  57029.74285  51.78901   0.09286   20.6536  57083.74401 
    14.21088  1.56836  1.43932       0.57489         5457.89037  0.11222  0.02341     0.03514  12.85164     17.16146   7782.61112    -4.87665  1.29186  4039.55678    8e-05  57031.16335  51.83542   7.89221  20.60122  57077.26231 
    14.53593  1.67896  0.90939       1.27221         3874.88718   0.0045  0.10295      0.0702  13.92113     21.25134   6771.62465    -5.48561  0.21358  7965.01578  0.99098  57030.55439  52.43221   0.32158  20.56846     57078.01 
    14.13328  1.78578  1.68169       2.13952          3534.0038  0.00143  0.02591     0.01827   20.8631     20.79586   9020.08024    -3.95357  1.21673  3585.72716   0.3472  57032.08643  51.77316   0.11038  20.80673  57083.74401 
    14.29088   1.8031  2.28442       2.52559         3783.65716  0.02647  0.02979     0.01556  14.75453     20.29574   8753.94371    -4.32423  0.99445  2813.13342  0.10977  57031.71577   51.5333   1.91457  20.49335     57078.04 
    13.82773  1.23532  1.11932       1.28047         4082.72132  0.03175  0.03461     0.04999   14.9763      20.9846   8532.25143    -4.61485  1.32244  4699.05846   0.5362  57031.42515  51.98023    2.3033  20.84251  57080.50316 
    14.24516  1.39985  1.59332       2.07644         4208.06862   0.0313  0.02173     0.01201  19.03496     18.67314   7058.51178    -3.07031  0.82516  2438.28466  0.00262  57032.96969  51.43066   2.37915  20.48614  57080.50316 
    14.01759  1.54516  1.58909       2.57619         3486.80753  0.00846   0.0236     0.01394  18.48704     20.86808   9357.39816    -3.26977  1.47175  3242.63496  0.41002  57032.77023  51.67587   0.63922  20.76372  57086.98486 
    14.53552  1.84204  1.04398        2.7776         2961.26621  0.07063   0.0447     0.02587  25.14887     20.95928   5334.49306    -2.34084   0.4403  5301.82886  0.50584  57033.69916  52.12777   5.65267   20.5317  57080.50316 
    14.21682    1.328  1.02799         1.156         5960.71922  0.05819  0.01514     0.02918  25.05528     18.45237   6391.92268     -3.9552  0.94018   2979.9083  0.00157   57032.0848  51.62703   4.65427  20.53109  57074.02145 
    13.97586  1.59479  1.61804       2.75255         3279.08483  0.00713  0.05229     0.03661  13.26897     20.98722   8642.73041     -4.4061  1.46215  4386.03549  0.53945   57031.6339  51.90975   0.50472  20.61917     57078.01 
    13.93457   1.0617  1.26113       1.20769         5577.53029  0.00288  0.01582     0.01031  25.34297     18.31314   3941.83111    -7.20365  0.94432  2606.68434  0.00114  57028.83635   51.5117   0.23062  20.54192  57074.02145 
    14.01414  1.50612  1.89055        1.1397         5713.81917  0.00145  0.02344     0.02584  17.65064     20.31644   7858.33727    -7.24367  1.55014   3157.9368  0.11512  57028.79633  51.64902   0.10886  20.50033  57080.50316 
    14.06128  1.50626  2.08317        1.9646         3324.36536  0.00358  0.03999     0.17241  15.52622     20.69476   7503.27122    -6.34325  0.89349  4786.79056   0.2751  57029.69675  51.99941   0.26186  20.54553  57080.50316 
    14.10901  1.12924  0.97305       1.22969         5619.97793  0.04333  0.01259     0.02133  28.20741     18.86809   7661.59145    -3.28504  0.96121  2822.70599   0.0041  57032.75496  51.58917   3.53993  20.51041   57070.7806 
    13.99503  1.51863  1.42508       1.88772         3391.07312  0.01546  0.03143     0.03132  16.13122     21.09598   8020.53849    -5.52809  0.95285  4568.88978  0.69297  57030.51191  51.96222   1.13816  20.64829     57078.04 
    14.20573   1.3667  0.96359       1.85811         4351.95668  0.04874  0.02036     0.05764  25.63485     18.85821   6304.92532    -3.16477  1.40996  2814.27712  0.00401  57032.87523  51.57915   3.91475  20.76946  57083.74401 
    14.19735  1.30213  1.38206       1.46224          4304.8856  0.06115  0.02504     0.02291  16.19635     19.25202   7618.05334    -5.55865  0.85546  2847.74656  0.00993  57030.48135  51.55194   4.50497  20.56286  57083.74401 
    14.19789  1.64623  1.65349       1.66123         3500.85071  0.24949  0.15762     0.13576   5.90822     18.70172   7740.15694    -3.29568  1.32967  4885.97484   0.0028  57032.74432  51.92504  14.74198  20.64873  57077.26231 
    13.85831  1.39841  1.41437       2.95857         2512.54223  0.00104  0.01839     0.02543   18.4272     21.14275   6739.14129    -3.87791  1.20182  5047.45823  0.77175  57032.16209  52.05995   0.07872  20.74234  57083.74401 
    14.10626  1.37797  1.68502        1.0404         5955.13822  0.01104  0.01181      0.0457  23.08349     16.80922   4852.54437    -5.49958  0.92544   2761.2434    4e-05  57030.54042  51.55435   0.86955  20.75283     57078.04 
    14.04999  1.22919  1.41918       1.67167         5468.32115  0.00205  0.01905     0.02342  22.83474     17.93234    6113.1908     -4.7148  0.93104  2397.05814  0.00048   57031.3252  51.43063   0.16096  20.53663  57077.26231 
    14.24773  1.50682  1.51159       2.63352         3625.12534  0.03385  0.01879     0.02278  23.48708     19.00565   5951.58054    -2.27912  1.02853  2527.03078  0.00563  57033.76088  51.47874   2.67543  20.78911  57083.74401 
    14.27775  1.63974  1.32241       2.60368         3881.71953  0.04766  0.03101     0.02868  17.63438     19.73944   6933.05473    -2.77929  1.48971  2462.98476  0.03049  57033.26071  51.43305   3.57025  20.40845  57086.98486 
    14.06201   1.4855  2.44842       1.36686         5850.34139  0.00133  0.01029     0.03428  27.61476     18.02675   8091.67787     -6.8651  1.15729  2891.30118  0.00059   57029.1749  51.60838   0.10807  20.74859  57083.74401 
    14.05081  1.46291  0.77902       0.94211         5272.94179  0.08872  0.04066      0.0962  18.35444     20.77945   7949.78031    -4.12597  1.53062  4512.24512  0.33433  57031.91403  51.96226   6.69647  20.79552  57080.50316 
     14.3737  2.16546  2.28667        3.6081         3304.30853  0.18945  0.10507     0.04109   8.56539      20.7929   3686.11809    -4.79685  0.96115  4555.13931  0.34485  57031.24315  51.90192  12.21222  20.63336  57077.26231 
    14.09672  1.42739  1.44231       2.75216         3265.16662  0.01826  0.02779     0.01192  17.95247     20.86774   6726.35169    -4.07123   0.8591  3349.65524   0.4097  57031.96877  51.70163   1.37225  20.67219  57083.74401 
    14.33995   1.4364  0.80517       0.93589         5074.93755  0.04976  0.01925     0.01248  32.33418     20.71811   6894.44162    -6.29903   0.5461   3982.0749  0.29029  57029.74097  51.89842   4.16388  20.68504  57086.98486 
    14.47424  1.86415  0.88938       2.45243         3908.23495  0.08657  0.02817     0.06022  23.01353     20.10681   6639.04714    -1.22011  1.31708  3407.67605  0.07104  57034.81989  51.73682   6.81735  20.56316     57078.01 
    14.10308  1.59683  2.45096        2.1859         4159.09537  0.00187  0.02517     0.01537  14.84884     18.57911   9566.13053    -4.57566  1.35475  2934.79038  0.00211  57031.46434  51.57062   0.13547  20.60656  57083.74401 
    14.25407  1.67265  1.30637       0.98192         5818.37424   0.1062  0.04611     0.06756  12.22046     19.21648   8283.35799    -3.66106  1.21632  3704.25536  0.00915  57032.37894  51.75564   7.39173  20.57492  57080.50316 
    14.19558  1.71847  2.19883       2.26872         3538.13081   0.0127  0.03316     0.03011  16.78232      20.6376   9436.42462    -5.25202   0.9084  3830.00729  0.24117  57030.78798  51.81236   0.94208  20.63188  57083.74401 
    14.28942  1.94437  2.38143       1.70396         3693.75418  0.22432  0.15743     0.14571   5.62969     18.21454    7937.6395    -5.60244  1.13022  4964.26589  0.00091  57030.43756  51.93368  13.09807  20.67818  57080.50316 
    13.91312  1.42782  1.69217       2.78137         3301.07848  0.00139  0.02183     0.02105  20.67418      21.0438   5945.46334    -5.83704  1.23692   4035.0628  0.61451  57030.20296  51.87497   0.10711  20.74156  57083.74401 
    13.87859  1.22908  1.39899       1.69455          3870.3631  0.02839  0.03897     0.03435  12.75133     20.81304   9554.55022    -4.62726  1.34904  3831.45677  0.36121  57031.41274  51.78878   1.99308  20.47295  57080.50316 
    14.26998  1.52728  0.80498       2.44711         3673.31148  0.15562  0.05712     0.01308  12.37683     20.32837   5422.85073    -1.88212   1.5233  3350.47203  0.11833  57034.15788  51.66959  10.85983  20.50424  57080.50316 
    13.95315  1.20538  1.15067       1.66093         3628.46377  0.05398  0.02755     0.03695   22.2718     20.72186    6064.7721    -3.98841  1.15552  4245.27024  0.29281  57032.05159  51.92509   4.22589  20.74368  57080.50316 
    14.02095    1.398  1.79637       1.48627         5722.01821  0.00184  0.01489     0.01226  25.54164     18.26704   6650.50589     -6.2456  1.49215  2704.46033  0.00103   57029.7944   51.5443   0.14798  20.63764  57074.02145 
    13.99427  1.46556   1.2352       3.10181         3007.98658  0.02474  0.01332     0.02557  33.44398     21.05242    5116.5821    -2.41337  1.24051   3683.1871  0.62683  57033.62663  51.83318   2.08188  20.70299  57080.50316 
    13.73485  1.02131  1.30844       2.47054         3401.90579  0.00516  0.01984     0.02115  20.97614     20.87586   6031.80867    -3.76085  1.38861  3558.95259  0.41744  57032.27915  51.76709   0.39917  20.64126  57074.02145 
    14.01345  1.40559   1.6443       2.97792         3399.63418  0.01532  0.02444     0.01216  17.30101      20.8547   8611.71294    -3.28805  1.09467   3247.4291  0.39758  57032.75195  51.67161   1.14359  20.54516  57083.74401 
    14.22648  1.43154  1.77751       0.86035         5239.52166  0.08509  0.01297     0.02221  27.55132     18.48172   3013.77579    -5.40385  1.49749  4728.91093  0.00168  57030.63615  52.03554   6.92288  20.79675  57080.50316 
    13.99197  1.27806  2.17219        1.9879         4243.68633  0.00134  0.01607     0.01023  18.38439     19.03506   6429.09394    -6.53978  1.29059  2439.00185  0.00602  57029.50022  51.42803   0.10084  20.79246  57080.50316 
    13.82533  1.03561  1.71567       2.22221         3564.47671  0.00136  0.02068      0.0336  15.76001     20.71487   6710.58396    -6.53658  0.95927  3420.17196  0.28813  57029.50342   51.7087   0.09979  20.67442     57078.04 
    14.03031  1.41742   1.5482        2.3976         3528.81837  0.01077  0.03386     0.02206  17.08252     20.70503   5724.63881    -3.89087  1.06924    3657.167  0.28168  57032.14913  51.77375    0.8018  20.69703  57080.50316 
     14.0937  1.47497  1.41073       1.94123          3850.0277  0.04936  0.04482     0.02332   14.6446     20.52926    7369.8584    -4.17293  1.26129  3534.32401  0.18793  57031.86707  51.73088   3.56463  20.70473  57080.50316 
     14.1522  1.53612  1.29354       1.45119         4598.93759  0.00124  0.02003     0.03089  24.75474     19.95876    7693.7364    -5.34171  1.14565   2436.0706  0.05052  57030.69829  51.45106    0.0992   20.6857  57080.50316 
    14.05872  1.13413  1.11447       1.47868         4727.43668   0.0907  0.02861     0.01086  14.92608     20.01086   7365.86645    -4.53854  1.37498  2928.91219  0.05696  57031.50146  51.56933   6.57487   20.5739  57080.50316 
    13.93045  1.30926  1.11444       1.39418         4315.85306  0.02456  0.03128     0.03843  17.37356     20.85845   7729.59781    -4.36491  1.22084  3942.21557  0.40103  57031.67509  51.84036   1.83398  20.54341  57080.50316 
    13.82442  1.14656  1.59663        2.3356         3581.72319  0.00101   0.0192     0.01479  21.76511      20.7138   7389.56454    -5.48178  1.47342  3170.73981  0.28743  57030.55822  51.66975   0.07885  20.87206     57078.04 
    13.84428    1.387  1.36584       2.36058         2842.56607  0.00158  0.18194     0.31758   6.15173     21.02965   6696.40422    -4.89344  1.16133  6606.27702  0.59481  57031.14656  52.19132   0.09418  20.68784  57086.98486 
    14.16254  1.30647  1.11782       1.17483         5821.06941  0.06136  0.01697     0.01098  21.97374     18.19117   6510.98472    -4.49993  1.12023  2741.51535  0.00086  57031.54007  51.54418    4.7915  20.58733  57080.50316 
    14.10304  1.25747  1.99839       1.86883         4145.70565  0.02779   0.0194     0.02191  17.76358     18.40536   5899.69695    -4.69923  0.85961  2893.24663  0.00141  57031.34077  51.57351   2.08434  20.57138  57080.50316 
    14.13687  1.34259  0.94893       1.15007         4566.74734  0.30388  0.15366     0.10569   5.97184     19.37787   8109.66087    -2.52892   1.3027  4877.76095  0.01326  57033.51108  51.92472  18.00343  20.65754  57077.26231 
    14.18947  1.45873  1.43594       1.81584         4558.14714  0.04691  0.02329     0.02385  18.56954     18.83453   7763.88767    -3.29961  1.17991  2561.77054   0.0038  57032.74039  51.47152   3.54876  20.66643  57074.02145 
    14.30547  1.80016  1.69273       2.11055         4050.40806   0.0834  0.04202     0.03867  18.24827     19.89368   6910.67585    -2.57807  1.45435   3899.3246  0.04349  57033.46193  51.83497   6.28811   20.5896  57080.50316 
    13.90717  1.28229  1.82713       3.53473         3399.17762  0.00313  0.01988     0.02848  18.83918     20.78857   3927.54247    -4.83948   1.4066  2745.67981  0.34143  57031.20052  51.53294   0.23723   20.7093  57077.26231 
    14.38572  1.71607  1.72563       1.11657         5761.99134  0.00892  0.01925     0.02926  20.05225     17.35043   6207.29691    -4.94785  0.61388  2883.88592  0.00012  57031.09215  51.58073   0.68472  20.59571  57086.98486 
    14.20226  1.52014  1.71817       3.69545         3295.73083  0.05695  0.02326     0.01591  24.55871      19.9665   4836.76068    -1.94971  1.56931  3222.71225  0.05143  57034.09029   51.6935   4.53874  20.52708  57080.50316 
    14.25088  1.34969  1.74884       2.24734         4233.05098  0.03812  0.02041     0.02324  17.40015     18.02955   5857.47358    -3.36827  0.78803  2572.68438  0.00059  57032.67173  51.46978   2.84797  20.57754  57080.50316 
    14.31227  1.73443  1.16754       1.00908         5965.48785  0.13507  0.04837      0.0318  13.29141     17.57113   6723.02696    -4.01879  1.34917  3764.01914  0.00021  57032.02121  51.77706   9.56466   20.5964  57080.50316 
    13.94033  1.17597  1.66732       2.32583         3743.93476  0.00678   0.0209     0.01126   18.1288     20.64816   9725.36044     -3.7934  1.00316  3262.06434  0.24711   57032.2466  51.67943   0.51077  20.64364  57080.50316 
