# Wavelength Flux
# STATUS = PUBLIC
# OBJECT = 
# TELESCOPE =
# INSTRUMENT =
# DATE-OBS =
# MJD =
# EXPTIME =
# SLIT =
# DISPERSER =
# SOURCE =
# FILTER =
# FLUX_STANDARD =
# EXTINCTION_CORRECTED =
# PHOTOMETRY_CALIBRATED =
# FLUX_UNITS =
# QUALITY =
# MIN_WAVE =
# MAX_WAVE =
# COMMENT =
2928.13      2.63261e-16
2933.39      5.36434e-16
2938.65     -1.65478e-17
2943.91     -9.18084e-17
2949.16      1.49176e-16
2954.42       2.1626e-16
2959.68      7.44684e-17
2964.94     -5.54894e-17
 2970.2      1.45433e-16
2975.46      1.29084e-16
2980.72      2.20967e-17
2985.98      2.44358e-17
2991.24     -1.10524e-17
 2996.5      5.78557e-17
3001.75      -1.5276e-17
3007.01      2.89607e-17
3012.27      3.57363e-17
3017.53      1.28969e-16
3022.79      1.12725e-16
3028.05      3.53514e-17
3033.31      7.38874e-17
3038.57      1.01725e-16
3043.83      1.12021e-16
3049.09       3.7675e-17
3054.35      8.05399e-18
 3059.6      2.16435e-17
3064.86        2.335e-17
3070.12      4.37191e-17
3075.38      3.52036e-17
3080.64      4.68218e-17
 3085.9      4.17535e-17
3091.16      3.57832e-19
3096.42      1.63255e-17
3101.68      7.12987e-17
3106.94       1.1009e-16
 3112.2      1.31159e-16
3117.45      8.67789e-17
3122.71      8.96958e-17
3127.97       1.2399e-16
3133.23      8.39341e-17
3138.49      5.59098e-17
3143.75      7.04091e-17
3149.01      8.19624e-17
3154.27      1.09014e-16
3159.53      9.12595e-17
3164.79      8.66422e-17
3170.04      1.25808e-16
 3175.3      1.14306e-16
3180.56      9.62761e-17
3185.82      1.17066e-16
3191.08      1.15234e-16
3196.34       9.6147e-17
 3201.6      6.84178e-17
3206.86      7.36207e-17
3212.12      8.96191e-17
3217.38      8.24878e-17
3222.64      7.13845e-17
3227.89      6.58131e-17
3233.15      8.59622e-17
3238.41      9.64685e-17
3243.67      8.23294e-17
3248.93      7.04982e-17
3254.19      7.27519e-17
3259.45      7.73667e-17
3264.71      9.01694e-17
3269.97      9.27019e-17
3275.23      8.89591e-17
3280.49      8.23678e-17
3285.74      9.16211e-17
   3291      9.17292e-17
3296.26      1.10279e-16
3301.52      1.12838e-16
3306.78      1.01011e-16
3312.04      1.11293e-16
 3317.3      1.07222e-16
3322.56      1.00335e-16
3327.82      1.13263e-16
3333.08      1.27858e-16
3338.34      1.18628e-16
3343.59      1.04848e-16
3348.85      1.18353e-16
3354.11      1.24197e-16
3359.37      1.27087e-16
3364.63      1.38937e-16
3369.89      1.34174e-16
3375.15       1.2358e-16
3380.41      1.15776e-16
3385.67      1.23858e-16
3390.93      1.36805e-16
3396.18      1.33794e-16
3401.44      1.38507e-16
 3406.7      1.51505e-16
3411.96      1.51006e-16
3417.22      1.36511e-16
3422.48      1.20289e-16
3427.74      1.18492e-16
   3433      1.28039e-16
3438.26      1.33946e-16
3443.52       1.2792e-16
3448.78      1.30646e-16
3454.03      1.32139e-16
3459.29      1.44258e-16
3464.55      1.46266e-16
3469.81      1.31809e-16
3475.07      1.19207e-16
3480.33      1.27141e-16
3485.59       1.3391e-16
3490.85        1.383e-16
3496.11      1.47489e-16
3501.37      1.46907e-16
3506.63      1.52999e-16
3511.88      1.55398e-16
3517.14      1.59226e-16
 3522.4      1.62794e-16
3527.66      1.67028e-16
3532.92      1.63659e-16
3538.18      1.58313e-16
3543.44       1.6069e-16
 3548.7      1.64874e-16
3553.96      1.66387e-16
3559.22      1.71562e-16
3564.48      1.70879e-16
3569.73      1.61861e-16
3574.99      1.62903e-16
3580.25      1.66419e-16
3585.51        1.597e-16
3590.77      1.58463e-16
3596.03      1.57343e-16
3601.29      1.56618e-16
3606.55      1.43056e-16
3611.81      1.43674e-16
3617.07      1.45388e-16
3622.33      1.44376e-16
3627.58      1.49715e-16
3632.84      1.54831e-16
 3638.1       1.6039e-16
3643.36      1.71048e-16
3648.62      1.84339e-16
3653.88      1.89878e-16
3659.14      1.93488e-16
 3664.4      1.92526e-16
3669.66      1.91552e-16
3674.92      1.93648e-16
3680.17      1.97356e-16
3685.43       1.9799e-16
3690.69      1.87412e-16
3695.95      1.75848e-16
3701.21      1.73019e-16
3706.47      1.72894e-16
3711.73      1.75118e-16
3716.99      1.74335e-16
3722.25      1.70807e-16
3727.51      1.74095e-16
3732.77      1.79896e-16
3738.02      1.79546e-16
3743.28      1.69665e-16
3748.54      1.64623e-16
 3753.8      1.60457e-16
3759.06      1.43199e-16
3764.32      1.37525e-16
3769.58      1.38995e-16
3774.84      1.33257e-16
 3780.1      1.21933e-16
3785.36      1.14217e-16
3790.62      1.17958e-16
3795.87      1.16329e-16
3801.13      1.12129e-16
3806.39      1.16373e-16
3811.65      1.22419e-16
3816.91      1.24434e-16
3822.17      1.26751e-16
3827.43      1.29812e-16
3832.69      1.36673e-16
3837.95       1.3969e-16
3843.21      1.50813e-16
3848.47      1.62451e-16
3853.72      1.65358e-16
3858.98      1.68674e-16
3864.24      1.74707e-16
 3869.5      1.78771e-16
3874.76      1.80175e-16
3880.02      1.82806e-16
3885.28      1.88548e-16
3890.54      1.95271e-16
 3895.8      2.06446e-16
3901.06      2.09075e-16
3906.31      2.07416e-16
3911.57      2.13734e-16
3916.83       2.1419e-16
3922.09       2.2203e-16
3927.35      2.35537e-16
3932.61      2.39874e-16
3937.87      2.45805e-16
3943.13      2.50301e-16
3948.39      2.47412e-16
3953.65      2.46421e-16
3958.91      2.49573e-16
3964.16      2.46072e-16
3969.42      2.40729e-16
3974.68      2.40165e-16
3979.94      2.38179e-16
 3985.2      2.30145e-16
3990.46      2.20959e-16
3995.72      2.17442e-16
4000.98        2.137e-16
4006.24      2.04881e-16
 4011.5       2.0764e-16
4016.76      2.09349e-16
4022.01      2.01239e-16
4027.27      2.01089e-16
4032.53      2.09883e-16
4037.79      2.08514e-16
4043.05      2.07451e-16
4048.31      2.13397e-16
4053.57      2.09884e-16
4058.83      2.07589e-16
4064.09      2.04093e-16
4069.35      1.92669e-16
4074.61      1.91182e-16
4079.86       1.9822e-16
4085.12      1.97826e-16
4090.38      1.99176e-16
4095.64      2.03372e-16
 4100.9      1.99766e-16
4106.16      2.00029e-16
4111.42      2.01663e-16
4116.68      1.89616e-16
4121.94      1.81936e-16
 4127.2      1.83636e-16
4132.46      1.77563e-16
4137.71      1.71173e-16
4142.97      1.66596e-16
4148.23      1.68617e-16
4153.49      1.72832e-16
4158.75      1.70756e-16
4164.01      1.73986e-16
4169.27      1.77856e-16
4174.53      1.78823e-16
4179.79      1.80915e-16
4185.05       1.7931e-16
 4190.3      1.77005e-16
4195.56      1.76519e-16
4200.82       1.7498e-16
4206.08      1.71187e-16
4211.34      1.70983e-16
 4216.6      1.66381e-16
4221.86      1.60124e-16
4227.12      1.54523e-16
4232.38      1.56669e-16
4237.64      1.60268e-16
 4242.9       1.6476e-16
4248.15      1.65634e-16
4253.41      1.67938e-16
4258.67      1.68247e-16
4263.93      1.69519e-16
4269.19      1.73125e-16
4274.45      1.71763e-16
4279.71      1.67626e-16
4284.97      1.65191e-16
4290.23       1.6232e-16
4295.49      1.62354e-16
4300.75      1.61235e-16
   4306       1.5541e-16
4311.26      1.47984e-16
4316.52      1.41129e-16
4321.78      1.34118e-16
4327.04      1.31381e-16
 4332.3      1.41655e-16
4337.56      1.47627e-16
4342.82      1.41109e-16
4348.08      1.37623e-16
4353.34      1.40441e-16
 4358.6      1.42342e-16
4363.85      1.41214e-16
4369.11      1.38285e-16
4374.37       1.3516e-16
4379.63      1.32474e-16
4384.89      1.33597e-16
4390.15      1.39607e-16
4395.41      1.41673e-16
4400.67      1.43696e-16
4405.93      1.43694e-16
4411.19      1.43402e-16
4416.44      1.47857e-16
 4421.7       1.5394e-16
4426.96      1.57955e-16
4432.22      1.59914e-16
4437.48      1.69377e-16
4442.74      1.75512e-16
   4448      1.73679e-16
4453.26      1.71277e-16
4458.52      1.71608e-16
4463.78      1.74841e-16
4469.04      1.81255e-16
4474.29      1.84506e-16
4479.55       1.8547e-16
4484.81      1.90057e-16
4490.07      1.93728e-16
4495.33      1.98205e-16
4500.59      2.02925e-16
4505.85      2.02231e-16
4511.11       2.0219e-16
4516.37      2.08237e-16
4521.63      2.10354e-16
4526.89       2.1716e-16
4532.14      2.21816e-16
 4537.4      2.20425e-16
4542.66      2.18338e-16
4547.92      2.18996e-16
4553.18      2.29456e-16
4558.44      2.33959e-16
 4563.7      2.25462e-16
4568.96      2.22259e-16
4574.22       2.2281e-16
4579.48      2.24914e-16
4584.73         2.26e-16
4589.99      2.25563e-16
4595.25      2.20786e-16
4600.51      2.18392e-16
4605.77      2.17428e-16
4611.03      2.16875e-16
4616.29      2.19639e-16
4621.55      2.20476e-16
4626.81      2.12424e-16
4632.07      2.08376e-16
4637.33      2.11565e-16
4642.58      2.16034e-16
4647.84      2.13263e-16
 4653.1      2.03103e-16
4658.36      2.03505e-16
4663.62      2.06828e-16
4668.88      2.00649e-16
4674.14      1.97983e-16
 4679.4      1.97565e-16
4684.66      1.94921e-16
4689.92      1.95989e-16
4695.18      1.93821e-16
4700.43      1.92288e-16
4705.69      1.95405e-16
4710.95      1.92546e-16
4716.21      1.88293e-16
4721.47      1.83307e-16
4726.73      1.76022e-16
4731.99      1.71641e-16
4737.25      1.65596e-16
4742.51        1.629e-16
4747.77      1.62921e-16
4753.03      1.64847e-16
4758.28      1.69177e-16
4763.54      1.75505e-16
 4768.8       1.8199e-16
4774.06      1.80933e-16
4779.32      1.82759e-16
4784.58      1.89037e-16
4789.84      1.90724e-16
 4795.1      1.88627e-16
4800.36      1.84645e-16
4805.62      1.82303e-16
4810.87      1.77482e-16
4816.13      1.66985e-16
4821.39      1.62402e-16
4826.65      1.59321e-16
4831.91      1.53386e-16
4837.17      1.54222e-16
4842.43      1.60954e-16
4847.69      1.67335e-16
4852.95      1.72154e-16
4858.21      1.78446e-16
4863.47      1.86368e-16
4868.72      1.84243e-16
4873.98      1.77063e-16
4879.24      1.78021e-16
 4884.5      1.81012e-16
4889.76      1.83071e-16
4895.02      1.85832e-16
4900.28      1.85936e-16
4905.54      1.84897e-16
 4910.8      1.82958e-16
4916.06      1.82319e-16
4921.32      1.84697e-16
4926.57      1.82583e-16
4931.83      1.77284e-16
4937.09      1.73178e-16
4942.35      1.77388e-16
4947.61      1.70711e-16
4952.87       1.6564e-16
4958.13      1.66219e-16
4963.39      1.57296e-16
4968.65      1.51638e-16
4973.91      1.49359e-16
4979.17      1.45564e-16
4984.42      1.45228e-16
4989.68      1.46318e-16
4994.94      1.49847e-16
 5000.2      1.59773e-16
5005.46      1.70345e-16
5010.72      1.71252e-16
5015.98       1.6332e-16
5021.24      1.59846e-16
 5026.5      1.56869e-16
5031.76      1.52652e-16
5037.01      1.53558e-16
5042.27      1.55528e-16
5047.53      1.57228e-16
5052.79      1.58314e-16
5058.05      1.58537e-16
5063.31      1.57263e-16
5068.57      1.51905e-16
5073.83       1.5035e-16
5079.09       1.5321e-16
5084.35      1.50783e-16
5089.61      1.53286e-16
5094.86      1.53491e-16
5100.12      1.53521e-16
5105.38      1.52605e-16
5110.64      1.47941e-16
 5115.9       1.4692e-16
5121.16      1.48924e-16
5126.42      1.47495e-16
5131.68      1.50415e-16
5136.94      1.55428e-16
 5142.2      1.57891e-16
5147.46      1.55722e-16
5152.71      1.57006e-16
5157.97      1.62291e-16
5163.23      1.64883e-16
5168.49      1.65585e-16
5173.75      1.64005e-16
5179.01      1.64934e-16
5184.27      1.70342e-16
5189.53      1.74339e-16
5194.79      1.72796e-16
5200.05      1.71997e-16
5205.31      1.74114e-16
5210.56      1.72997e-16
5215.82      1.71546e-16
5221.08      1.72421e-16
5226.34        1.697e-16
 5231.6      1.72112e-16
5236.86      1.78722e-16
5242.12      1.73817e-16
5247.38      1.70972e-16
5252.64      1.76479e-16
 5257.9      1.74544e-16
5263.15      1.74848e-16
5268.41      1.82461e-16
5273.67       1.8355e-16
5278.93      1.80481e-16
5284.19      1.77993e-16
5289.45      1.75428e-16
5294.71      1.72761e-16
5299.97      1.69008e-16
5305.23      1.68116e-16
5310.49      1.69596e-16
5315.75      1.69419e-16
   5321      1.66776e-16
5326.26      1.68785e-16
5331.52       1.7074e-16
5336.78      1.69065e-16
5342.04      1.70794e-16
 5347.3      1.70462e-16
5352.56      1.66306e-16
5357.82      1.66184e-16
5363.08      1.70432e-16
5368.34      1.72359e-16
 5373.6      1.68249e-16
5378.85      1.67651e-16
5384.11      1.70849e-16
5389.37      1.68859e-16
5394.63      1.64511e-16
5399.89      1.61319e-16
5405.15      1.60549e-16
5410.41      1.60416e-16
5415.67      1.58576e-16
5420.93      1.59982e-16
5426.19      1.56582e-16
5431.45      1.51738e-16
 5436.7      1.54769e-16
5441.96      1.56634e-16
5447.22      1.54842e-16
5452.48      1.55542e-16
5457.74      1.53066e-16
   5463       1.5222e-16
5468.26      1.57099e-16
5473.52      1.56753e-16
5478.78      1.52478e-16
5484.04      1.48574e-16
 5489.3      1.47327e-16
5494.55      1.50719e-16
5499.81      1.52078e-16
5505.07      1.48832e-16
5510.33      1.46312e-16
5515.59      1.46615e-16
5520.85      1.45323e-16
5526.11      1.38171e-16
5531.37      1.37029e-16
5536.63      1.42178e-16
5541.89      1.40001e-16
5547.14      1.34212e-16
 5552.4      1.37466e-16
5557.66      1.39818e-16
5562.92      1.35652e-16
5568.18      1.30224e-16
5573.44      1.27375e-16
 5578.7      1.27553e-16
5583.96      1.26437e-16
5589.22       1.2419e-16
5594.48      1.22736e-16
5599.74      1.22924e-16
5604.99      1.22122e-16
5610.25      1.19538e-16
5615.51      1.20434e-16
5620.77       1.1888e-16
5626.03      1.17887e-16
5631.29      1.20118e-16
5636.55      1.20533e-16
5641.81      1.20768e-16
5647.07       1.1659e-16
5652.33      1.16066e-16
5657.59      1.15633e-16
5662.84      1.09908e-16
 5668.1      1.07351e-16
5673.36      1.07418e-16
5678.62      1.06865e-16
5683.88      1.05178e-16
5689.14      1.05141e-16
 5694.4      1.04967e-16
5699.66         1.03e-16
5704.92      1.01135e-16
5710.18       1.0094e-16
5715.44      1.03001e-16
5720.69      1.03341e-16
5725.95      1.00347e-16
5731.21      9.67666e-17
5736.47      9.65696e-17
5741.73      9.75218e-17
5746.99      9.54003e-17
5752.25      9.46601e-17
5757.51      9.79005e-17
5762.77      9.74683e-17
5768.03      9.48419e-17
5773.28      9.70533e-17
5778.54      9.67498e-17
 5783.8      9.24301e-17
5789.06      9.13359e-17
5794.32      9.35766e-17
5799.58      9.31032e-17
5804.84       9.0754e-17
 5810.1      9.43803e-17
5815.36      9.50716e-17
5820.62       9.2299e-17
5825.88       9.2178e-17
5831.13      9.23009e-17
5836.39        9.145e-17
5841.65      9.24337e-17
5846.91      9.57456e-17
5852.17       9.6367e-17
5857.43      9.51623e-17
5862.69      9.12216e-17
5867.95      8.96442e-17
5873.21      9.30766e-17
5878.47      9.26574e-17
5883.73      9.15154e-17
5888.98      9.20438e-17
5894.24      9.00572e-17
 5899.5      8.79321e-17
5904.76      8.78121e-17
5910.02      8.95889e-17
5915.28      9.03736e-17
5920.54      8.64539e-17
 5925.8      8.31741e-17
5931.06      8.60551e-17
5936.32      8.83642e-17
5941.58      8.64645e-17
5946.83      8.37254e-17
5952.09      8.50635e-17
5957.35      8.49685e-17
5962.61      8.59704e-17
5967.87      8.78971e-17
5973.13       8.7831e-17
5978.39      8.67315e-17
5983.65      8.44894e-17
5988.91      8.35665e-17
5994.17      8.26548e-17
5999.43      8.13598e-17
6004.68      8.15704e-17
6009.94      8.24962e-17
 6015.2      8.41588e-17
6020.46      8.35185e-17
6025.72       8.3701e-17
6030.98       8.7262e-17
6036.24      8.91042e-17
 6041.5      8.51733e-17
6046.76      8.35782e-17
6052.02      8.50404e-17
6057.27      8.35228e-17
6062.53      8.43217e-17
6067.79      8.55608e-17
6073.05      8.24049e-17
6078.31      8.14131e-17
6083.57       8.1237e-17
6088.83      7.49101e-17
6094.09      6.85672e-17
6099.35      6.70188e-17
6104.61      6.59972e-17
6109.87      6.56444e-17
6115.12      6.54778e-17
6120.38      6.32018e-17
6125.64      6.17676e-17
 6130.9      6.43878e-17
6136.16      6.66406e-17
6141.42      6.73321e-17
6146.68      6.77399e-17
6151.94       6.6763e-17
 6157.2      6.77431e-17
6162.46      7.11541e-17
6167.72       7.2635e-17
6172.97      7.29454e-17
6178.23      7.20757e-17
6183.49      7.20174e-17
6188.75      7.10582e-17
6194.01      6.84381e-17
6199.27       6.7508e-17
6204.53        6.925e-17
6209.79      6.97087e-17
6215.05      6.76211e-17
6220.31      6.62823e-17
6225.57      6.60915e-17
6230.82       6.6384e-17
6236.08      6.59354e-17
6241.34      6.61848e-17
 6246.6      6.66975e-17
6251.86      6.82609e-17
6257.12      7.15341e-17
6262.38      7.38092e-17
6267.64      7.41659e-17
 6272.9      7.34887e-17
6278.16      7.46076e-17
6283.41      7.66217e-17
6288.67      7.83544e-17
6293.93      7.82327e-17
6299.19      7.57907e-17
6304.45      7.77235e-17
6309.71      8.01778e-17
6314.97      8.00819e-17
6320.23      8.05414e-17
6325.49      8.40598e-17
6330.75      8.49172e-17
6336.01      8.20202e-17
6341.26      8.18016e-17
6346.52       8.3617e-17
6351.78      8.45747e-17
6357.04      8.39225e-17
 6362.3      8.36403e-17
6367.56      8.38853e-17
6372.82      8.24367e-17
6378.08      8.21619e-17
6383.34       8.2661e-17
 6388.6      8.33476e-17
6393.86      8.59446e-17
6399.11      8.81713e-17
6404.37      8.73462e-17
6409.63      8.64201e-17
6414.89      8.61107e-17
6420.15      8.56246e-17
6425.41      8.46711e-17
6430.67      8.28478e-17
6435.93      8.27775e-17
6441.19      8.35248e-17
6446.45      8.17801e-17
 6451.7      8.12143e-17
6456.96      8.08989e-17
6462.22      8.32365e-17
6467.48      8.52227e-17
6472.74      8.21828e-17
   6478      7.99523e-17
6483.26      8.04844e-17
6488.52      8.10094e-17
6493.78      8.02983e-17
6499.04       8.1067e-17
 6504.3      8.16619e-17
6509.55      7.91048e-17
6514.81      7.84801e-17
6520.07      7.89255e-17
6525.33       7.8869e-17
6530.59      8.00242e-17
6535.85      7.72436e-17
6541.11      7.54645e-17
6546.37      7.52962e-17
6551.63      7.41048e-17
6556.89      7.76396e-17
6562.15      8.27516e-17
 6567.4      8.20547e-17
6572.66      7.70558e-17
6577.92       7.3053e-17
6583.18       7.2112e-17
6588.44       7.1823e-17
 6593.7       7.0494e-17
6598.96      7.05183e-17
6604.22      6.84585e-17
6609.48      6.97173e-17
6614.74      7.28621e-17
   6620      7.06523e-17
6625.25       6.9879e-17
6630.51      7.13108e-17
6635.77      7.04917e-17
6641.03      7.26442e-17
6646.29      7.35308e-17
6651.55      6.87109e-17
6656.81      6.87456e-17
6662.07       7.0367e-17
6667.33      6.85032e-17
6672.59      6.78769e-17
6677.84      6.89427e-17
 6683.1      6.84316e-17
6688.36      6.67053e-17
6693.62      6.50765e-17
6698.88      6.30315e-17
6704.14      6.29319e-17
 6709.4      6.28657e-17
6714.66      6.35472e-17
6719.92      6.13976e-17
6725.18      5.95522e-17
6730.44      5.56303e-17
6735.69      4.50246e-17
6740.95      3.16488e-17
6746.21      2.39969e-17
6751.47      2.70506e-17
6756.73      3.32263e-17
6761.99      3.50122e-17
6767.25      3.22271e-17
6772.51      3.00982e-17
6777.77      3.46329e-17
6783.03      4.14963e-17
6788.29      4.26648e-17
6793.54      4.37102e-17
 6798.8      4.63306e-17
6804.06      5.09821e-17
6809.32      5.53464e-17
6814.58      5.64384e-17
6819.84      5.61108e-17
 6825.1      5.29716e-17
6830.36        5.307e-17
6835.62      5.55134e-17
6840.88      5.90986e-17
6846.14      5.94718e-17
6851.39      5.48086e-17
6856.65       5.3769e-17
6861.91      5.55337e-17
6867.17      5.82194e-17
6872.43      6.01435e-17
6877.69      5.75978e-17
6882.95      5.54056e-17
6888.21      5.67024e-17
6893.47      5.42567e-17
6898.73      5.14502e-17
6903.98      5.58204e-17
6909.24      5.84198e-17
 6914.5       5.6864e-17
6919.76      5.61717e-17
6925.02      5.39331e-17
6930.28      5.21096e-17
6935.54      5.17301e-17
 6940.8      5.17384e-17
6946.06      5.20768e-17
6951.32      4.98502e-17
6956.58      5.01699e-17
6961.83      5.29149e-17
6967.09      5.09358e-17
6972.35      5.22945e-17
6977.61      5.42856e-17
6982.87      5.19991e-17
6988.13       5.0854e-17
6993.39      5.40598e-17
6998.65      5.46414e-17
7003.91      5.08096e-17
7009.17      4.95953e-17
7014.43      4.91601e-17
7019.68      4.89524e-17
7024.94      5.08376e-17
 7030.2      5.06631e-17
7035.46      5.11262e-17
7040.72       5.1742e-17
7045.98      5.13788e-17
7051.24       5.0665e-17
 7056.5      5.03351e-17
7061.76      5.15742e-17
7067.02      5.21532e-17
