 log(Bfield)      Mns     Pspin  cutoff_power  cutoff_wavelength  fnickel    kappa  kappagamma   mejecta  log(nhhost)  temperature  texplosion  thetaPB      vejecta      A_V        MJD_0   log(KE)      M_Ni  Peak_mag     Peak_MJD 
    14.59235  1.70892   3.25401        1.2942         5709.27743  0.12363  0.05275     0.02365    6.8626     19.52771    4486.1449   -16.02954  1.34146   5441.85357  0.01873  51225.09046  52.03426   7.57318   17.7731  51249.47388 
     13.5979  2.07646  29.60464       3.31867         2537.01219  0.17826  0.04093     0.29099  20.29679     16.34691   3365.57386   -25.00212  1.29849  17458.79998    1e-05  51216.11788  53.14579  13.71475  17.35946  51225.13779 
    14.43586  1.36742   4.24619       1.91352         4342.99627  0.06675  0.04126     0.13725  14.15082     16.05191   4340.85883   -28.20012  0.79846   7153.18299    1e-05  51212.91988  52.34027   4.78719  18.17488     51241.12 
    14.94607  1.64372   1.98472       4.23794         4102.12121  0.17735  0.08349     0.15083   7.94373     16.61154   3002.55801   -27.56087  0.53247   6417.22842    2e-05  51213.55913  52.19221  11.23867  17.67229  51244.06586 
    14.88053  1.80635  14.95217       0.53704         4132.47083  0.14361  0.03365      0.0164  25.44248     18.20409   4310.56956   -28.95904  0.99406  13218.86417  0.00089  51212.16096  52.92222  11.51836  17.70333  51246.76987 
    14.35311  1.61177   5.27294       4.39352         4143.19238  0.08245  0.06176     0.05251   9.21562     18.09021   3226.19661   -31.35991  1.55682   6259.32863  0.00068  51209.76009  52.18505    5.4021  17.35784  51222.43378 
    14.37727  1.29885   2.20786       4.56821          4070.3149  0.14189  0.05553      0.3794  10.11499     21.08598   3616.50621   -18.49312  0.93873   7039.86728  0.67718  51222.62688  52.29596   9.48769  17.42724  51238.65784 
    14.65255   1.4917  21.12495       3.56439         3946.83632  0.23848  0.03739     0.02931  12.60027     18.53652   4560.67962   -18.05248  0.83579  16518.79757  0.00191  51223.06752  53.05695  16.70353  17.56171  51230.54581 
    14.78527  1.97134   4.51846       1.25642          4663.1098  0.20618  0.07089      0.2472    7.0796     18.89046   3274.04683   -23.13208  0.87204   7883.21052  0.00432  51217.98792  52.35936  12.72255  17.99496  51230.54581 
     14.2982  2.09628   4.90614       4.70108          3448.9253  0.20111  0.12646     0.03048   3.18009      20.5202   5201.56042   -47.40783  1.23811   6388.23942  0.18405  51193.71217   52.0865  10.08166  17.39369  51217.02576 
    14.65671  1.74997    3.5248       3.90909         4001.27537  0.13247  0.08876     0.06317   8.70407     16.94298   4107.18374   -44.84665  0.60496   5742.34299    5e-05  51196.27335  52.10466   8.56973  17.56945  51238.65784 
    13.67557  1.75238  13.95682       2.68695         3576.13511  0.22315  0.01951     0.01174  19.39332     18.48223   4983.09185   -26.08632  0.92599  16280.78584  0.00169  51215.03368  53.08138  17.02146  17.84095  51233.24982 
    13.59323  1.55159  20.48874       2.76619         2308.39021   0.0901  0.02734     0.19668  48.06081     19.77454   3149.50983   -43.33807  1.39599  12416.81175  0.03306  51197.78193    52.915   8.05554  17.78688  51235.95383 
    13.05157  1.49262    9.2052       2.73376         2159.78792   0.4942  0.17171     0.01011  14.70789     19.21377   4115.90793   -62.19095  1.07404   9067.24693  0.00909  51178.92905  52.54959  35.72085  17.96191  51246.76987 
    14.23283  1.49598   7.78826       4.89799         4076.06891  0.09619  0.03211      0.0268   7.05981     18.07895   4482.63103   -18.75375  1.21099  10141.79202  0.00067  51222.36625  52.57789    5.9313  17.68991  51244.06586 
    14.35542  1.87552   4.54255       3.07243         4110.07153   0.1885  0.11178      0.2562   2.78355     16.58374   3228.21495   -34.62289  1.45692   7419.17866    2e-05  51206.49711  52.19943   9.08682  17.24331  51246.76987 
     14.5762  1.81491   1.89807       2.57602         4212.19478  0.10988  0.07597     0.48159   7.71312     16.95091   4539.08904   -35.01965  1.16878   5061.15616    5e-05  51206.10035  51.98309   6.91651  18.30776   51254.8819 
     14.5484  2.04496   1.95517       4.67537         3906.26083  0.16736  0.12991     0.27988   7.87155     19.32509   6025.88146   -53.75889  1.24066   6012.42227  0.01174  51187.36111  52.13471  10.58355  17.83487  51233.24982 
    14.67848  1.79804   1.79197       2.16054         3937.73792   0.0605  0.02441     0.43929   28.9771     19.89524   3430.79971   -25.10729  1.39239   8527.67495  0.04365  51216.01271  52.55156   4.96599  17.91458  51244.06586 
    14.32749  1.60476   4.99617       3.01836          2264.1891  0.09768  0.05909     0.19289   4.29018     19.70243   3151.34523   -15.30597  1.48893  11334.60307    0.028  51225.81403  52.62053   5.31995    17.949  51246.76987 
    14.37226  1.53325  11.69756       3.92833         3688.23633  0.49437   0.0358      0.0174   7.39032     20.51465    4163.3708   -20.68242  1.26656  12927.53021  0.18171  51220.43758  52.79333  30.81206  17.79495  51244.06586 
    14.20422  1.62977    2.9833       4.03803         2953.47957  0.08615  0.10774     0.42226  11.47235     19.12261   3815.24733   -69.45846  1.19535   6564.05461  0.00737  51171.66154  52.24684   5.91703  17.83769  51249.47388 
    14.47745   1.7599   1.38927       1.92311          2375.9626  0.11465  0.06682     0.24699     10.01     20.67218   3738.06466   -38.13642  0.87839   7477.33871  0.26116  51202.98358  52.34734   7.64867  17.64335   51227.8418 
    12.62801  1.59267  16.61611       3.83883         3979.55312  0.09987  0.02593      0.1809  39.77267     17.15099   3546.72512   -34.42745   1.0478  13368.40745    8e-05  51206.69255  52.96564   8.65525  18.02334   51200.8017 
    14.37964  1.89297   3.15011       4.82827         4137.38251  0.07969  0.06739     0.09288   8.77012     16.55278   4733.79706   -49.38289  1.43333    5475.9127    2e-05  51191.73711  52.06413   5.16387  17.55103  51246.76987 
     14.6803  2.00874   2.41017       4.98723         3982.90964  0.04058   0.0329     0.36431  22.12408     18.82125   3207.76295   -37.37007  1.17808   4608.58227  0.00368  51203.74993  51.99588   3.17293  17.66048  51244.06586 
    14.51656   1.8426   7.69649       4.90936         3885.51715  0.09306  0.04035     0.06718   5.96883     20.93254   6192.07019   -15.47126  0.60367  11242.04798  0.47562  51225.64874  52.64991    5.5127  16.83376  51198.09769 
    15.09518  1.88564   4.29846       0.66499          4671.0343  0.30617  0.07598     0.23486    4.4387     17.42062   3303.21009   -14.46454  0.33275  11974.59579  0.00015  51226.65546  52.67215  16.82497  17.37908  51230.54581 
    14.47163  1.69383   1.30977       4.66576         2216.42526  0.04097  0.03174     0.07947  37.10715     16.18383   5390.88437   -48.33625  1.27751   7287.90268    1e-05  51192.78375  52.43363   3.50922  17.76388  51238.65784 
    14.40217  1.54805   3.87612       3.44192         3944.36396  0.13079  0.12185     0.09405   5.84274     17.33048   5674.08652   -33.70004  1.32129   5800.12942  0.00012  51207.41996  52.07283   7.70714  17.35565  51235.95383 
    14.24224    1.315   5.20984       4.20156          3288.6038  0.08494  0.04698     0.20586  11.91248     20.04558   4892.14611   -25.73543  1.48977    8233.1819   0.0617  51215.38457  52.44706   5.88074  17.93284  51214.32175 
    14.74137  2.18866   2.88803       3.89862         3225.22567  0.23557  0.13958     0.12909   6.28642     17.76551   5136.62107    -34.6577  1.05771   8000.22243  0.00032   51206.4623  52.35989  14.13091  18.03343  51244.06586 
    14.60676  1.95539   1.63567       0.95181         5059.26515  0.08837  0.07786     0.09957   8.96861     19.60674    5037.0735   -39.33532  0.96261   5759.33692  0.02246  51201.78468  52.11012    5.7552  17.37034  51235.95383 
    14.42362  1.18691  12.18478        4.1884         3592.77085  0.26583  0.03335     0.01764  11.49826     18.03219   3941.43128     -18.365  0.70034  13900.79292   0.0006    51222.755  52.89878  18.26749  17.80698  51230.54581 
    14.65405  1.91574  28.09853       1.62511         4103.14272  0.44854  0.06207     0.03111  11.62508     19.72308   5003.73783   -21.97148  0.02156  18120.48539  0.02936  51219.14852  53.13005  30.89466  18.33369  51252.17789 
    14.52016  1.95868  21.18398       4.17153         2303.23293  0.38603  0.07262     0.01764   10.7619      16.0284   3619.04768   -28.32983  1.44202  12829.95612    1e-05  51212.79017  52.82306  26.15827  17.49265  51246.76987 
     14.5675  1.40551   2.99661       4.12698         2878.84154  0.21183   0.1082     0.38602   6.56096     16.59396   3126.45571   -25.57638  0.75652   9390.33512    2e-05  51215.54362   52.5035  12.83772  18.17514  51244.06586 
    14.71316  2.13295   1.04566       4.90381         4072.73866  0.10626  0.10251     0.24319  10.51154     16.56337   3654.82003   -48.52767  1.18575   5136.29267    2e-05  51192.59233  52.02573   7.16392  18.08715  51241.36185 
    14.44059  1.74614   6.55471       3.38237         3086.33612   0.2447  0.09699     0.12468   5.30693     17.31328   6052.71393   -28.16987  1.37872   9128.13574  0.00011  51212.95013  52.45634  14.07933  17.63628  51246.76987 
    14.51674  1.68723   6.87149         4.284         4209.33154  0.05113  0.02303      0.1603  15.12055     16.63175   4558.15259    -22.1656  0.97933   6113.59602    2e-05   51218.9544  52.20963   3.71603  17.74055  51238.65784 
    14.75027  1.71133    0.9676       4.64173         4009.36396  0.08684  0.06781     0.18916  14.77396     19.10849   3837.15303     -33.471  1.06372   5878.50541  0.00713    51207.649  52.17357   6.28243  17.86436  51179.16962 
    14.28195    1.567   4.32953       4.44885         3912.68101  0.22787  0.09229     0.03128   6.54812     19.24494   4027.72551   -42.51271  1.49721   7534.72813  0.00976  51198.60729  52.31207  13.80376  17.50563  51244.06586 
    14.98833  1.46543  20.27432       2.85493           2452.686  0.43788  0.02614     0.01425   16.4524     16.77974   3347.28435   -63.55459  1.17291  12145.24023    3e-05  51177.56541  52.81309   32.3598  17.44079  51233.24982 
    14.49016  1.68111   2.75034       4.37885         2920.73668  0.04428  0.03442     0.46437  22.02203     19.38389   4657.89483   -31.27991  1.43801   6389.74461  0.01345  51209.84009  52.27934   3.45928  17.72626  51249.47388 
    14.03707  1.40935  15.25008        2.5402         3823.09671  0.24638  0.05076     0.01082  21.59456     16.87466   4758.84417   -71.08349  0.70178   8101.62497    4e-05  51170.03651  52.48394  19.17639  17.57657  51238.65784 
    14.43472  1.35969   4.65025         1.177         4229.16404  0.05786  0.02799     0.02798  21.47622     16.92756   3738.81589   -18.60933  1.12061    9129.8361    5e-05  51222.51067  52.58728    4.4985  17.73947  51244.06586 
    14.67149  1.64161   3.80885       1.51207          5998.9901  0.09093  0.06142     0.09637   6.93673     19.92551   3147.15174   -26.41064  0.67289   3815.94086   0.0468  51214.70936  51.72707   5.58413  17.82531  51241.36185 
    14.77546  2.02818  17.35949       1.05414         2281.85366  0.14452  0.03605     0.31601  74.73656     16.49182   3994.44486  -183.84586  0.69576   4687.39032    2e-05  51057.27414   52.0988  13.84326  17.22053   51227.8418 
    14.48501  1.84659    6.5948       2.97253         3676.06493  0.27914  0.23047     0.37112   1.97144     16.31959   3251.67253    -20.9782  1.31503   7867.22593    1e-05   51220.1418  52.20292  12.06339   17.7557  51249.47388 
    14.72981  1.82488    3.0164        4.0541         3797.01919  0.05088  0.05652     0.28968  21.82062     18.72748   3163.65247   -26.98587  0.95541   7737.99072  0.00297  51214.13413  52.44489   3.96815  17.68739     51241.12 
    12.82697  2.13367   28.6302       2.33985         3300.62502  0.48277  0.04748     0.01157  16.53777     19.68822   4266.83715   -78.91848  1.08258   8650.31941   0.0271  51162.20152  52.51878  35.71328  17.94032  51246.76987 
    13.50939  1.54925  19.93321       1.60825         3511.22351  0.35488  0.07824     0.01451  30.81895     18.87623   3101.01414  -141.72228  1.02338   7133.89039  0.00418  51099.39772  52.40124  29.44699  18.25734  51249.47388 
    14.59074   2.1526   6.17628       4.92977         3897.16775  0.10538  0.07224     0.20389  10.38708     17.95573   3218.32627   -41.50285   1.0806    6336.7104   0.0005  51199.61715  52.20704   7.08659  17.80794     51241.12 
    14.70378  1.98501   4.20272       2.91005         2158.88171  0.15549  0.05027     0.19471   8.96536     17.75625   6210.49221   -14.32228  1.13295  11665.37343  0.00032  51226.79772  52.72314  10.12585  18.27965  51252.17789 
    12.99356  1.81127   7.61698       3.54639         3523.38848   0.0762  0.01695     0.21928  40.15516     17.59167   3040.31896   -20.93379  1.01821  14401.43005  0.00022  51220.18621  53.03098   6.61409   17.6162  51246.76987 
    13.31357  1.99918  26.64967       4.31665         3668.05262  0.10846  0.01958      0.0115  43.24867     18.88606   3803.71544   -31.10353  0.13681  15959.85527  0.00427  51210.01647  53.12556     9.531  17.68911  51235.95383 
    14.64724  1.98512   2.87221       3.40807         4156.11291  0.05921  0.03605     0.35624  21.50181      18.9209   3109.98822   -40.24952  1.03471   6144.95788  0.00463  51200.87048  52.24349   4.60477  18.03471  51244.06586 
    14.34336  1.88769   7.64715       1.96145         4541.01953  0.26207  0.07519     0.01892   6.09986     20.48265     4665.214   -36.64894  1.07929   7287.71563   0.1688  51204.47106   52.2757  15.60629  17.52956  51244.06586 
    14.64419   2.0805   1.43877       2.21972         4537.09308  0.12089  0.06995     0.23183  12.06965     19.84771   3317.85057   -47.73161  1.38013   5248.44918  0.03912  51193.38839  52.05718   8.39256  18.25633  51246.76987 
    14.63085  1.80236   2.00617       0.49541         4535.22371  0.13737  0.06001      0.3668  12.47314      18.4718   3602.28506   -27.34031  1.56652   8728.24083  0.00165  51213.77969  52.50193   9.60165  17.71823  51235.95383 
    14.64301  1.73498   5.16136       4.51197         4124.85077  0.04547  0.02209     0.05704  25.92477     20.16427   3769.98512    -18.0223   1.5174    6345.5704   0.0811   51223.0977  52.28624   3.65945  17.73991  51244.06586 
    14.57224  2.10765   1.37084       4.97324         2322.69136  0.01388  0.02777     0.02649  35.98041     16.16245   5534.14866   -53.41495  1.25216   4566.05165    1e-05  51187.70505  52.02524   1.18287  18.02961  51249.47388 
    14.30901  1.40255   3.97006       4.91277         4007.17665  0.06289  0.05752     0.08946  15.31421     20.65044   3920.28728   -40.70914  0.85708   6372.10916  0.24841  51200.41086   52.2467   4.58253  17.64948  51241.36185 
    14.37264  1.79938   4.12259       0.41961         3877.11768   0.0743  0.05843     0.02059   9.60599     17.03254   6897.74316   -39.96284  1.25967   6680.08057    6e-05  51201.15716  52.24551   4.91251  17.47192  51235.95383 
    14.66109  1.68431  15.06832       3.85616         3190.71414  0.27272  0.02811     0.01851  10.33605     18.05269   4363.02614   -16.40525  1.35751   13567.8832  0.00063  51224.71475  52.86788  18.32106  17.82922  51249.47388 
    13.71395  1.36318   27.5742       1.13936         2542.15763  0.24572  0.02932     0.01392  21.20873     18.10689   4340.70497   -26.59255  0.97472  17634.50122  0.00071  51214.52745  53.15806  19.06159  17.65874  51246.76987 
    14.75321  2.16561   2.50311       2.92477         3509.03172  0.12801  0.06643     0.36523  12.84236     19.07993   4203.06449   -31.32844   1.0735   8793.89178  0.00668  51209.79156  52.51106   9.00133  17.93029  51233.24982 
    14.42282  1.83392   6.11867        2.3401          2581.4904  0.12132  0.10025     0.02075  10.10944     18.28241   3610.48785   -40.38426  1.01557   8138.39709  0.00106  51200.73574  52.42185   8.11134  17.50832  51241.36185 
    15.10867  1.61183  20.96074       4.22492         3949.37299  0.22755  0.02387     0.01171    16.121     19.10163   3330.83257   -21.82958  1.07025  12930.41853  0.00702  51219.29042  52.86577  16.74876  17.99479  51252.17789 
    14.51669  1.72422    5.4509       3.35821         4304.37114  0.18811  0.08449     0.14231   5.63002     17.44348   3647.10247   -24.36587  1.29618   6934.55362  0.00015  51216.75413  52.22402  10.98408  17.87652  51252.17789 
    14.50464  1.86927   3.46687       3.88741         3720.43827  0.12904  0.08677     0.34289   7.44865     20.36338    4461.4001   -35.23331  0.95966   7407.92292  0.12826  51205.88669  52.31048   8.05732  17.58059  51244.06586 
    14.70565   1.9142   2.66321       2.36164         4613.07686  0.05236  0.03851     0.08245  13.38245      19.9481   3780.89069   -36.02736  0.75011   4075.81131   0.0493  51205.09264  51.84679   3.71332  17.57772  51244.06586 
    15.00632  1.76427   8.23717       2.96066         4410.74346  0.17346   0.0672      0.0297   9.76482     17.23228   4244.35635   -26.37201  0.32222   8689.70337    9e-05  51214.74799  52.47552  11.51022  19.11784   51306.2581 
    14.28023  1.58255   2.09351       1.20269         4144.94463  0.18764  0.10895     0.02148   4.99356     19.71239   4305.12028   -39.15634  1.35813   6383.32976  0.02865  51201.96366  52.13898  10.63135  17.81853  51225.13779 
     14.5342  1.74686   4.38778       2.62252          3676.6477  0.17465  0.03562     0.01642  15.22154     18.15773   5066.70381   -30.41016  1.27873   10968.4955   0.0008  51210.70984  52.71791  12.71022  17.29907  51235.95383 
    12.46215  1.89295    8.8614       4.22778         2274.38572  0.31284  0.02715      0.0101  21.97244     16.61352   4413.32334   -53.26629  1.08194  12066.02099    2e-05  51187.85371  52.83132  24.42799  17.27485  51233.24982 
    14.58614  1.64253   5.01575       2.53875         4795.45988  0.02567  0.01248     0.37464  24.35283     17.60013    3864.7157   -18.68801  0.90791   5100.02711  0.00022  51222.43199  52.09153   2.04231  17.73621  51244.06586 
    14.71203   2.0179   3.80769       3.15927         3212.17203  0.02306   0.0129     0.02207  51.04364     19.31741   6292.93199   -22.95755  1.34121   7514.59291  0.01154  51218.16245    52.483   2.08211    17.502  51217.02576 
    14.60822  1.82266   1.44237       1.22172         3885.69154  0.02515  0.02025     0.18361  34.75487     18.67486    4467.6614   -27.73885  1.40221   6173.25987  0.00263  51213.38115  52.28462   2.13067  17.55838  51233.24982 
    14.71783  1.76491   3.00484       3.19683         4595.66506  0.12714  0.02613     0.19616  11.81665      20.8306   4057.07297   -10.70168  1.42995   5219.10111  0.37612  51230.41832  52.05039   8.78692  18.26438  51244.06586 
    14.52974  1.85728   1.57948       4.91446         3796.74545  0.06378  0.05594     0.40843  13.44942     20.94007   3692.23967   -43.18198  0.96694   4287.43892  0.48395  51197.93802  51.89119   4.52757  16.89086  51219.72977 
    12.99797   1.7429   4.35895        2.7844         3510.09424  0.31491  0.04859     0.01257   22.5144     18.90617   3432.58629  -105.03685  0.31681   6739.61458  0.00448  51136.08315  52.32742  24.70026  17.63557  51230.54581 
    14.30203  1.55307    7.4642        3.2224         4114.39214  0.26922  0.08656     0.08365   2.48681     16.91951   3881.94091   -17.04806  1.05775  10887.08758    5e-05  51224.07194   52.5176  12.53884  17.87552  51246.76987 
    14.60128  1.75635    2.7588       4.05241         2661.87924  0.19799  0.08845     0.12987   7.29953     20.24404   3179.38516   -21.44142  1.06762   9588.56367  0.09745  51219.67858  52.53256  12.30453  17.47388  51246.76987 
    14.38917  1.50204   1.48491       4.98873         4061.46463   0.2428  0.20468     0.11811   5.98581     17.55117   3574.09935   -77.66741  0.66453   5377.05044   0.0002  51163.45259  52.00961  14.39253   17.6874  51230.54581 
