 log(Bfield)      Mns    Pspin  cutoff_power  cutoff_wavelength  fnickel    kappa  kappagamma  mejecta  log(nhhost)  temperature  texplosion  thetaPB      vejecta      A_V        MJD_0   log(KE)      M_Ni  Peak_mag     Peak_MJD 
    13.84843   1.6523  4.40961       1.38616         4050.79195  0.00712  0.09846     0.01711  1.58562     16.68948   6478.03123   -19.29344  0.65007   8491.67274    3e-05  57958.52584   52.2364   0.28509  16.89765     57989.82 
     13.8152  1.81989  3.94562       1.51265         3670.33679  0.03494  0.11874     0.01565  1.41333     18.20697   3423.25514   -17.39374  0.52424   9499.35388  0.00089  57960.42554  52.31538   1.34175  16.89702  57990.01679 
    13.54373  1.86635  3.73581       1.54002         4212.06013  0.00104  0.10399     0.01082  1.45516      18.6178   3657.70821   -16.10555  1.05923   8779.45799   0.0023  57961.71373  52.25167   0.04035  16.87685      57986.0 
    13.72847   1.7475  3.84845        2.0043         4000.88038  0.01018  0.13847     0.01654  1.06187     16.65215   9714.10171   -16.45463  0.67087   8696.55447    2e-05  57961.36465  52.18921   0.34868  16.85655     57987.78 
    13.32192  1.46107  3.01537       1.44101         4132.36444  0.36033  0.13911     0.01329   1.1887     16.86061    4182.7764   -12.51257   1.2593   9403.68094    4e-05  57965.30671  52.27732  12.93589  16.88773     57989.82 
     14.0349  2.00099  5.86237       2.24545          3827.4557  0.00532  0.04812     0.01271  2.99557      19.3446   9621.33634   -22.83698  0.88785   7627.77586  0.01228   57954.9823  52.23298   0.26213   16.7928      57986.8 
    13.56547  1.68989  4.11714       1.67449         4024.02436  0.03836  0.06984     0.01023  2.21956     18.63966   3704.99138   -18.19774  1.51478   8603.98949  0.00242  57959.62154  52.29757   1.72366  16.90045      57986.0 
    13.54111  1.95099  3.91205       1.59346         4097.68065  0.40332  0.11244     0.01133  1.40759      18.8735   6185.01702   -14.38658   1.0451   8917.00855  0.00415   57963.4327  52.25977   15.4651   16.7598  57982.30622 
     13.9989  1.69606  4.19623        1.3498         4142.87015  0.29593  0.06859     0.01026  2.43042     18.10171   5581.63051   -14.53829   0.3499   9845.85851   0.0007  57963.28099  52.42718  13.68487  16.88198     57991.15 
     13.4521  1.93958  3.50611       2.26042          3730.0931  0.00702  0.11128     0.01034   1.3707     18.39663   7596.18163    -15.2042  1.23584   9041.14052  0.00138  57962.61508   52.2674   0.26634  16.79354  57990.01679 
    13.72499  1.80866  3.48095       2.14053         3535.11474  0.00233  0.11905     0.01141  1.13235     20.46828   3537.74313   -16.64113  0.62359   7818.77327  0.16331  57961.17815  52.10842   0.08184  16.75061      57986.8 
    13.72301   1.9771  4.21125        1.5958         4045.03509  0.19979  0.08618     0.01082  1.87741     16.28959   4362.46537    -13.0534  0.77885   9889.06295    1e-05  57964.76588  52.39442   8.49298  16.78038     57987.78 
    13.92373  1.81829  4.67601       1.71303         4069.20923  0.00196  0.11264     0.01982  1.13354     19.45837   5642.13963   -25.42211  0.67126     7090.596  0.01596  57952.39716  52.02369   0.06902  16.83253     57986.77 
    13.57236  1.67437  3.89442       1.79454         3903.22758  0.37111    0.101      0.0137  1.64796     18.09948   7237.24027   -15.78773  0.87211   9242.34937   0.0007  57962.03155  52.31598  15.07609    16.836     57989.82 
    13.56697  1.57932  3.96085       1.61154         4053.34888  0.00234  0.08374     0.01141  1.81621     18.10601   7310.63174   -24.10554  1.32314   7563.59408  0.00071  57953.71374  52.15665   0.09835  16.75948  57978.45093 
    13.37752  1.26981  3.48421       1.62524          3808.9461  0.46657  0.11196     0.01733  1.56553     17.70895   6604.31536    -16.9043  1.51997   9272.07673  0.00028  57960.91498  52.31076  18.60784  16.83932     57989.82 
    13.88239   1.8726  4.74958       1.39862         3991.20485  0.07871  0.09639     0.01584  1.63276     17.37021   7360.02994   -21.75751  0.69898    8215.8177  0.00013  57956.06177  52.21228   3.18701  16.78051     57990.82 
     13.7642  1.76434  4.35558       1.87856         4073.29543  0.00133   0.1171     0.01641  1.00113     16.34174   9255.36521   -24.46696  0.84983   6624.58637    1e-05  57953.35232   51.9419   0.04456  16.93669     57989.82 
    13.67622  1.77623  3.88374       2.08027          3734.1535  0.00327  0.23755     0.02871  0.65508     19.24838   6535.13983   -15.08381  0.70608   8693.05639  0.00984  57962.73547  52.08986   0.08924   16.8171     57991.15 
    13.65669  1.98017  4.27336       1.95918         3685.27511  0.14788  0.07988     0.01041  1.91062     19.21193   5514.70371   -16.91731   1.0215   8997.39153  0.00905  57960.90196  52.31493   6.32363  16.88655     57989.82 
    13.83929  1.96396  4.51325       1.98167         3677.19194  0.00692  0.08823     0.01242  1.87212     16.47675    4795.7747   -13.41283  0.66191   9463.13995    2e-05  57964.40645  52.35577   0.29382  16.89532     57987.78 
    13.47396   1.7832   3.6594       2.14043         3843.21264  0.00936  0.09646     0.01019  1.57082     19.45679   5224.42392   -14.78322  1.50425   8954.39197   0.0159  57963.03606  52.28101   0.37363  16.90199     57989.82 
    13.64309  1.73526  4.32178       1.82105         4072.55027  0.04502  0.07775      0.0121   1.9402     18.71306   5044.13871   -18.13093  1.12608   8510.78841  0.00287  57959.68835  52.26889   1.93507  16.83972     57989.82 
    13.83916  1.79001  4.80879       1.26644         4069.49092  0.00807  0.18672     0.03684    0.799     17.87326   5175.38406   -27.10877  0.98047   7365.31129  0.00041  57950.71051  51.98937   0.24321  16.82307  57990.01679 
    13.56734  1.66015  4.30545       1.66226          4039.5492  0.35058  0.07651     0.01164   1.9014     18.57276    7619.2425   -19.54979   1.4618   8171.71249  0.00208  57958.26949  52.23061  14.96754   16.8072     57991.15 
    13.60065  1.65948  3.77783       1.75761         3941.93838  0.01368   0.1109     0.01371  1.40119     19.53372    7869.3467   -17.22431  0.94331   8735.54632  0.01899  57960.59497  52.24116   0.52346  16.84495     57990.82 
    13.82005  1.78422  4.30589       1.92484         3669.49556  0.00223  0.10929     0.01659  1.46626     19.74689   7116.90347   -20.50238  0.70989   8488.53541  0.03102   57957.3169  52.22363   0.08677  16.79074  57990.01679 
    13.71078   1.6009  4.36479        1.5071         3790.57384  0.02475  0.04775     0.01004  2.80909     17.11241   8039.46639   -29.24113  1.34497   7234.51922    7e-05  57948.57815  52.17873    1.1964  16.86592     57987.78 
    13.58099  1.71344  4.10915       2.07774         3491.80634  0.32506  0.06954     0.01029  1.92323     20.18468   8440.98195   -17.72838  1.37947   8298.06734    0.085   57960.0909  52.24562  13.93134  16.88676  57990.01679 
    13.52437  1.72309  3.69892       1.99279         3684.96081  0.01157  0.09559     0.01085  1.64255     19.95108   7359.92826   -18.30923  1.26641   8568.49187  0.04964  57959.51005  52.24971   0.46962  16.83243     57989.82 
    13.86017   1.7759  4.10777       1.90976         4009.31601  0.00105  0.14318     0.01652  0.88323     16.34234   5866.30978    -18.9683  0.53006   7315.31697    1e-05  57958.85098  52.00384   0.03313    16.905     57990.82 
    13.85082  2.03595  4.05007       1.69375          3992.4556  0.17801  0.12193      0.0136  1.39414     18.30887    4382.6787   -15.85883  0.51734   9481.56254  0.00113  57961.96045  52.31151   6.80098  16.82632      57986.8 
    13.58289  1.59707  3.34618       1.60015         3748.23315  0.00892  0.08156     0.01106  1.73543     20.75122   3151.16148   -20.98566  1.04301   8050.18509  0.31329  57956.83362  52.20395    0.3692  16.86482     57990.82 
    13.71173  1.69459  3.92117       1.84698         3799.94581  0.00862  0.11188     0.01571  1.40394     20.03001   9178.24738   -18.18674  0.72024    8687.4128  0.05953  57959.63254  52.23668   0.33015  16.82125     57987.78 
    13.87236  1.89705  4.76719        1.5582         3905.88796  0.24379  0.06996     0.01097  2.08727     19.66422   3651.89684   -16.49037  0.67279   8424.63521  0.02564   57961.3289   52.2706  10.73701  16.85346     57990.82 
    13.68761  1.68545  4.51604       1.72413         3587.77936  0.00618  0.11188     0.02019   1.2805     19.97624   7994.51753   -19.89451   1.3526   8007.41862   0.0526  57957.92477  52.15053   0.22862  16.82558     57984.14 
    13.56527  1.61937  4.23426       1.98812         3548.58758  0.44623  0.10438     0.01507  1.49671     17.95443    9716.0346   -18.04567  1.27695    8379.4269   0.0005  57959.77361   52.2157  17.50647  16.77637     57989.82 
     13.6447  1.86164  3.83874       2.05041         3897.03149  0.00175  0.14509     0.01344  1.04986     17.36657   9612.43564   -17.01256  0.84237   8036.21937  0.00013  57960.80672  52.11853   0.05975  16.81657  57990.01679 
    13.53082  2.02799  4.02746       2.01163         3814.49674  0.00143  0.09869     0.01146  1.80086     17.29593   3677.87765   -12.25998  1.38933  10145.32783  0.00011   57965.5593  52.41045   0.05976  16.84476     57987.78 
     13.5507  1.44238   3.9449       1.84641         3708.76731  0.02137   0.0981     0.01732  1.63606     17.41997   9687.53946   -17.70528  1.18536   8897.81529  0.00015    57960.114  52.28186   0.86576  16.79405     57987.78 
    13.64891  1.67305  4.05668       1.78653         3700.96926  0.16931  0.10974     0.01734  1.50124     17.90009   6599.99887   -21.10762  1.01073   8944.88419  0.00044  57956.71166   52.2729   6.64991  16.87312     57989.82 
    13.58928  1.61063  3.46056       1.84918         3453.36452  0.21826  0.10724     0.01128  1.60663     16.48022   8435.96852   -20.15892  0.80378   8740.52443    2e-05  57957.66036  52.26354   8.78657  16.84294     57987.78 
    13.70103  1.81035  4.59413       2.39781         3691.98234  0.01555  0.20547     0.03071  0.69187     17.98304   9466.87121   -18.65719  1.14722   7612.07589  0.00053  57959.16209  51.98692   0.43649  16.89599  57990.01679 
    13.58838  1.99038  4.32847       1.80252         4009.68918   0.0895   0.1037     0.01357  1.45258     18.22413   4064.46805   -12.31923  1.28105   9128.09277  0.00093  57965.50005  52.28521   3.47267    16.771      57986.0 
    14.05549  1.82829  4.35427       2.07484         3485.80618  0.00251  0.13976     0.02151  0.98479     16.36798   5091.81003   -23.71997  0.39997   7841.16933    1e-05  57954.09931  52.08524   0.08343  16.81327     57989.82 
    13.37545  1.20747  3.23012       1.44488         3995.18036  0.05931  0.07985      0.0112  1.76596     19.28454   6948.91972   -19.07429   1.3991   7738.38121   0.0107  57958.74499  52.17228    2.4689  16.81886     57987.78 
     13.7108  1.88364  4.52842       1.49953         3888.90103  0.23052  0.08411     0.01243   2.0385     17.11363   7802.69059   -22.77902  1.14736   8563.70667    7e-05  57955.04026  52.28143  10.07392  16.79184     57991.15 
    13.72639  2.13543  4.73257        1.9201          4233.1591  0.07325  0.08073     0.01028  1.83658     16.74983   6494.14743   -16.86119  1.18919   8474.58513    3e-05  57960.95809  52.25709   3.09043     16.85      57986.0 
    13.62166  1.84653  4.02637       1.28838         4355.57692  0.00112  0.09367     0.01237  1.66782     19.93839   3991.99574   -20.77294  1.12644   8595.97912  0.04821  57957.04634  52.25485   0.04586  16.84166  57990.01679 
    13.57523  1.49378  2.90964       1.68196         4000.83276  0.00528  0.12933     0.01302  1.51001     20.12451   6746.33461   -14.75415  0.56397   10345.3762    0.074  57963.06513  52.40018   0.20775  16.84713     57984.14 
    13.49156  1.62456  3.57611       1.50778         3819.12659  0.00266   0.1242     0.01565  1.30205      18.9613   3963.84759   -14.48392  1.05826   9561.31704  0.00508  57963.33536  52.30741   0.09902  16.89509     57990.82 
    13.78795  1.83707  4.52187        1.9125         3814.49833  0.04913  0.10503     0.01573  1.49645     17.13824   4162.11654   -17.28402  0.79189   8461.88316    8e-05  57960.53526  52.22418   1.92742  16.84077     57989.82 
    13.83392  1.96292   4.4404        1.0558         4024.35597  0.00196    0.063     0.01048  2.52395     20.35598   3446.92086   -28.51393  0.98826   7928.03091   0.1261  57949.30535   52.2441    0.0917  16.88798     57987.78 
    13.82597  1.64452  4.45443       1.25757         4026.57624  0.08931  0.07885     0.01563  2.09751     18.86305   7076.41098   -24.12662  0.75442   8690.79484  0.00405  57953.69266  52.29831    3.9396  16.81535     57987.78 
    14.05851  1.83874  4.76955        1.3574         3983.15854  0.10134  0.07568     0.01357  2.15741     18.84403   5336.99879   -19.74362  0.42301   8744.00026  0.00388  57958.07566   52.3076   4.51162  16.82804     57987.78 
    13.63882  1.64572  3.37601       1.86595         3904.66933  0.12009  0.13007     0.01299  1.26894     16.62525   5414.72333   -15.51221  0.60167   8980.59314    2e-05  57962.30707  52.24861   4.42477  16.84323     57992.79 
    13.86937  2.09077  5.14076       1.62818         3852.91003  0.00112  0.10392     0.01745  1.57852     18.09231   6207.48115   -19.72261  0.86895   8598.53095  0.00069  57958.09667  52.24655   0.04463   16.8493      57986.8 
    13.89521  1.88569  4.82458       1.49466         4039.13771  0.01473  0.11998     0.01931  1.16201     16.67505   4340.22682   -20.80853  0.70664   7695.45249    3e-05  57957.01075   52.0992   0.52413  16.80897     57991.14 
    13.58796  1.52462   3.6996       1.71452         4079.68285   0.0033  0.09437     0.01207  1.57753     17.03444   8683.00142   -15.58878  0.86135   8619.65401    6e-05   57962.2305  52.24859   0.13208  16.70494      57986.0 
    13.77861   1.4624  4.11457       1.26551         3613.02215  0.00103  0.05283     0.01045  2.59885     17.71065   7497.49437   -22.72412  0.70286   7843.12031  0.00029  57955.09516  52.23866   0.04842  16.80696  57982.30622 
    13.79924  1.71302  3.68647        1.9965         3840.10446  0.00367  0.10183     0.01213  1.55793     17.16331   8246.23331   -13.25046  0.46209   9378.25706    8e-05  57964.56882  52.31988   0.14611  16.77663      57986.0 
    13.76186  1.86021  4.10106       2.17413         3834.50991  0.18469  0.09685      0.0115  1.46057     19.31427   8548.57891   -14.13921  0.66227   8613.68192  0.01146  57963.68007  52.23572   7.18042  16.83179   57986.1615 
    14.04735  1.82959  5.09345       1.50125         3850.99634  0.00134  0.06196     0.01343  2.49627     18.96615    9021.5032   -20.34124  0.51764   8353.96952  0.00514  57957.47804  52.28808   0.06257  16.73837     57990.82 
    13.68577  1.57988  3.98308       1.39428         3951.46693  0.00175   0.0728     0.01302  2.38938     20.38847   5262.81029   -16.91465   0.8551    9404.9342  0.13589  57960.90462  52.38507   0.08052  16.88026     57987.78 
    13.75397  1.56896   4.0878       1.28166         3931.92309  0.00792  0.06925     0.01196  2.22377     16.12208   3903.77065   -20.65224  0.70723   8638.93453    1e-05  57957.16704  52.30136   0.35628  16.88689     57987.78 
    13.51461  1.48839  3.55636       1.56299         3793.62857  0.00152   0.1052     0.01431  1.44301      16.7717   5469.03755   -21.35243   1.1398   8370.27771    3e-05  57956.46685  52.20886   0.05892  16.83763     57987.78 
    13.74776  1.65973  3.79622       2.07759         3782.17435  0.05076  0.09438     0.01162  1.53707     16.81382   7170.35803   -16.56043  0.57319   8537.65787    4e-05  57961.25885  52.23618    2.0109   16.6874     57986.77 
     13.5723  1.70569  4.12682        2.1737          3938.6433  0.05804   0.1019      0.0139  1.40919     17.91064   8958.42103   -14.67809  1.19279   8712.88914  0.00045  57963.14119  52.23984   2.22633  16.89843     57992.79 
    13.71001  1.52127  3.10596       1.66891         3762.02348  0.01249  0.18886     0.01858   0.7711     19.82909    6878.1163   -17.36352  0.44099   8348.31974  0.03748  57960.45576  52.09071   0.37008  16.84069     57989.82 
    13.62821  1.90852  4.46183       2.08157         3876.21251  0.38761  0.09363     0.01281    1.481     17.25294   9418.84494   -15.19879  1.09828   8347.14359   0.0001  57962.62049  52.21065  15.14779   16.9585     57986.77 
    13.44512  1.58916  3.69156       2.29316         4196.27498  0.00119  0.08973     0.01117   1.4917     16.21981   8731.78083   -13.39268  1.43019    8229.3712    1e-05   57964.4266  52.19946   0.04667  16.94406     57989.82 
    14.12216  1.65389  4.44467       1.55512         4072.35865  0.05318  0.06886     0.01306  2.17564     18.74547   3020.05803   -16.95653  0.32114   8768.16158  0.00309  57960.86275  52.31118   2.37426  16.91468     57991.14 
    13.79807  1.58195  3.62617       2.06557         3632.31814  0.00873  0.11835     0.01421    1.192     16.11088   6838.12862   -19.86068  0.48265   7967.02451    1e-05   57957.9586   52.1338   0.31387  16.69181      57986.0 
    13.78446  1.62876  4.17989       2.14162         3858.81865  0.03678  0.07915      0.0122  1.82106     18.67857   4343.79351   -18.78715  0.69237   7896.28803  0.00265  57959.03213  52.19443    1.5471  16.72824     57987.78 
    13.65702   1.8749  4.12804       2.60725         3595.50146  0.06769  0.11995     0.01465  1.32477      16.3698   8143.05256   -15.75232  0.94448   8787.93454    1e-05  57962.06696  52.23705   2.53628  16.78635     57989.82 
    13.46158  1.85853  3.40294       1.77067         3761.58462  0.00171  0.12824     0.01115  1.25564     16.59141   5697.18531   -16.83035   1.3434   8960.11943    2e-05  57960.98893  52.24483    0.0626  16.78995     57987.78 
    13.78481  1.89289  4.20792        1.5213         3874.76457  0.28878  0.12466     0.01535  1.37915     17.09227   3645.70637    -18.5668   0.6886   8894.79018    7e-05  57959.25248  52.25424  10.98784  16.88453     57992.79 
    13.63947  1.83646  4.29168       1.73189         3813.65676  0.02613  0.09682     0.01495   1.5058     19.57469   3426.60628   -17.45416  1.13174   8814.12179  0.02086  57960.36512  52.26059   1.02745  16.77168     57989.82 
     13.7702  1.84426  4.00551       2.08114         3348.63789  0.00223  0.11183     0.01411  1.51806     19.64004   8069.27338   -20.05428  0.64963   8699.95475  0.02425    57957.765  52.25056   0.08791  16.81812     57987.78 
    13.90601  2.14688  4.73494       1.67908         3860.07112  0.01823  0.10105     0.01412  1.47851     16.90544   5529.41919   -17.52548  0.62157   8771.27102    4e-05   57960.2938  52.25343   0.71194  16.86516     57983.44 
    13.45582  1.60715  3.47583       2.04477         3775.94744  0.08504  0.09496     0.01085  1.50136     19.07541   6318.06916   -14.68917  1.12325   8668.96201  0.00661  57963.13011   52.2457   3.34023  16.89731     57987.78 
    13.48594  1.72739   3.7546       1.87496         3862.23756  0.00188  0.11908     0.01503  1.38169     19.54554   4239.46373   -15.22944  1.42616   9438.34002  0.01951  57962.58984  52.30607   0.07171  16.79477     57987.78 
    13.34276  1.49502  3.20672       2.21739         3884.26445  0.03952  0.10509     0.01135  1.48857     19.57321   4693.58859   -12.53198  1.39571    9119.5947  0.02079   57965.2873  52.28835   1.54737  16.81863      57986.8 
    13.68691  1.86054  4.01363       1.90431          3902.6478  0.00198  0.15677     0.02112  1.07306     18.83496   4453.81207   -14.68573  0.74347   9838.04176   0.0038  57963.13354  52.29825     0.068  16.81903  57978.45093 
    13.51875  1.68459  3.55975       1.84318         3983.41344  0.00248  0.13994     0.01639  1.19555     16.35811   3332.80007   -15.31016  0.96026   9371.55268    1e-05  57962.50912  52.27535   0.08939  16.90591     57987.78 
    13.46516  1.56784  3.66502       2.48336         3405.21676  0.00678   0.1164     0.01525  1.37726     18.29873   4131.69739   -18.56649  1.41676   8827.18199  0.00111  57959.25279  52.24739   0.25793   16.8047     57987.78 
