 texplosion  fnickel    Pspin  log(Bfield)      Mns  thetaPB  mejecta    kappa  kappagamma      vejecta  temperature    alpha  cutoff_wavelength  log(nhhost)      A_V         MJD0  kenergy  mnickel            TSD   log(L0)  Peak_mag     Peak_MJD  log(E_rad)  log(Peak_lum)  Rise_Time    E_fold  tau_1  delta_m15     r_peak     frac 
   -3.55922  0.00586   8.0327     14.44221  1.75761  0.69851  3.82938  0.02796     0.01816   8493.95784   4795.18356  1.85005         5589.44893     18.92619  0.00469  57861.94078  1.64807  0.02245  1374148.58659  44.56601  17.73455  57882.62037    50.50577       44.00933   14.45143  26.49429   32.0    0.56059  -21.07856   0.9924 
   -6.11989  0.01445  6.66371     14.68776  1.64052  0.34617  2.74998  0.08043     0.05249   9165.97381   4517.36489  1.48682         5540.35699      20.4792  0.16747  57859.38011  1.37821  0.03973   284907.86898  45.38169  17.83246  57885.34205     50.4838        43.9074   19.26857  29.78729   32.5    0.52005  -21.12785  0.98983 
   -4.26484  0.00344   7.6096      14.7603  1.77383  0.33052  3.24856  0.03949      0.0265   8730.97699   4673.71832   1.5769          5670.5301     19.91655  0.04584  57861.23516  1.47722  0.01117   287640.46708  45.29618  17.74408     57884.47     50.5797       44.08116   14.45143  23.42595   32.0    0.57924  -21.09992  0.99665 
   -4.46463  0.03403  7.35942     14.65029  1.62778  0.39855  3.55492  0.05224     0.03174   9275.45713   4669.93967  2.25691         5057.19634     20.25915   0.1009  57861.03537  1.82443  0.12097   409752.19314  45.13423  17.79298  57885.34205    50.48186       43.91418   19.26857  28.84923   30.0    0.59299  -21.13908  0.96278 
   -6.02912  0.00936  8.26786     14.57902  1.90243   0.5995   5.0113  0.05068     0.02931   9344.40021   4126.88982  1.69593         5609.72571     19.97578  0.05254  57859.47088  2.61024   0.0469   839227.04598  44.78949  17.78519  57885.34205    50.55413       44.00895      16.86  26.49429   31.5    0.50826  -21.02624  0.98523 
   -5.93215  0.00109  8.40371     14.42572  1.85257  0.83248  3.71127  0.05058     0.01763   7300.15651     4943.151  1.98886          5862.7799     18.43382  0.00151  57859.56785  1.17981  0.00404  1710356.12695  44.45459  17.78945  57882.62037    50.47668       43.92841      16.86    30.364   32.0    0.49674  -21.00029  0.99861 
    -7.9214  0.01521  7.79812      14.4287  1.75294  0.76555  3.18009  0.08355      0.0299   7916.48208   4034.49204    1.839         5670.03098     19.94982  0.04949   57857.5786  1.18886  0.04836  1374571.51992  44.59047   17.8038     57884.47    50.55262       44.03242   14.45143  24.08572   32.5    0.46102  -20.95639  0.98468 
   -4.86423   0.0269  8.29559     14.67791  1.96043  0.53129  3.70151  0.04791     0.02626   8600.82791   4572.79338  1.65708          5805.9229     18.29882  0.00111  57860.63577  1.63338  0.09957   552118.44721  44.98147  17.82237  57885.34205    50.48377       43.92003   19.26857  28.84923   30.0    0.57744  -21.11103   0.9704 
   -5.65696  0.01254  8.71822     14.63843  1.93694   0.3867  1.03261  0.12858     0.07884   9360.20791   4427.77102  1.80528          5543.3556     18.17604  0.00083  57859.84304  0.53968  0.01295   722664.38889  44.81617   17.8116  57882.62037    50.47823       43.92792   14.45143    30.364   34.5    0.46651  -20.94763  0.99545 
   -4.85166  0.06387  7.47204     14.33004  1.66937  0.96348  3.32973  0.05178     0.03119    9981.2719   4467.27927  1.21793         5643.31486     18.52113  0.00184  57860.64834  1.97883  0.21266  1893079.35631  44.46735  17.73129     57884.47     50.5275       44.00633      16.86  26.49429   31.5    0.56446  -20.97874  0.93674 
   -6.73891  0.00346   8.0949     14.49079  1.80208  0.57782  6.21564   0.0365     0.01447   9201.36373   4605.71563  2.18247          5199.0894     19.22903  0.00941  57858.76109  3.13919  0.02148  1144033.23283  44.64976  17.93764  57885.34205    50.48485       43.89634   19.26857  31.31143   32.0    0.48638  -21.00283  0.99284 
    -3.8348  0.04498  9.77992     14.53494  2.09514  0.68366  0.61986  0.13801     0.09064   7568.61147    4858.4217  2.31977         5611.81436     17.61335  0.00023   57861.6652  0.21181  0.02788  1584269.62585  44.40956  17.80091     57884.47    50.51961       43.94822   19.26857  27.23861   33.5    0.54991  -21.05222  0.98919 
   -5.80963  0.08852  7.50804     14.12297  1.74048  1.48976  2.95509  0.04563     0.02004   9522.59835   4729.56796   1.4849         5771.09596     20.14399   0.0774  57859.69037  1.59849   0.2616  5171306.60359  44.04486  17.69804  57885.34205    50.48238        43.9351   19.26857  27.23861   33.0    0.46664  -21.05341  0.92566 
   -5.67908  0.00805  8.20025     14.21381  1.80029  1.46174  2.93349   0.0534     0.02428   8834.80425   4720.28099  1.91879         5577.79696     18.65941  0.00254  57859.82092  1.36586  0.02361  4199367.06443  44.07335  17.77284  57885.34205     50.5277         43.997      16.86  25.29171   32.0    0.51072  -21.01668   0.9919 
   -4.64728  0.18232  8.52947     14.80686  1.73579    0.291  1.97279  0.10641     0.10168  11253.40171   3920.62074  2.04512         4940.91829     17.42391  0.00015  57860.85272  1.49031  0.35967   285387.00446  45.19106  17.86599     57884.47    50.47644       43.89507   19.26857  30.62799   32.5    0.57204  -20.98867   0.8763 
   -4.54808  0.04195  7.71733     14.32377  1.77323   1.4831  3.14099  0.07157     0.04049   9684.45811    4573.4461  1.53052         5594.51422     18.14576  0.00078  57860.95192  1.75729  0.13177  2207926.19855  44.39869  17.88798     57884.47    50.46582       43.88819      16.86  32.19586   30.0    0.56518    -21.059  0.96098 
   -8.52376  0.02355  9.07445     14.53216  2.04916  0.77236  2.77126  0.11529     0.03678   7804.68886   4195.97121   1.9883         5685.21584     16.09231    1e-05  57856.97624  1.00697  0.06526   1351169.3765  44.53407  17.91596     57884.47    50.45389       43.86008   19.26857  31.31143   33.0    0.42957  -20.88495  0.97798 
     -5.302  0.10736  8.37583     14.45591  1.76292  0.85256  3.79065  0.06394     0.03384   9242.22631   4345.77216  1.71852          5466.8987     17.40659  0.00014    57860.198  1.93149  0.40695  1406983.21355  44.52073  17.82774  57882.62037     50.5243        44.0333   12.04286  26.73717   31.5    0.53958  -20.96387  0.87008 
   -3.26277  0.16273  6.78956     14.28663   1.5797  1.37154  1.64283  0.14075     0.43864   12315.3046   3288.53389  1.26473         5040.64432     19.72732  0.02965  57862.23723  1.48631  0.26734  1806376.24088  44.54693  17.83788  57885.34205    50.50596       43.94685   19.26857  27.23861   29.0     0.6522  -21.09834  0.92976 
   -4.64728  0.00186  6.62956     14.37896  1.41949  0.56736  1.87745  0.09235     0.05382   9967.81992   4749.99747  1.63247         5253.48909     17.42766  0.00015  57860.85272  1.11275   0.0035  1011555.69972  44.77302  17.86311  57882.62037    50.47095       43.91834      16.86   31.2578   31.0    0.54695  -21.01377  0.99888 
   -7.93335  0.00983  7.53351     14.17173  1.69562  1.09665  2.75027  0.06814     0.01129   6811.94231   5098.82013  2.28022         5606.49409     19.53571  0.01907  57857.56665  0.76128  0.02703  4052037.19006  44.13651  17.87254  57885.34205    50.48331        43.9026   21.67715  29.78729   30.5    0.44873  -21.00176  0.99139 
   -6.50618  0.00303  7.55194     14.45235  1.90785  1.03216  3.69696  0.07746     0.01857    7353.8442   5211.61385  1.87182         5934.51768      19.8538  0.03968  57858.99382  1.19262  0.01121  1258290.88987  44.69349  17.75543     57884.47    50.56662       44.07411   14.45143   24.3286   29.0    0.48398  -21.10025  0.99706 
   -5.13668  0.01061  8.58572     14.44194  1.84879  0.71897  3.72278  0.05061     0.02877   9062.13828   4202.47501  2.22521          5203.0947     19.53666  0.01912  57860.36332  1.82371   0.0395  1653393.37172   44.4498  17.85724     57884.47    50.48769        43.9253      16.86   31.2578   33.5    0.52217  -20.97422  0.98586 
   -4.94884  0.00774  8.85913     14.49074  1.90734  0.67793  4.11034  0.03802     0.02519   9059.12824   4030.86197  1.87788         5354.04671     17.52236  0.00018  57860.55116  2.01223  0.03183  1450591.15483  44.49295  17.75248     57884.47    50.48887       43.90091   19.26857  30.62799   33.5    0.51914   -20.9314  0.98841 
    -5.2025  0.01061  8.89972     14.30281  1.96345  1.49717  1.90084  0.07593     0.05893   9090.65098   3827.89656  1.66284         5539.12618     16.42974    1e-05   57860.2975  0.93705  0.02016  3580729.65624  44.10914  17.81757  57888.06374    50.47205       43.88444   20.90542  28.99115   35.0    0.51448  -20.94027  0.99287 
   -5.12342  0.04559  7.52412     14.30668   1.7456  1.56969  3.10259  0.06229     0.02937   8622.83893   4625.62103  1.52166         5853.31668     19.11387  0.00722  57860.37658  1.37611  0.14145  2235183.55669  44.40857  17.71838     57884.47    50.48129       43.93313   19.26857  27.23861   30.0      0.553  -21.07014  0.95931 
   -7.25518  0.00299  7.72508     14.20535  1.68891  1.39298  5.03132  0.04902     0.01308   8040.07322   4844.99804  1.88729         5694.66131     16.09232    1e-05  57858.24482  1.94012  0.01505  3635246.56334  44.16011  17.80984  57885.34205    50.48418       43.92465   19.26857  28.84923   31.0    0.45046  -20.94594  0.99497 
   -4.16909  0.29937  8.94183     14.37617  1.78642  0.98826  2.00516  0.08223     0.04038   9185.01358   4514.07995   2.3685         5271.52138     18.61206  0.00227  57861.33091   1.0091  0.60028  2345943.83937  44.24766  17.80312     57884.47    50.48955       43.95374      16.86  28.90286   31.0     0.5686  -21.10388  0.80136 
   -5.86832  0.00127  7.80837     14.54022  1.73256    0.702  5.04956  0.04691     0.01318   5814.12156   4482.36146  2.58657         5881.29768     18.46845  0.00163  57859.63168  1.01824  0.00642   815061.12063  44.81122  17.85877  57885.34205    50.48074       43.86499   21.67715  33.72001   30.0    0.45249  -21.05855  0.99791 
   -4.09573  0.45849  8.01639     14.44759  1.56921   0.8728  2.88031  0.07327     0.04038   10360.7322   4238.41362  1.65926          5402.9464     20.19649  0.08734  57861.40427  1.84437  1.32058  1192011.25444  44.58029  17.88309     57884.47    50.47286       43.90574   19.26857  28.90286   31.5    0.57799  -21.13318  0.65527 
   -5.50144  0.00396  7.92863     14.30207  1.84273  1.23953  3.54497   0.0627     0.03161   9620.19269   4527.45582  1.65797         5454.38626     20.12033  0.07329  57859.99856  1.95707  0.01402  2676339.84112  44.30837  17.77568  57882.62037    50.48793       43.96631      16.86  27.70028   31.5    0.51759  -21.04159  0.99568 
   -4.50611  0.00475  5.50814     14.00356  1.22757  1.43843  1.86667  0.10092      0.0675  10146.89855   4494.61783  1.96153         5126.07848     20.51238  0.18076  57860.99389  1.14646  0.00887  3402058.20708  44.34414  17.72293     57884.47    50.53238       44.02588   14.45143   24.3286   31.0    0.56654  -21.23006  0.99758 
   -2.57457  0.41041  8.26915     14.37205   1.5479  0.98923   2.4284  0.04154     0.02081   8117.70534   4809.56732  2.16487         5519.28438     16.96419    5e-05  57862.92543  0.95458  0.99665  1771617.30407   44.3753  17.78714  57885.34205    50.49796       43.94958   19.26857  27.23861   29.5    0.66979  -21.21851  0.69791 
   -5.46403  0.00293  8.30891     14.30567   1.7705  1.19241  1.98092  0.08133     0.03834   7418.20745   4425.93158  2.80582          5306.3525     17.52012  0.00018  57860.03597  0.65027   0.0058  2777574.22171  44.23419  17.74905     57884.47     50.5073       43.97128      16.86  26.49429   31.0    0.53304  -21.10675  0.99791 
   -7.70243  0.00206  7.17002     14.21139  1.60278  1.49307  2.35663  0.14807     0.04812   8980.13961   4519.87625  1.59006         5861.68904     18.80535  0.00355  57857.79757  1.13366  0.00486  2890335.46713  44.30173  17.79063  57885.34205    50.52657       43.96638   19.26857  27.95543   31.0    0.44508  -20.94301  0.99849 
     -5.501  0.02469  7.52862      14.2525  1.62679  1.27997   4.1541  0.06121     0.05346  10469.49161   3825.06937  1.78168         4973.36279     18.11514  0.00072    57859.999  2.71616  0.10256  2676625.89865  44.29916   17.7581  57888.06374     50.4706       43.89872   20.90542  28.99115   32.0    0.55218  -20.95487  0.96676 
   -4.79372  0.00714  6.96621     14.29775  1.53899  0.86043  4.09336   0.0576     0.03176  10612.19718   4584.96775   1.4817         5458.89197     16.61135    2e-05  57860.70628   2.7499  0.02924  1760157.21714  44.52454  17.85649     57884.47    50.50237       43.97347      16.86  27.70028   30.0    0.56264  -21.03279  0.99096 
   -5.45603  0.01015  6.57356     14.76257  1.67021  0.30638  4.87536  0.04992     0.03507    9935.3596   4406.46732  1.45571         5192.90436     20.53787  0.19169  57860.04397  2.87079  0.04946   200009.38986  45.55497  17.69702     57884.47    50.49604       43.97149   19.26857  25.29171   31.5    0.54256  -21.13135  0.98805 
   -5.00491  0.07119  7.46662     14.18491  1.60172  1.12964  2.06587  0.06242     0.02799   8675.35123   4847.08696  1.92466         5806.10609      17.3682  0.00013  57860.49509  0.92748  0.14706  3538617.07023  44.17835  17.77881  57882.62037     50.4846       43.94123   14.45143  28.90286   31.0    0.52209   -21.1262  0.95223 
   -4.99096  0.00105  7.08448     14.20428   1.6076  0.76412   1.0176  0.07097     0.02492   6941.63287   5170.42026  1.90763         5970.13643     19.19326  0.00867  57860.50904   0.2925  0.00107  2924505.45289  44.30835  17.81368  57882.62037    50.46203        43.9112      16.86  29.64718   33.0    0.44998  -21.04497  0.99967 
   -4.48551  0.44082  8.13725     14.49088  1.70065  1.38453  3.19465  0.09864      0.0554  10553.19537   3769.39751  1.98428         4994.93302     20.13212  0.07531  57861.01449  2.12236  1.40828  1090474.04106  44.64089  17.66836  57882.62037    50.50906       43.97564   14.45143  26.49429   30.5    0.57201  -21.08311  0.66279 
   -5.71668  0.05283  8.62129     14.25255  1.84377  1.25005  3.78759  0.05504     0.02398   9740.85621    4609.0866   2.4047         5048.68083     19.81988   0.0367  57859.78332   2.1438   0.2001  3977117.89352  44.06384  17.89127  57885.34205    50.46393       43.87775   20.90542  29.67459   32.0     0.4918  -20.98651  0.93118 
   -3.69473  0.05132  6.28641     14.24546  1.26955  0.88491  4.44961  0.03393     0.01709   7416.94788   4645.08541  2.18451         5519.76211     18.99727  0.00552  57861.80527  1.46016  0.22835  1504319.55788  44.59835  17.88137  57885.34205    50.49332       43.92852   19.26857  29.78729   29.5    0.61117   -21.1429  0.92849 
   -4.49939  0.00255  8.78778     14.46761  2.05523  0.89432  1.58785  0.08443     0.05993   8901.72679   4702.49012  1.60862         5639.13358     19.82276  0.03694  57861.00061  0.75056  0.00404  1710882.23851  44.46073  17.83895  57885.34205    50.46376       43.90759   19.26857  28.84923   32.5    0.56225  -21.04639   0.9987 
   -5.69974  0.02014  7.80064     14.17843  1.63551  1.38927  2.15551  0.05878     0.04052   8468.43767   4426.26099  1.91807         5613.31667     18.66898  0.00259  57859.80026  0.92211  0.04342  4063186.08746  44.08937  17.70935  57885.34205    50.49784       43.92766   19.26857  28.84923   35.0    0.51541  -21.00881  0.98459 
   -7.20705  0.13948  8.75161     14.30965  2.06016  0.86991  1.90652  0.10659      0.0382  10344.58822    4315.2106  1.70815         5060.14979     17.44615  0.00016  57858.29295  1.21701  0.26592  3520351.81213  44.15198  17.77536     57884.47    50.54227       43.98249      16.86  27.70028   32.5    0.46369  -20.89538  0.91993 
   -7.71978  0.13857  8.29146     14.41022  1.86937  1.42779  3.62169  0.10304     0.01805   7602.36085   4798.12507  1.81743         5778.52435     18.52531  0.00186  57857.78022  1.24864  0.50185  1804398.92505  44.44695  17.82918  57888.06374    50.46507       43.89473   20.90542  28.15044   30.5    0.41055  -20.90027  0.85876 
   -5.75553  0.01601  6.71011     14.11771  1.38449  1.27547  5.43571  0.04233      0.0143   8504.79386   4663.35989  2.52398          5174.5708     19.12642  0.00743  57859.74447  2.34537  0.08703  3366169.09827  44.22954  17.68648  57885.34205    50.58507       44.04722   14.45143   24.3286   30.5    0.49095   -21.0554  0.97122 
   -5.17956  0.00119  8.51866       14.592  1.92623  0.55159  2.39859  0.08305     0.04616   9316.54348   4490.87169  1.83442         5665.33396     16.21353    1e-05  57860.32044  1.24192  0.00286   849681.41396  44.76355  17.86993  57888.06374    50.46493       43.88108   20.90542  28.15044   31.0    0.53216   -21.0686  0.99905 
   -8.24455  0.22192  7.78448     14.22204   1.4308  1.23669  5.41361  0.07104     0.01195   9054.72834   4554.95976  2.01727         5270.52833     18.63759  0.00241  57857.25545  2.64768  1.20141  2895847.07987  44.18019  18.04325  57888.06374    50.42197       43.81204   20.90542  32.08316   30.5    0.43199  -20.89817  0.65677 
   -4.90079  0.00195  8.19356      14.3439  1.92635  1.18887  0.91438  0.21603     0.13432  10075.17697   4643.61835  1.73978         5281.19996     19.94414  0.04885  57860.59921  0.55368  0.00178  2464274.50083  44.33495  17.84551     57884.47    50.52046       43.98023      16.86  27.70028   31.5    0.56865  -21.07808  0.99945 
   -8.37189  0.02009  8.02911     14.93702  1.77175  0.17934  1.87557  0.11436     0.02941   7656.70495   4711.22177  1.80339         5795.92216     18.18784  0.00086  57857.12811  0.65591  0.03768   141748.64545  45.55639  17.79783  57885.34205    50.48401       43.92103   19.26857  28.90286   32.5    0.43507  -20.89879  0.98735 
   -4.41735  0.03851  8.36565     14.37311  1.80752  0.94708  2.32293   0.0966     0.10466  11277.21676   3610.15116   2.3066         4810.11962     18.61245  0.00228  57861.08265  1.76225  0.08946  2107035.78882  44.35726  17.86403  57885.34205    50.47475       43.88769   19.26857  30.62799   31.5    0.59874  -21.03508  0.96925 
   -5.21419  0.04622  7.39326     14.43025  1.81126   1.4934  2.89798  0.12449     0.13422   8535.15554    3615.8328  1.90649          5388.0296     16.41224    1e-05  57860.28581  1.25935  0.13395  1267573.88069  44.68618  17.81819  57882.62037    50.50892       43.96161      16.86  29.64718   29.0    0.48686  -20.99039  0.96487 
   -5.53824  0.00913  7.70059     14.35456  1.79202  1.04735  2.42833  0.10086     0.11484  11198.41613   3967.11378  1.05333         5452.72927     19.10236  0.00703  57859.96176  1.81655  0.02217  1927889.40462  44.46406  17.82276  57885.34205    50.46345       43.88796   20.90542  28.15044   32.5    0.55503  -20.93342  0.99333 
   -6.72715   0.0075  8.07695     14.36461  1.84833  0.89546  1.51219  0.14551     0.06765   9691.68768   4499.43071  1.50412         5586.63416     18.08138  0.00067  57858.77285  0.84729  0.01134  2088693.37627  44.40125  17.79925     57884.47    50.52002       43.97339      16.86  29.64718   31.5    0.50123  -20.97522  0.99638 
   -4.57388  0.01299  8.04699     14.32402  1.78836  1.06912  0.84251  0.14297     0.09582   8431.11159   4644.95653  2.03785         5382.02562     19.26259  0.01017  57860.92612  0.35725  0.01095  2418227.09973  44.32654  17.83825  57885.34205    50.48969       43.91572   19.26857  28.84923   32.0    0.57268  -21.10417  0.99637 
   -8.73954  0.00413  7.62421     14.50745  1.80418  0.58657  3.92882  0.07425     0.01638    7700.2007   4940.48271  1.93855         5646.37827     20.20516   0.0891  57856.76046  1.38961  0.01624   940978.81426  44.78716  17.85885     57884.47    50.52945       43.98711      16.86  28.90286   31.0    0.42832   -21.0072  0.99523 
   -8.52672  0.00333  7.78262     14.43043  1.78502  0.76848  3.78322  0.08434      0.0166   7706.46459   4990.50292  2.16237         5571.56818     19.86363  0.04058  57856.97328  1.34029   0.0126  1383095.81457  44.59738  17.89745  57888.06374    50.48369       43.85671   20.90542  29.67459   30.0    0.42871  -20.98324  0.99609 
