 log(Bfield)      Mns    Pspin  cutoff_power  cutoff_wavelength  fnickel    kappa  kappagamma  mejecta  log(nhhost)  temperature  texplosion  thetaPB      vejecta      A_V        MJD_0   log(KE)      M_Ni  Peak_mag     Peak_MJD 
    13.32272  1.49651  2.14292       0.62101         3425.86223  0.00824  0.08883     0.02086  3.54503      16.5283   7045.90388    -5.91204  1.22066  11341.36824    2e-05  58226.56596  52.59847   0.42626  18.36985  58271.54503 
    13.32469  1.60271  2.23541        0.9771         3238.29245  0.04968  0.17935     0.04211  1.79514     18.13802   6805.88301     -5.3893  1.31548  11569.93004  0.00076   58227.0887   52.5241   2.07988  18.33017  58270.51124 
      13.576  1.93508  2.81709       1.13713         3391.05639  0.16145  0.13735     0.03906  2.41363     16.61643   3760.46204    -5.13944  0.99508  11748.79925    2e-05  58227.33856  52.57972   7.44978  18.33831  58270.51124 
    13.38704    1.766  2.34886       0.77916          3533.8935   0.0296   0.1301     0.02645  2.50649     16.86065   9710.66548    -5.78877  1.20808  11124.07687    4e-05  58226.68923  52.53737   1.38216  18.34626  58271.54503 
    13.64185  2.02463   2.7348       0.69809         3471.18841  0.05611  0.12097       0.031  2.74437     17.30795   9886.30479    -6.19807  0.78991  11814.66346  0.00011  58226.27993  52.60171   2.69307  18.35033  58271.54503 
    13.54427  1.81419  2.62352       0.94078          3143.0498  0.03855  0.14189     0.03992  2.33177     16.51411   5034.51738    -5.69545  0.96385  11711.23577    2e-05  58226.78255  52.57222    1.7596  18.36119   58272.3941 
     13.5888  2.15202  2.82691       0.58492         3180.41249   0.0011  0.12452      0.0309  3.13882     18.33173   3561.36442    -6.22099  1.07032  12538.52183  0.00119  58226.25701  52.67059   0.05474  18.34951  58271.50599 
    13.24872  1.42117  2.01949       0.88688         3316.32387  0.02061  0.13215     0.02807  2.50189     18.60506   3106.05172     -6.1045  1.30212  11144.25248  0.00224   58226.3735   52.5387   0.96172  18.34878  58271.50599 
     13.5066  1.91014  2.60527         1.247         3296.01941  0.02723   0.0946     0.02128  3.42576     16.19947   6139.74223    -5.56662  0.99306  11044.83375    1e-05  58226.91138  52.57128   1.39435  18.32838  58271.50599 
    13.38193  1.73007  2.35385       0.68946         3203.78863  0.00488  0.20728     0.05108  1.63824     16.84029   3106.57128    -5.59042  1.36033  12171.69982    4e-05  58226.88758   52.5542   0.19802  18.31404  58271.50599 
    13.31601  1.54197  2.13194       0.75642         3260.88177  0.17248  0.17234     0.03767  2.04912     17.71417   8840.13745    -6.13937  1.15784  11854.01333  0.00029  58226.33863  52.56459   7.55017  18.34432  58271.51903 
    13.37252  1.57435  2.30255       0.95588         3384.71781  0.00225  0.17757     0.04377  1.76694     18.64074   4114.96558    -5.39649   1.2306  11204.80129  0.00243  58227.08151  52.49387   0.09379  18.35012  58272.75432 
    13.53815  1.82251  2.50406       0.76589         3461.33261  0.00306  0.21184     0.05125  1.54474      17.4388   8186.37681    -5.86644    0.888  11592.33268  0.00015  58226.61156  52.50264   0.12153  18.35159  58271.54503 
    13.62067   2.0949   2.7986       0.73331         3484.04663  0.01371  0.15869     0.03885  2.22077      17.6775   6830.96727    -5.80464  0.87036  11723.74747  0.00026  58226.67336  52.56638   0.61604  18.35662  58271.54503 
    13.39316  1.67902  2.36788       0.89521         3264.15402  0.00941  0.13667     0.03491  2.55271     18.20553   6489.06512    -6.13199  1.18366  11959.31104  0.00089  58226.34601   52.6027   0.44184   18.3868  58272.75432 
    13.59921   1.7437  2.46333       0.93886          3068.4487  0.00355  0.18459     0.04752  1.73464     18.31512   8307.97891    -5.16157  0.69892  11576.58869  0.00115  58227.31643  52.51943   0.14681  18.33803  58271.50599 
    13.38306  1.53116  2.28145        0.8916         3287.79551  0.00906  0.16505     0.04206  1.96218     16.47233   4159.40121    -5.14017  1.14872  11489.06429    2e-05  58227.33783  52.53116   0.39109   18.3219  58271.50599 
     13.3587  1.70116  2.30335       0.63667          3467.7264  0.00348    0.134     0.03174   2.5953      19.4936   5417.86295    -6.38106  1.40475  11885.60935  0.01731  58226.09694  52.59954   0.16437  18.33829  58271.54503 
    13.41791  1.75146  2.40874       0.72709         3560.68624  0.04467  0.11978     0.02836   2.6472     17.70962   5071.34837    -5.93699   1.1521  11382.22684  0.00028  58226.54101  52.56458   2.12106     18.32  58270.51124 
    13.33057  1.57929  2.13367        0.7404         3157.62009   0.0023  0.17362     0.03824  2.09107     18.73246   3794.38549    -6.58224  1.09572  12004.73251    0.003  58225.89576  52.57846   0.10122  18.35185  58271.50599 
    13.57435  1.95843   2.7172       0.73356          3408.3768  0.00904  0.09452     0.02432  3.30023     18.30832   3511.25704    -5.56511  1.00548  11318.20844  0.00113  58226.91289  52.58791   0.45827  18.34049  58270.51124 
    13.27071  1.63685  2.06907       0.88017         3286.53201  0.00324   0.2026     0.03755  1.64938     16.95733   7444.79249    -5.29707   1.2492  11628.13609    5e-05  58227.18093  52.51557   0.13166    18.344  58271.54503 
    13.37603  1.83751  2.24897        0.9029         3470.42931  0.06438  0.18245     0.03407  1.89539     16.22462   8354.78593    -5.23986   0.9968  11804.14797    1e-05  58227.23814  52.54959   2.74582  18.33979  58271.50599 
    13.43287  1.66518  2.32858       0.37662          3559.4609  0.00989  0.22056     0.05511  1.67193     16.68879   7865.59752    -5.57096  1.03785  12469.43662    3e-05  58226.90704  52.57833   0.40383   18.3241  58271.54503 
    13.35174  1.74975  2.34998       0.94597         3327.48218  0.00777  0.19643     0.04397  1.73198     17.34629   9376.17153    -5.30264  1.52167  11805.62338  0.00012  58227.17536  52.53621   0.32108  18.34204  58271.54503 
    13.52579  1.97443   2.6956       0.69592         3185.66517  0.01179  0.15992     0.04213   2.1551     17.89764   7862.01082    -5.08328  1.15916  12314.51957  0.00044  58227.39472  52.60487    0.5248   18.3293  58271.54503 
    13.34546  1.66434  2.22531       0.67074         3321.23646   0.0681  0.22538     0.04923  1.47572     17.40399   8442.07991    -5.10725  1.27274  11851.89537  0.00014  58227.37075  52.51458   2.65772  18.35409  58270.51124 
    13.45075  1.67015  2.45686       0.72025         3288.20029  0.03992  0.08306      0.0236  4.06897     17.62007   6482.80075    -5.57423  1.16466   12116.6852  0.00023  58226.90377  52.67234   2.14366  18.31837  58270.51124 
    13.30651  1.75936  2.22813       0.70247         3236.11963  0.02377  0.11081     0.02224  3.40558      16.7191    5534.7164    -5.49835  1.41456   12279.6615    3e-05  58226.97965  52.66261   1.21527  18.36737  58271.54503 
    13.40067  1.72783   2.4412       1.11681         3300.52972  0.01036  0.18259     0.04608  1.83015     19.32384   6221.36454    -5.22495  1.34045  11697.94577  0.01171  58227.25305  52.53655   0.43638  18.34786   58272.3941 
    13.42666  1.69363  2.41998       0.46125         3177.89061  0.21942  0.15204     0.03944  2.30416     16.46235   7684.49119    -6.06832  1.29549   11873.6232    2e-05  58226.40968  52.58253   9.97721  18.34489  58271.50599 
    13.40547  1.74955  2.47955       1.02185         3503.11047  0.04002  0.08171      0.0199  4.10865     17.88111   4631.72633     -5.9374  1.31988  11372.10851  0.00042   58226.5406  52.61838   2.15427  18.31616  58271.54503 
    13.31453  1.66751  2.21589       0.86789         3319.27157   0.1349  0.11424      0.0241  2.99754     18.80575   7559.68166    -5.21605  1.31931  11807.82167  0.00355  58227.26195   52.6126   6.64729  18.35573  58271.50599 
    13.40833  1.78907   2.3917       1.25581         3213.97963  0.12348  0.18118     0.04002   1.8694      18.3929   4266.54708    -5.36786  1.07494  11614.68406  0.00137  58227.11014   52.5335   5.24123  18.34563  58271.54503 
     13.4832  1.87747   2.5291       0.58442         3457.79709  0.02649  0.13072     0.03096   2.6969     17.54085   9314.15021    -5.43743  1.09655  12140.84726  0.00019  58227.04057  52.62308   1.26494  18.33391  58271.50599 
    13.41698  1.91396  2.50681       0.74396         3337.80382  0.01608  0.13984     0.03091  2.39789     18.61368   3220.33478    -5.34824  1.55816   11570.2308  0.00228  58227.12976  52.56552   0.74066  18.35948  58271.50599 
    13.37787  1.65171  2.36872       0.76682         3145.47361  0.09671  0.15539      0.0437  2.36479     16.62197   5883.16424    -5.52074  1.32105  12827.06117    2e-05  58226.95726   52.6532   4.43407  18.32952  58271.50599 
    13.48095  1.85305  2.52305       0.97561         3117.83644  0.01622  0.15427     0.03661  2.14921     17.86806   8199.31162    -5.16249  1.08739  11687.53619  0.00041  58227.31551  52.55909    0.7212  18.35296   58272.3941 
    13.25628  1.42485  2.08443       0.96737         3347.43355  0.00954  0.17496     0.04288  1.78855     18.75736   7799.12824    -5.62145  1.38615  11308.87763  0.00318  58226.85655  52.50373   0.39868  18.33192  58271.53205 
    13.54042  2.03692  2.87774       0.98368         3221.96023  0.00489  0.15698      0.0444  2.21902     18.39705   5821.15632    -5.44008  1.45417  12010.78066  0.00139  58227.03792  52.58728   0.21948  18.36784  58272.75432 
    13.23313  1.47644  1.98447       0.52251          3487.2553  0.18738  0.14338     0.03151  2.65785     19.06385   5902.77132    -5.12727  1.26921  12899.63535  0.00644  58227.35073  52.67381   8.90751  18.32034  58271.50599 
    13.84343  1.99762  2.94755       1.02284         3398.02757  0.00573  0.17543     0.05179  1.87362     17.55852   9857.96716    -5.15584  0.54114  11297.41222   0.0002  58227.32216  52.50977   0.24323  18.38449  58271.54503 
    13.53881  1.94241  2.67351       0.75114         3276.15428  0.09825  0.10232      0.0256  3.24852     17.84269   5779.30588    -4.93154  1.07575  11860.52758  0.00039  58227.54646   52.6266   4.95558  18.30441  58271.50599 
    13.39903  1.73503  2.49032       1.27582          3270.4824  0.02349  0.16193     0.04323   2.0976     18.59971   7035.46574    -5.90842  1.34874      11771.0  0.00221  58226.56958  52.56182   1.03634  18.33742  58271.54503 
     13.4426  1.70963  2.49719       0.95156         3249.97314  0.04152  0.18524     0.05168  1.94814     17.59729   3924.03268    -5.50161  1.26001  12291.85901  0.00022  58226.97639  52.58878   1.78711  18.33698   58272.3941 
     13.3369  1.46731  2.11873       1.02057         3354.84525  0.02048  0.21206     0.04878  1.53458     16.85756   6014.46235    -4.74847  1.01221  11477.11648    4e-05  58227.72953  52.49292   0.81094  18.33886  58271.54503 
    13.56098  1.85342  2.55686       0.68757         3484.59802  0.00245  0.09262     0.02416  3.44092     17.11667   3903.68374    -5.64644  0.87831  11792.64982    7e-05  58226.83156  52.62872   0.12552  18.35945   58272.3941 
    13.38613   1.5545   2.1956       1.03594         3248.05155  0.00625  0.15647     0.03598  2.27859     16.57946   9139.15829    -5.64952  0.88466  11891.46093    2e-05  58226.82848  52.58229   0.28335  18.35581  58271.54503 
    13.24932  1.52365  2.06465       0.79583         3234.99495  0.01874  0.24515     0.05397  1.55587     17.93927   7794.62886    -5.17632  1.34689  12601.63848  0.00048  58227.30168  52.57628   0.74562  18.33412  58270.51124 
     13.5237  2.02082  2.75161       0.58563         3469.98554  0.00885  0.11509      0.0302  3.10491     16.00785   4927.41397    -6.32245  1.35289  12091.72823    1e-05  58226.15555   52.6377   0.44079   18.3448  58271.50599 
    13.32357    1.522  2.26268       1.09805         3346.83924  0.16341   0.1672     0.04323  2.01286     18.01481    3373.7201    -5.35551   1.3171  11777.18686  0.00057  58227.12249  52.55637   7.11112  18.33534   58272.3941 
    13.51871  1.82916  2.48374       0.41084         3153.22336  0.00174  0.15084     0.03884  2.44016     18.31919   3390.19443     -6.1115  0.96701  12572.93674  0.00116   58226.3665  52.64009   0.08066   18.3331   58272.3941 
    13.26413  1.53949  2.02253       0.85018         3377.72487  0.00954  0.07895     0.01606  3.96707     17.51499    3391.1162    -5.20013  1.21795  11632.38435  0.00018  58227.27787  52.63393    0.5088  18.35943  58271.54503 
     13.5874  2.11718  2.90598       0.92105         3214.14923  0.01612  0.15525     0.04263  2.20912     16.22761   3639.04079     -5.0693  1.15489  12020.58467    1e-05   58227.4087  52.58736   0.72308   18.3255  58271.54503 
    13.43776  1.64695  2.33842       0.90376         3314.41771  0.06429  0.20755     0.05166  1.72592     18.90278   8089.00848    -5.50645  0.93227  11937.25019  0.00444  58226.97155  52.54531   2.65452  18.35799  58271.51903 
    13.41067  1.72398  2.38392       0.69274         3269.67301  0.01988  0.14097     0.03569  2.50631     16.83579   6237.36184    -5.69451  1.17988  12274.50773    4e-05  58226.78349  52.62284   0.92814   18.3637  58271.50599 
    13.58324  2.07043  2.86844       0.95381         3457.80733  0.12857  0.11476     0.02791  2.72696     18.26508   6028.90956    -4.95064  1.14003  11097.69017  0.00102  58227.52736   52.5465   6.15942  18.35482   58272.3941 
    13.38834  1.87391  2.44267        1.2286         3256.80582  0.00992  0.11456     0.02483  3.09201     18.21761   7379.29079    -5.38333  1.26988  11808.81147  0.00092  58227.09467  52.61661    0.4933  18.34151  58271.54503 
    13.38581  1.63836  2.38308       0.98638         3389.88495  0.00395  0.15784     0.04008  1.88883     17.41648   5005.02837    -5.00986  1.39393  11092.93369  0.00014  58227.46814   52.4951   0.16841  18.35228  58271.54503 
    13.63194  1.76206  2.57253       1.05713          3439.9998  0.06672  0.19154     0.04858  1.64747     16.58934   5399.66249    -5.30333  0.69026  11031.83045    2e-05  58227.17467  52.46966   2.71015   18.3613  58271.50599 
    13.36685  1.90864  2.36173        0.9111         3010.28748  0.00723  0.12993     0.02708  2.85392        19.66   4605.30277    -5.54571  1.47976   12318.3594  0.02539  58226.93229  52.64307   0.35124  18.36313   58272.3941 
     13.4378  1.75281  2.33877       0.77692          3241.4343  0.00271  0.10981     0.02392  3.05574     16.42399   6988.58789    -5.74409  0.98575  11592.25375    1e-05  58226.73391  52.59905   0.13436  18.34648   58272.3941 
    13.49367   1.6896  2.30089       0.70866          3037.8542  0.00183  0.18472     0.04484  1.85569     16.90761   3251.45298    -5.73475  0.79276  11980.58035    4e-05  58226.74325  52.55935   0.07734  18.34631   58272.3941 
    13.24804  1.04437  1.67262       0.57512         3518.31532  0.00317  0.23669     0.05932  1.47894     17.33704   5408.06476    -6.01011  0.74349  11751.20654  0.00012  58226.46789  52.50752   0.12375  18.33409  58270.51124 
    13.41262  1.53789  2.13015       0.59962         3244.75708  0.00532  0.17964     0.04263  1.81127     18.63588   3891.37988      -5.744  0.86073   11847.4205   0.0024    58226.734  52.54603   0.22339  18.34091  58271.50599 
    13.53101  1.96998  2.61425       1.02263         3462.39113  0.00264  0.07518     0.01716  4.15887     16.51719   7491.07903    -5.75394  0.93725  11147.11714    2e-05  58226.72406  52.60244   0.14247  18.34387  58271.54503 
    13.49212  2.03147  2.64553       0.56126         3425.19676  0.00678   0.2038     0.04696  1.60023      17.2667   3394.97179    -5.79165  1.36403  11758.72979   0.0001  58226.68635  52.52057   0.27266   18.3151  58270.51124 
    13.26269  1.69971  2.11948       0.98462         3249.83752  0.08709  0.20615     0.03844   1.7304     16.75374   4558.94797    -5.52304  1.46301  11985.09031    3e-05  58226.95496  52.54918   3.59927  18.35258  58271.54503 
    13.23363  1.57791  2.06223       1.07086         3198.30689  0.00479  0.12395     0.02508  2.77766     16.73941   9411.62864    -5.78784  1.46905  11775.54601    3e-05  58226.69016  52.60041   0.23082  18.33409  58270.51124 
    13.31996  1.52867  2.14984       1.10605         3214.66224  0.04653  0.17487     0.04052  2.13828      19.1517   3004.12037    -5.84082  1.09412   12033.2337  0.00788  58226.63718  52.58369   2.06562  18.32885   58272.3941 
    13.32409  1.67462  2.17438       0.87798          3180.3706  0.00274  0.18939     0.04031  1.94343     18.93411   5880.37477    -5.74739  1.14806  12240.88874  0.00477  58226.73061  52.58482   0.11786  18.34064  58272.75432 
    13.45384  1.84581  2.53509       0.97779         3476.12766  0.00267  0.09726     0.02465  3.44935     18.38943   3113.08931    -5.48103  1.13809  12000.10555  0.00136  58226.99697  52.64417   0.13697  18.33961  58271.50599 
    13.62087  1.99834  2.78579       0.88385         3412.10517  0.01545  0.12635     0.03408  2.44321     16.89349   3794.74639    -4.74066  0.87864  11689.23062    4e-05  58227.73734  52.57696   0.71543  18.33412  58271.50599 
    13.40689  1.63697  2.36708       1.16551         3229.65194  0.00464  0.14196     0.03559  2.38166     16.91452   3702.88215    -5.11477  1.06446  11784.85324    5e-05  58227.36323  52.58056   0.21342  18.33547  58270.51124 
    13.49691  1.79966  2.49283       1.04203          3286.5012  0.14187  0.16547     0.04112  1.89124     18.76794   8094.94981    -4.92664  0.94398  11609.48826  0.00326  58227.55136  52.53482   6.04601   18.3342  58270.51124 
     13.4128  1.68925  2.23594       1.25487         3313.48769  0.01574  0.18686     0.03939  1.73355     16.99108   4746.47203    -5.32668  0.84269   11323.6036    5e-05  58227.15132  52.50014   0.65086    18.349  58271.50599 
    13.42667  1.66867  2.45799       0.93377         3382.73232  0.02563  0.19081     0.05237  1.71293     16.44604   3066.91478    -5.47025  1.17708  11636.58199    2e-05  58227.00775    52.522   1.05553  18.36495  58271.54503 
    13.43285   1.7143  2.29293       0.71602         3377.20739  0.01906    0.137     0.03096  2.38519     17.52868   6689.07898    -6.24075  0.93784  11613.72199  0.00019  58226.23725  52.56806    0.8762   18.3215  58270.51124 
    13.20086  1.40186  1.97109       1.05256         3278.77698  0.07271  0.10049     0.02134  3.10261     17.62971   5448.45277    -5.40823  1.44071  11159.92833  0.00024  58227.06977  52.56796   3.61932  18.32279  58271.50599 
    13.43556   1.7682  2.54766       0.97875         3282.66361  0.04522  0.21373     0.05648  1.68394     17.61645    9268.4613    -5.47198  1.31633  12055.47906  0.00023  58227.00602  52.55011   1.85133  18.35752  58272.75432 
    13.45582  1.82378  2.45102        0.8593         3273.56382  0.00871  0.16191     0.03758  2.08854     17.24984     3596.003    -5.96656  1.06118  11658.97046   0.0001  58226.51144   52.5529   0.38378  18.32809  58271.50599 
    13.44467  1.83046  2.42103       0.72797         3461.64666  0.00352  0.14172     0.03217  2.45892     16.05076   7601.18553    -5.45242  1.06633   11930.1901    1e-05  58227.02558  52.59555   0.16351  18.35516   58272.3941 
    13.57104  2.01379  2.66837       0.89309         3346.43671   0.0688  0.15763     0.03831  1.99356     18.31394   9944.06142    -4.93152  0.90736  11538.84898  0.00114  58227.54648  52.53722   2.98443  18.33291  58271.54503 
    13.24359  1.46319  2.08259       1.12764         3189.32474  0.00143  0.19049     0.04432  1.84837     17.50446    6227.8816    -5.26221  1.43861  11924.18479  0.00018  58227.21579  52.55466   0.06027  18.34713  58271.54503 
    13.52403  1.79685  2.62708       0.96925         3221.86447  0.47319  0.21311     0.05801   1.5568     19.01135   9943.86519    -5.64747  1.02596   11772.6351   0.0057  58226.83053  52.51727  18.83364  18.34975   58272.3941 
    13.41075  1.60481  2.15136       1.14981         3307.80006   0.0026  0.14734     0.03032  2.36108      18.6524   9393.24917    -5.41794  0.79372  11678.59519   0.0025  58227.06006  52.57151   0.11896  18.32596  58271.50599 
